-4.759 
n/a 
n/a 
n/a 
n/a 
-4.759 
n/a 
n/a 
n/a 
n/a 
-4.759 
n/a 
n/a 
n/a 
n/a 
-4.759 
n/a 
n/a 
n/a 
n/a 
-2.6165 -3.098 -1.8085 -4.156 -4.328 0 -2.872 -3.074 -2.9805 -2.8645 -3.1125 -5.1195 -2.3345 -3.1385 -3.4765 -3.4775 -2.5045 -1.8085 -4.7365 -3.6385 0 -3.564 -6.055 0 -3.301 -5.4135 0 -3.301 -6.9595 0 -3.1385 -2.229 -4.6535 
-4.283 -4.5555 -6.1235 -6.2095 -4.328 -2.872 -4.5415 -6.274 -4.3245 -3.5345 -7.4045 -6.5145 -5.443501 -6.239 -6.1575 -5.6235 -3.3625 -5.948501 -6.403501 -3.6385 -3.564 -7.3655 -6.055 -3.301 -7.811501 -5.4135 -3.301 -8.3765 -6.9595 -3.1385 -4.6125 -6.635 
-5.7985 -9.2995 -8.2655 -6.2095 -7.069 -4.5415 -7.651501 -7.455 -5.2625 -7.896 -8.473001 -8.698501 -8.8205 -8.401501 -7.902501 -6.6245 -7.376501 -6.732501 -6.403501 -8.25 -7.3655 -7.3655 -9.923 -7.811501 -7.811501 -9.114 -8.3765 -8.3765 -10.674 -4.6125 -9.910501 
-9.953 -11.4481 -8.2655 -8.852501 -8.7005 -7.651501 -8.7665 -8.4775 -10.1145 -9.132 -10.7838 -12.2231 -10.621 -10.3815 -8.852501 -10.476 -7.951501 -6.732501 -11.66 -12.2827 -7.3655 -11.5779 -14.8101 -7.811501 -10.2645 -14.4457 -8.3765 -12.406 -12.148 -9.910501 
-12.1016 -11.4481 -9.85 -10.3155 -11.9941 -8.7665 -9.771501 -13.4143 -10.666 -11.5316 -14.3084 -14.0236 -12.601 -11.3315 -12.7376 -11.051 -7.951501 -12.362 -15.6927 -12.2827 -11.5779 -16.465 -14.8101 -10.2645 -15.7914 -14.4457 -12.406 -13.88 -17.446 
-2.6165 -3.098 -2.5045 -1.8085 -4.156 -4.328 0 -2.9805 -2.186 -3.074 -3.4625 -5.1755 -2.5045 -2.664 -4.525 0 -3.564 -6.055 0 -5.4895 -5.4135 0 -4.5075 -6.4655 -1.756 -2.5045 -1.8085 -3.1385 -2.229 -4.2245 
-4.283 -5.3345 -3.3625 -6.1235 -6.2095 -4.328 -2.9805 -4.1635 -4.156 -5.8805 -7.484 -6.364501 -4.074 -6.121 -4.525 -3.564 -7.3655 -6.055 -5.4895 -8.332001 -5.4135 -4.5075 -9.212501 -7.435 -4.4965 -3.3625 -5.7395 -4.6125 -6.2335 
-6.384 -5.8935 -7.1755 -8.2655 -6.2095 -6.865 -4.1635 -5.566 -6.364 -9.790001 -8.2545 -7.789001 -7.241 -6.121 -7.2915 -7.3655 -7.3655 -12.3911 -8.332001 -8.332001 -10.884 -9.212501 -9.923501 -9.527 -5.1815 -6.6085 -6.5605 -8.599001 
-6.731 -10.485 -9.412001 -8.2655 -8.5985 -8 -5.566 -8.366 -10.3105 -10.6397 -9.323 -10.443 -7.241 -9.268001 -10.7335 -7.3655 -14.046 -15.2336 -8.332001 -14.0257 -15.589 -9.923501 -12.0395 -9.871 -8.1785 -8.049 -9.5555 
-11.4157 -12.7215 -9.412001 -10.185 -9.84 -9.1745 -8.366 -12.6015 -11.1602 -11.7082 -12.224 -10.443 -10.155 -12.7082 -10.7335 -14.046 -16.8885 -15.2336 -14.0257 -18.7307 -16.3 -12.0395 -12.3835 -13.057 -10.634 -10.647 
-3.1385 -5.1755 -3.595 -2.6165 -3.098 -2.5045 -4.156 -4.328 -2.872 -4.9915 0 -3.564 -6.055 0 -3.301 -5.4135 0 -3.383 -3.301 -6.4655 -1.756 -3.383 -3.301 -4.2245 
-7.923 -7.442501 -5.991 -4.283 -5.3345 -5.844 -6.2095 -7.069 -8.263 -4.9915 -3.564 -7.3655 -6.055 -3.301 -7.811501 -5.4135 -3.383 -4.6415 -8.359 -7.435 -5.029 -4.6415 -6.8855 
-9.316 -9.8985 -7.194 -6.384 -9.6125 -7.9175 -8.852501 -12.663 -8.263 -9.314001 -7.3655 -7.3655 -9.923 -7.811501 -7.811501 -9.2465 -4.6415 -9.603001 -9.1475 -10.1585 -6.6695 -8.548 
-11.9484 -10.43 -8.365001 -10.0995 -11.6342 -9.942501 -14.5005 -12.663 -12.7957 -13.1975 -7.3655 -11.5779 -14.8101 -7.811501 -10.6605 -10.689 -9.603001 -10.1245 -10.4945 -12.032 -10.7118 
-12.4799 -10.651 -12.4793 -12.1728 -13.6592 -15.5905 -14.5005 -17.1957 -16.6792 -13.1975 -11.5779 -16.465 -14.8101 -10.6605 -12.103 -15.6505 -10.1245 -11.4715 -12.8832 -16.0743 
-7.577 -1.756 -7.501 -2.3345 -5.1845 -4.9225 -2.9805 -2.186 -2.871 -1.7565 -1.4985 -4.4745 -4.2245 -1.756 -7.232 -1.756 -4.4385 
-9.5325 -8.652 -8.912001 -7.449 -9.13 -7.8005 -4.1635 -4.247 -3.5385 -2.4195 -4.774 -7.882 -5.7035 -9.2005 -8.6175 -6.2145 
-16.4507 -9.894501 -14.2563 -11.9015 -12.1426 -8.9205 -6.139501 -4.411 -3.7675 -5.541501 -8.031 -9.406 -13.9186 -10.622 -13.2802 
-17.6932 -15.405 -18.7088 -14.9141 -13.2626 -11.0891 -6.217 -4.5655 -5.7395 -9.432501 -9.691501 -17.7261 -15.3401 -15.2847 
-23.2037 -19.8575 -21.7214 -16.0341 -15.4312 -11.1666 -6.3935 -6.559 -9.8415 -11.1132 -18.0456 -19.1476 -20.0028 
