-4.759 
n/a 
n/a 
n/a 
n/a 
-4.759 
n/a 
n/a 
n/a 
n/a 
-4.759 
n/a 
n/a 
n/a 
n/a 
-4.759 
n/a 
n/a 
n/a 
n/a 
-5.3885 0 -3.188 -5.1845 -3.326 -3.307 
-5.3885 -3.188 -8.0565 -9.3995 -5.021501 
-8.912001 -8.0565 -10.5975 -11.184 
-14.3573 -10.5975 -12.382 
-16.8983 -12.382 
-5.3885 0 -3.188 -12.16972 -4.5675 
-5.3885 -3.188 -16.49512 -16.73722 
-8.912001 -16.49512 -21.06262 
-22.79592 -21.06262 
-27.36342 
-3.188 -5.1845 -3.326 -3.9245 0 -5.3885 
-8.0565 -9.3995 -5.1625 -3.9245 -5.3885 
-10.5975 -11.325 -5.1625 -8.4285 
-12.523 -11.325 -8.6645 
-12.523 -14.827 
-3.188 -5.1845 -3.326 -3.9235 0 -5.3885 
-8.0565 -9.3995 -6.261001 -3.9235 -5.3885 
-10.5975 -12.4235 -6.261001 -10.155 
-13.6215 -12.4235 -12.9885 
-13.6215 -19.151 
