-4.759 
n/a 
n/a 
n/a 
n/a 
-4.759 
n/a 
n/a 
n/a 
n/a 
-4.759 
n/a 
n/a 
n/a 
n/a 
-4.759 
n/a 
n/a 
n/a 
n/a 
-4.052 -3.959 -1.7565 -5.818 -7.0115 -1.7695 -3.784 -1.4985 -3.299 -3.518 -1.934 -5.905 -1.934 -3.0105 -6.599 -1.7565 -3.6765 -1.7695 -5.268 -5.5515 -1.7695 -2.3615 -3.9615 -3.59 -1.7565 -2.871 -2.3345 -3.859 -1.7695 -3.922 -1.4985 -4.2305 
-8.9995 -5.473 -9.123 -14.0831 -10.107 -6.1295 -5.977 -4.5915 -4.972 -5.322001 -5.7155 -6.937 -4.827 -7.791501 -6.965 -5.6915 -4.951 -5.919001 -9.907001 -7.6895 -3.736 -7.185 -7.931001 -5.228 -4.521 -5.35 -5.5995 -6.3665 -4.5985 -4.7665 -5.4115 
-10.8331 -14.2519 -17.3639 -17.1786 -14.467 -7.709001 -8.758 -5.954 -7.210501 -10.2725 -9.618 -11.089 -10.023 -10.192 -11.995 -6.981501 -11.265 -12.827 -12.1872 -10.0375 -8.7875 -11.5475 -10.3228 -8.392 -7.5 -9.964001 -9.629 -9.2215 -5.177001 -7.682 
-19.612 -22.4928 -20.4594 -21.5386 -16.0465 -10.586 -10.435 -8.761001 -12.2633 -13.887 -12.4345 -15.4066 -11.9 -15.6502 -13.4712 -13.9741 -17.3635 -15.8404 -15.2068 -15.3712 -13.2284 -13.9393 -13.4868 -11.89 -12.4224 -14.1897 -12.7618 -9.6625 -8.007501 
-27.8529 -25.5883 -24.8194 -23.1181 -18.9235 -12.263 -13.7502 -13.9416 -16.0033 -16.517 -17.4876 -17.7693 -17.3524 -16.9402 -20.4638 -20.0082 -20.3943 -18.1884 -20.5405 -19.8121 -15.6202 -17.1033 -16.9848 -16.8124 -16.6481 -17.3225 -13.2028 -12.552 
-3.9225 -1.4985 -4.09 -3.959 0 -3.676 -2.8645 -1.4985 -4.1925 -3.6395 -1.7565 -4.3375 -3.936 0 -4.3235 -4.1925 -3.6395 -1.7565 -4.531 -5.3395 0 -5.5515 -2.4945 -4.683 -1.934 -1.4985 -3.158 -3.0105 0 -5.268 -5.5515 -4.4995 -1.934 -6.599 -3.1385 0 -2.3615 -2.186 -2.461 -3.5215 -2.645 -3.1575 -3.1435 -5.6845 -3.59 -3.691 
-4.463 -5.988 -5.684 -3.959 -3.676 -5.929501 -4.3545 -4.4615 -6.4505 -4.6145 -5.4825 -6.176 -3.936 -4.3235 -10.3545 -6.4505 -4.6145 -6.3785 -7.998 -5.3395 -5.5515 -7.339001 -6.303 -5.473 -2.6125 -4.178 -5.481501 -3.0105 -3.7765 -9.907001 -10.2755 -5.663 -7.1155 -6.672 -3.1385 -2.3615 -3.5005 -5.4845 -5.3985 -5.4615 -3.72 -5.7075 -7.441501 -7.436 -6.212501 
-8.227 -6.7805 -5.684 -7.3555 -5.929501 -7.446001 -6.156 -6.561 -6.711 -8.772 -7.2695 -6.176 -7.331 -10.3545 -12.6125 -6.711 -8.446 -10.354 -7.998 -11.8746 -7.339001 -9.6435 -7.0445 -5.949 -5.265 -6.349501 -5.481501 -7.621 -9.828 -14.7732 -11.439 -10.905 -8.864501 -6.324 -5.8265 -3.5005 -7.546 -7.4745 -7.025001 -6.514 -6.632 -9.254001 -9.147 -10.5855 
-8.54 -6.7805 -9.9175 -9.237 -7.446001 -8.537001 -7.4725 -6.797 -10.181 -10.354 -7.2695 -9.3395 -13.9674 -12.6125 -12.873 -9.179001 -13.4395 -10.354 -14.8093 -13.6621 -9.6435 -10.3835 -7.5655 -9.337501 -6.8925 -6.349501 -9.9405 -13.4273 -15.4448 -16.6083 -16.511 -12.1175 -8.5775 -8.5605 -6.388 -7.546 -9.084001 -8.4045 -7.956001 -8.6325 -10.442 -10.9827 -12.4287 
-8.54 -11.3088 -11.868 -10.61 -8.537001 -9.6715 -7.5245 -10.2225 -11.8754 -10.354 -10.434 -16.1643 -16.2254 -12.873 -15.341 -14.3793 -13.4395 -17.5797 -16.5968 -15.9666 -10.3835 -10.9045 -11.1038 -10.6745 -6.8925 -11.4299 -15.8136 -19.0441 -16.6083 -21.6803 -18.9083 -13.1323 -10.533 -9.4445 -10.7335 -9.084001 -10.3105 -9.3035 -10.522 -12.5799 -12.6419 -14.2644 
-4.38 -3.59 0 -4.345 -4.1975 -2.4945 -4.157 -1.934 -3.4975 0 -2.264 -2.3615 -3.299 -4.531 -4.345 -1.756 -4.675 -2.4945 -4.169 -12.446 -9.757 -2.4945 -11.915 -4.675 -2.4945 -3.8535 0 -3.291 -3.59 -7.541 -2.186 -3.689 -2.872 -2.3615 -2.186 -3.54 -2.5195 -7.541 0 
-8.6155 -3.59 -4.345 -7.279 -6.943501 -6.447001 -5.719 -5.3805 -3.4975 -2.264 -3.8255 -5.8375 -8.186001 -6.523 -5.3615 -6.177 -7.4235 -8.1645 -18.497 -19.389 -10.866 -16.0739 -17.4157 -7.4235 -5.5465 -3.8535 -3.291 -7.547 -12.2696 -10.0745 -4.993 -6.4355 -4.6665 -3.5005 -6.0895 -6.635 -10.209 -7.541 
-8.6155 -8.662001 -7.279 -10.382 -10.0445 -7.3435 -9.828 -5.3805 -6.998 -3.8255 -7.663501 -11.3633 -10.0605 -7.6945 -7.8395 -7.866 -13.4295 -23.3443 -23.9451 -21.5911 -23.9418 -21.3384 -20.5266 -10.6875 -5.5465 -7.105 -7.547 -16.6462 -14.8031 -12.8815 -8.0245 -8.277 -5.2445 -7.753 -9.693001 -14.5815 -10.209 
-14.0271 -11.9534 -10.382 -13.483 -11.286 -11.7161 -9.828 -8.981501 -8.5705 -7.663501 -13.4059 -13.2378 -11.3878 -10.1505 -9.397501 -14.1666 -28.6093 -28.5844 -27.8176 -36.774 -30.2924 -24.4493 -23.7906 -10.6875 -8.866 -11.8764 -16.6462 -19.1797 -17.6101 -15.913 -10.0225 -8.8015 -9.725501 -11.5665 -17.6195 -14.5815 
-17.3185 -15.0564 -13.483 -14.7245 -15.6586 -11.7161 -13.6404 -10.7175 -12.7899 -13.4059 -15.2804 -14.5651 -13.8438 -11.7085 -15.7789 -29.3464 -33.8494 -32.4569 -42.088 -42.0385 -33.4033 -27.7133 -23.7906 -14.007 -13.7282 -20.9756 -19.1797 -21.9867 -20.6416 -17.911 -10.519 -13.3553 -13.5072 -19.493 -17.6195 
-1.934 -1.4985 -4.09 -3.959 -4.7575 -4.1975 -3.6395 -2.186 -5.812 -3.299 0 -4.3235 -4.531 -4.563 -1.756 -4.675 -4.4995 -1.934 -3.0105 -2.0935 -3.6055 -6.599 -3.1385 -5.268 -4.675 -4.4995 0 -2.3615 -2.186 -2.461 -2.95 -2.645 -3.1575 -1.4985 -5.0145 -3.1715 -3.691 
-2.6125 -5.988 -5.684 -7.688 -9.7635 -6.271 -5.2645 -6.8735 -7.218 -3.299 -4.3235 -9.3055 -8.212501 -6.191 -6.177 -8.339001 -5.663 -4.827 -5.713 -4.7925 -7.5265 -6.672 -7.724 -9.041 -8.339001 -4.4995 -2.3615 -3.5005 -5.4845 -6.0625 -5.8985 -3.72 -4.1355 -6.06 -7.297 -7.583 
-6.5185 -6.7805 -9.8196 -13.8574 -11.9706 -7.4525 -9.080501 -8.3295 -7.218 -7.7475 -9.3055 -13.3642 -9.389501 -10.004 -10.341 -9.6745 -9.293 -6.734 -8.573501 -7.4905 -8.943001 -11.5705 -14.695 -13.9694 -8.339001 -6.856501 -3.5005 -7.546 -8.9135 -9.302501 -6.834 -5.267 -8.8325 -7.6885 -12.9341 
-7.3545 -11.2109 -15.989 -16.0645 -13.1521 -10.66 -9.739 -8.3295 -10.7025 -13.6957 -13.3642 -14.5412 -13.3815 -14.168 -11.6765 -13.3293 -11.3794 -9.227501 -11.1055 -8.2795 -12.8785 -17.1504 -18.4688 -13.9694 -11.1258 -7.498001 -7.546 -10.688 -10.4035 -10.0355 -8.573501 -9.867001 -10.6822 -14.4654 
-11.8325 -17.3803 -18.1961 -17.246 -16.3596 -11.3185 -9.739 -12.2134 -16.6507 -17.7544 -14.5412 -18.5332 -17.5455 -15.5035 -15.3313 -15.4157 -13.8729 -10.899 -11.252 -13.5392 -19.1386 -21.2114 -18.4688 -16.7562 -11.7673 -11.8089 -10.688 -12.178 -11.1365 -10.694 -13.2967 -11.8335 -17.4591 
