-4.759 
n/a 
n/a 
n/a 
n/a 
-4.759 
n/a 
n/a 
n/a 
n/a 
-4.759 
n/a 
n/a 
n/a 
n/a 
-4.759 
n/a 
n/a 
n/a 
n/a 
-3.9225 -3.1495 -5.521 0 -4.6585 -3.8905 -8.644501 -2.229 -3.7095 -2.4945 -7.885 0 
-5.806 -7.733001 -5.521 -4.6585 -8.6565 -13.7314 -10.513 -5.749001 -6.6005 -9.778 -7.885 
-10.396 -7.733001 -9.9755 -8.6565 -18.6562 -15.5999 -14.033 -8.747001 -14.3762 -9.778 
-10.396 -12.6641 -13.9735 -18.6562 -20.5247 -19.1199 -17.031 -16.5807 -14.3762 
-15.3271 -16.6621 -23.9732 -20.5247 -24.0447 -22.1179 -24.8647 -16.5807 
-3.9225 -3.1495 -5.521 0 -1.4985 -5.521 -1.7565 -3.8905 -9.186001 0 -3.8905 -1.7565 -4.1465 0 -2.7765 -2.489 -4.8905 -2.9905 0 
-5.806 -7.733001 -5.521 -1.4985 -6.6435 -6.622001 -4.622 -10.985 -9.186001 -3.8905 -5.3285 -5.8335 -4.1465 -2.7765 -3.495 -6.405 -5.1545 -2.9905 
-10.396 -7.733001 -7.334001 -6.6435 -7.468 -9.603001 -11.9149 -10.985 -13.4407 -5.3285 -9.104501 -5.8335 -7.484 -3.495 -7.538501 -6.547 -5.1545 
-10.396 -9.129001 -9.31 -7.468 -10.3675 -17.0311 -11.9149 -15.2397 -14.8787 -9.104501 -9.104501 -8.8725 -8.022 -7.538501 -7.982501 -6.547 
-11.792 -11.482 -10.271 -10.3675 -17.7956 -17.0311 -16.1696 -16.6777 -18.6547 -9.104501 -12.2967 -9.254001 -12.3231 -7.982501 -7.982501 
-3.9225 -2.5685 -1.4985 -5.521 -1.4985 -3.8905 -1.7565 -4.1465 -7.0885 -2.7415 -1.4985 -5.091 -1.756 -3.2825 -3.9225 -3.277 0 
-5.686 -3.7015 -6.6435 -7.334001 -5.518001 -5.3285 -5.8335 -12.2898 -10.2755 -4.063 -6.526501 -7.1295 -5.1685 -7.0345 -5.4525 -3.277 
-6.399 -8.204 -8.484501 -10.757 -5.892 -9.104501 -14.3172 -15.4768 -12.052 -8.849001 -8.602 -9.440001 -9.0895 -8.161501 -5.4525 
-10.673 -10.275 -11.9367 -11.131 -9.448001 -17.7414 -17.5042 -17.2533 -16.838 -11.0477 -11.0023 -13.8656 -10.195 -8.161501 
-12.744 -13.7272 -12.3107 -14.687 -18.1465 -20.9284 -19.2807 -22.0393 -19.0367 -13.448 -15.4279 -14.9711 -10.195 
-1.934 -3.1495 -5.521 -5.091 -2.871 -2.186 -4.1465 -3.8905 -10.914 -7.1905 -2.229 -4.6895 
-4.5395 -7.733001 -10.375 -7.9125 -4.751 -6.6575 -8.449 -16.0009 -18.1045 -8.337501 -6.907001 
-9.533001 -13.0636 -13.6655 -8.669001 -9.964001 -12.083 -20.9428 -23.1914 -19.2515 -13.5837 
-14.9124 -16.3541 -14.422 -14.1976 -15.4663 -24.5768 -28.1333 -24.3384 -24.4977 
-18.2029 -17.1106 -19.9506 -19.6999 -27.9601 -31.7673 -29.2803 -29.5846 
