-4.759 
n/a 
n/a 
n/a 
n/a 
-4.759 
n/a 
n/a 
n/a 
n/a 
-4.759 
n/a 
n/a 
n/a 
n/a 
-4.759 
n/a 
n/a 
n/a 
n/a 
-2.8845 -6.557 -5.1845 -7.9155 -5.157 -4.866 
-9.6975 -8.437 -14.3944 -13.4895 -11.301 
-11.5775 -18.6907 -19.9684 -19.6335 
-21.8312 -24.2647 -26.1124 
-27.4052 -30.4087 
-4.4095 -5.326 -1.7565 -6.557 -1.934 -2.8845 
-9.68 -6.4275 -7.653501 -8.4335 -4.7805 
-10.662 -13.0615 -9.189 -11.5936 
-17.296 -14.597 -12.5525 
-18.8315 -17.9605 
-1.934 -2.8845 0 -4.4095 -5.326 -2.0935 -5.1845 -8.1075 0 
-4.7805 -2.8845 -4.4095 -9.68 -6.6755 -7.298 -14.5864 -8.1075 
-4.7805 -7.6635 -9.68 -10.021 -12.798 -17.2065 -14.5864 
-9.0105 -13.2328 -10.021 -16.1435 -22.7065 -17.2065 
-14.8428 -13.5738 -16.1435 -26.052 -22.7065 
-2.8845 -4.866 -2.3345 -5.1845 -5.74 -2.229 -6.844 -6.4735 
-8.9725 -7.165501 -7.449 -5.7465 -7.966001 -9.749001 -8.6315 
-11.6806 -12.6392 -8.278 -7.9785 -15.7958 -11.6335 
-17.1543 -13.4682 -9.9455 -15.8125 -17.6803 
-17.9833 -15.1357 -17.7795 -17.697 
