-4.759 
n/a 
n/a 
n/a 
n/a 
-4.759 
n/a 
n/a 
n/a 
n/a 
-4.759 
n/a 
n/a 
n/a 
n/a 
-4.759 
n/a 
n/a 
n/a 
n/a 
-6.5705 -3.676 -3.416 -3.969 -4.3255 -1.7565 -4.0745 
-11.2151 -7.5365 -8.0675 -8.0385 -6.4265 -5.254 
-15.0756 -12.9636 -12.6016 -9.624001 -10.575 
-20.5027 -17.4977 -14.1871 -14.7549 
-25.0368 -19.0832 -19.318 
-3.676 -2.915 -3.969 -4.0745 -4.3255 -3.416 -3.68 
-7.1495 -6.294001 -8.652 -8.7375 -7.7495 -7.372 
-10.3885 -11.7958 -13.3934 -12.6677 -12.2081 
-15.8903 -16.5372 -17.3236 -17.1263 
-20.6317 -20.4674 -21.7822 
-6.5705 -3.676 -2.915 -3.969 -3.8135 -4.3255 
-11.2151 -7.1495 -6.294001 -7.629 -8.895 
-14.6886 -10.3885 -10.265 -13.1591 
-17.9276 -14.3595 -16.9441 
-21.8986 -21.0386 
-3.416 -3.68 -2.186 -1.4985 -3.4975 -3.127 -3.918 -3.969 -1.7565 -4.3255 0 
-7.372 -6.104 -3.339 -4.3125 -7.415501 -5.642 -8.419001 -5.501 -6.935 -4.3255 
-9.8695 -7.127 -6.635 -8.894 -9.138 -10.27 -10.76 -11.8531 -6.935 
-10.6775 -9.174 -11.3597 -10.7369 -14.1272 -12.611 -17.1121 -11.8531 
-12.7245 -14.4787 -13.2026 -15.7261 -16.4682 -18.9631 -17.1121 
