-4.759 
n/a 
n/a 
n/a 
n/a 
-4.759 
n/a 
n/a 
n/a 
n/a 
-4.759 
n/a 
n/a 
n/a 
n/a 
-4.759 
n/a 
n/a 
n/a 
n/a 
-3.8735 -4.69 -2.6165 -1.7695 -2.9645 -1.4985 -10.9935 -1.934 -5.0815 -2.9995 -3.3155 0 
-9.025001 -7.785501 -4.153 -3.812 -3.957 -13.5858 -13.4581 -7.292 -8.601501 -6.4375 -3.3155 
-12.2891 -9.2215 -5.782001 -4.58 -16.3635 -16.0504 -18.8161 -11.1428 -12.2381 -6.4375 
-13.7251 -10.9209 -6.308001 -17.1415 -18.8281 -21.4084 -22.6669 -14.7794 -12.2381 
-15.4245 -11.4469 -19.4317 -19.6061 -24.1861 -25.2592 -26.3035 -14.7794 
-3.8735 -4.2215 -4.963 -2.0935 -2.6165 -2.9645 -1.4985 -4.9315 -3.519 0 
-8.505501 -9.271001 -7.6555 -5.199 -4.853 -3.957 -5.924001 -7.119 -3.519 
-13.7968 -12.2661 -11.2972 -9.39 -5.566 -8.1495 -8.578501 -7.119 
-16.7919 -15.9078 -15.4882 -10.116 -10.19 -11.4058 -8.578501 
-20.4336 -20.0988 -16.2142 -14.74 -13.3011 -11.4058 
-3.8735 -2.186 -1.4985 -3.0835 -3.59 -1.934 -1.4985 -3.188 -2.3335 -3.4635 -2.6165 -1.7695 -2.9645 -1.4985 -4.3415 -4.6075 0 
-5.949 -3.339 -3.535 -6.711 -5.272 -2.6125 -3.619 -5.428 -6.444 -7.284 -4.153 -3.812 -3.957 -5.4925 -5.408 -4.6075 
-7.04 -4.8925 -6.804501 -7.265 -5.747 -4.377 -5.688 -10.071 -10.382 -8.7335 -5.782001 -4.58 -8.2685 -6.995501 -5.408 
-8.764501 -7.792 -7.285501 -7.395 -6.1975 -6.245501 -10.3885 -14.1066 -12.1279 -9.467001 -6.308001 -8.604501 -9.521 -6.995501 
-9.386001 -8.2255 -7.415 -7.5 -7.5855 -11.1934 -14.4241 -15.8525 -12.8614 -10.9996 -10.2035 -9.880001 -9.521 
-3.8735 -3.251 -3.43 -2.664 -5.5345 -2.6165 -1.7695 -2.6165 -2.9645 -1.4985 -4.3415 -4.901 -3.0835 0 
-6.9985 -5.49 -5.286 -7.223 -8.148001 -4.153 -4.994 -4.853 -3.957 -5.4925 -6.210001 -8.2355 -3.0835 
-8.914001 -6.9825 -10.8026 -9.461 -9.172501 -8.024 -6.551001 -5.566 -8.2685 -7.3625 -9.653001 -8.2355 
-10.7025 -12.6497 -13.0406 -10.4865 -13.2113 -9.779 -7.188 -9.961 -9.863001 -11.3567 -9.653001 
-16.3697 -14.8877 -14.0661 -14.5253 -14.9663 -10.705 -11.8586 -11.4647 -13.9214 -11.3567 
