-4.759 
n/a 
n/a 
n/a 
n/a 
-4.759 
n/a 
n/a 
n/a 
n/a 
-4.759 
n/a 
n/a 
n/a 
n/a 
-4.759 
n/a 
n/a 
n/a 
n/a 
-7.245501 -2.229 -4.1465 0 -3.3635 0 0 -2.5195 -1.4985 -4.1465 -12.16972 -2.882 0 
-9.429501 -6.035501 -4.1465 -3.3635 -3.3635 0 -2.5195 -3.1695 -5.547501 -17.37102 -15.05172 -2.882 
-10.6895 -6.035501 -7.8715 -3.3635 -3.3635 -2.5195 -3.1695 -7.236 -19.39162 -20.25302 -15.05172 
-10.6895 -9.918 -7.8715 -3.3635 -6.1515 -3.1695 -7.236 -21.48152 -22.27362 -20.25302 
-14.572 -9.918 -7.8715 -6.1515 -7.0085 -7.236 -21.48152 -24.36352 -22.27362 
-10.5785 -4.1465 0 -3.3635 0 0 -10.914 -4.1505 -6.569 0 
-14.725 -4.1465 -3.3635 -3.3635 0 -10.914 -15.0645 -11.2755 -6.569 
-14.725 -7.8715 -3.3635 -3.3635 -10.914 -15.0645 -22.1895 -11.2755 
-18.45 -7.8715 -3.3635 -14.8715 -15.0645 -22.1895 -22.1895 
-18.45 -7.8715 -14.8715 -19.022 -22.1895 -22.1895 
-7.245501 -2.229 -4.1465 0 -3.3635 0 0 -2.5195 -1.4985 -4.1465 -1.7565 -7.0315 -3.1405 0 
-9.429501 -6.035501 -4.1465 -3.3635 -3.3635 0 -2.5195 -3.1695 -5.547501 -6.0475 -9.1595 -10.543 -3.1405 
-10.6895 -6.035501 -7.8715 -3.3635 -3.3635 -2.5195 -3.1695 -7.236 -6.676001 -14.2827 -12.851 -10.543 
-10.6895 -9.918 -7.8715 -3.3635 -6.1515 -3.1695 -7.236 -8.740001 -15.2326 -17.9742 -12.851 
-14.572 -9.918 -7.8715 -6.1515 -7.0085 -7.236 -8.740001 -17.5508 -18.9241 -17.9742 
-7.0395 -4.1465 0 -3.3635 0 0 -12.16972 -2.882 -4.1465 0 
-10.564 -4.1465 -3.3635 -3.3635 0 -12.16972 -15.05172 -8.014001 -4.1465 
-10.564 -7.8715 -3.3635 -3.3635 -12.16972 -15.05172 -20.18372 -8.014001 
-14.7018 -7.8715 -3.3635 -16.12722 -15.05172 -20.18372 -20.18372 
-14.7018 -7.8715 -16.12722 -19.00922 -20.18372 -20.18372 
