-4.759 
n/a 
n/a 
n/a 
n/a 
-4.759 
n/a 
n/a 
n/a 
n/a 
-4.759 
n/a 
n/a 
n/a 
n/a 
-4.759 
n/a 
n/a 
n/a 
n/a 
-3.17 -1.7565 -1.4985 -4.128 0 -2.4945 -4.811 -1.934 -4.088 -3.321 -2.4265 -2.186 -4.3775 -1.7695 -1.4985 -3.664 -1.7695 -4.866 -1.934 -1.4985 -6.8125 -4.397 -1.756 -2.4265 -2.7415 -5.189 -2.3345 -8.883 -4.6415 -4.541 -1.756 -5.189 -2.3345 -1.4985 -4.474 
-4.179 -2.4195 -5.761001 -4.128 -2.4945 -6.2565 -5.997001 -4.9295 -7.48 -4.872 -3.292 -5.706 -4.9845 -2.7955 -5.285501 -4.894 -5.2455 -5.5865 -2.6125 -8.484 -12.0143 -5.834001 -3.949 -3.681 -6.542 -5.735 -11.5481 -13.8165 -9.462 -6.4525 -6.639 -5.735 -3.233 -5.0675 
-4.497 -6.661001 -5.761001 -6.382 -6.2565 -6.9995 -9.727501 -8.093 -9.1105 -5.6395 -6.8535 -6.3155 -5.696 -6.3565 -6.6265 -8.7355 -5.8745 -5.994 -9.876 -14.273 -13.4513 -7.785501 -4.9795 -7.7755 -6.8885 -15.4888 -16.4816 -18.637 -11.5797 -12.1829 -7.48 -6.11 -6.6265 
-7.8135 -6.661001 -7.427501 -10.7025 -6.9995 -11.1022 -13.0346 -9.594501 -9.8505 -8.864 -7.3045 -6.654 -8.519 -8.0015 -10.1985 -9.232501 -6.235 -13.9083 -15.8208 -15.71 -15.4028 -8.917001 -9.397 -8.005 -16.7915 -20.4223 -21.3021 -20.7547 -17.3101 -13.0239 -7.9605 -9.235001 
-7.8135 -8.489501 -11.8996 -11.4455 -11.1022 -14.4093 -14.5361 -10.478 -13.2344 -9.512501 -7.5335 -9.446501 -10.437 -11.8277 -10.4745 -10.5135 -14.2503 -19.8531 -17.2578 -17.6615 -16.5343 -13.4109 -9.6835 -18.061 -21.725 -25.2428 -23.4198 -26.4851 -18.1511 -13.5044 -11.1213 
-4.2055 -4.96 -6.288 -1.7695 -4.4385 -4.315 -3.3255 -4.088 -3.326 -1.7565 -3.664 0 -7.9455 -3.193 -3.6205 -1.7565 -3.594 -3.355 -1.7565 -3.5025 -4.221 0 -2.871 -3.699 -1.7565 -3.973 -1.7695 -3.8625 -1.934 -3.3785 -4.9225 -1.7565 -5.848 -4.7615 -1.4985 -7.748 -4.6415 -3.737 -4.474 0 
-9.6415 -12.4236 -8.6415 -5.804501 -8.6215 -7.853 -7.271 -7.656501 -5.826 -5.2935 -3.664 -7.9455 -11.4405 -7.0555 -5.2835 -5.294 -7.416 -3.725 -5.2375 -7.8885 -4.221 -2.871 -6.001 -6.1875 -6.670001 -6.4565 -6.393001 -5.3795 -4.5895 -9.050501 -6.042 -7.552501 -11.6419 -5.9545 -10.335 -13.2737 -8.888 -8.5425 -4.474 
-17.1817 -14.7771 -13.0639 -10.6991 -12.5551 -12.4233 -11.8959 -10.7593 -9.838 -5.2935 -12.6229 -11.4405 -15.303 -8.67 -10.634 -9.212001 -8.2545 -7.653501 -9.139501 -7.8885 -7.283501 -6.001 -9.9355 -12.1368 -8.932501 -11.663 -8.2445 -8.324 -10.115 -10.5586 -13.1674 -14.006 -12.8349 -15.3832 -15.8607 -17.5202 -14.0349 -8.5425 
-19.5352 -19.1995 -17.9585 -14.6327 -17.1254 -17.0482 -14.9987 -14.7713 -9.838 -14.7546 -16.1179 -15.303 -16.9175 -14.3965 -14.552 -9.842501 -12.3918 -12.0649 -9.139501 -11.2986 -9.908001 -9.9355 -16.0238 -14.3993 -14.3598 -13.5145 -11.7226 -14.1061 -11.6231 -17.684 -19.6209 -15.199 -22.2636 -20.9089 -20.1072 -22.6671 -14.0349 
-23.9576 -24.0941 -21.8921 -19.203 -21.7503 -20.151 -19.0107 -14.7713 -19.2991 -18.2496 -19.9804 -16.9175 -22.644 -18.3145 -15.1825 -13.864 -16.8032 -12.0649 -12.7678 -13.9231 -13.8425 -16.0238 -18.2863 -19.8266 -16.2113 -16.9926 -17.5047 -15.6142 -18.7485 -24.1375 -20.8139 -24.6277 -27.7893 -25.1554 -25.2541 -22.6671 
-3.17 -1.7565 -3.602 -4.558 -3.9755 -1.756 -2.3335 -3.326 -2.5045 -4.088 -1.4985 -3.664 -3.7575 -2.9775 -1.756 -3.5535 -3.193 -4.8795 -2.3615 -4.0705 -3.436 -4.39 -2.356 -3.5025 -1.756 -3.5025 -5.9325 -3.535 -3.5095 -2.186 -5.848 -4.7695 -9.575001 -4.6415 -1.7695 -6.319 -1.756 -3.335 -4.474 
-4.179 -5.373 -8.205 -8.9625 -5.4075 -4.016 -6.2565 -5.561501 -7.4335 -5.859 -5.285501 -8.2185 -7.444 -4.946 -5.1915 -8.1285 -9.1665 -7.18 -6.161 -7.692501 -8.564 -5.401 -5.519 -5.073 -5.1565 -8.7945 -10.2595 -8.549001 -5.4615 -6.956 -11.08 -15.0977 -14.3435 -7.008 -8.292001 -7.717 -5.317 -7.553 
-9.383 -10.9402 -13.8669 -9.609 -7.939 -7.888 -8.627001 -10.031 -9.458501 -10.002 -8.665001 -12.2008 -9.536501 -9.192 -9.693001 -14.6878 -11.6056 -10.586 -10.041 -13.2745 -9.715501 -9.407001 -7.589001 -7.7735 -11.1271 -13.4575 -15.2735 -9.652 -10.9057 -14.4324 -21.4082 -19.8662 -16.71 -13.8877 -9.409501 -11.768 -10.7495 
-15.0708 -16.6021 -14.5134 -12.8069 -11.8776 -10.172 -13.2985 -13.7456 -13.7305 -13.3815 -12.9077 -14.2933 -13.9673 -13.9757 -16.5313 -17.1269 -15.0116 -14.466 -16.185 -14.426 -13.9861 -11.0946 -10.459 -14.1977 -15.7901 -18.4715 -16.3765 -15.662 -18.3821 -24.7606 -26.1767 -22.2327 -23.5897 -15.0052 -13.7327 -17.2005 
-20.7327 -17.2486 -17.7113 -16.7455 -14.1616 -15.2855 -17.0131 -18.0176 -17.11 -17.6242 -15.0002 -18.7241 -18.751 -20.814 -18.9704 -20.5329 -18.8916 -20.61 -17.3365 -18.6966 -15.6737 -13.9646 -16.8832 -18.8607 -20.8041 -19.5745 -22.3865 -23.1384 -28.7103 -29.5291 -28.5432 -29.1124 -24.7072 -19.3284 -19.1652 
-3.301 -2.871 -2.0935 -9.679501 -10.914 -4.6415 -2.3345 -1.4985 -3.2795 
-5.5955 -4.9555 -12.764 -20.8209 -15.5555 -7.344 -3.233 -4.423 
-6.9635 -15.982 -23.9054 -25.4624 -18.258 -8.7615 -6.132 
-18.135 -27.1234 -28.5469 -28.1649 -19.6755 -12.0631 
-29.2764 -31.7649 -31.2494 -29.5824 -22.9771 
