-4.759 
n/a 
n/a 
n/a 
n/a 
-4.759 
n/a 
n/a 
n/a 
n/a 
-4.759 
n/a 
n/a 
n/a 
n/a 
-4.759 
n/a 
n/a 
n/a 
n/a 
-4.1885 -7.0085 -3.0695 -5.0075 -7.503 -3.2875 -4.0385 -1.4985 -3.0835 -3.452 -4.281 -8.51 -2.264 -4.0305 -4.8985 -1.934 -1.4985 -4.129 -1.7565 -1.4985 -3.9785 -3.8405 0 
-10.082 -9.9865 -7.027 -14.0693 -11.3595 -8.170501 -5.3245 -3.535 -5.7425 -7.758 -13.1076 -10.304 -6.8155 -9.182001 -7.649001 -2.6125 -5.424 -6.9015 -2.4195 -4.496 -7.447001 -3.8405 
-13.06 -14.0036 -16.69 -17.9258 -16.2425 -9.386001 -6.903 -6.089001 -9.935 -16.7578 -14.9016 -15.2149 -12.4856 -12.0653 -8.590501 -6.6615 -7.337501 -7.3865 -5.7375 -7.743001 -7.447001 
-17.0771 -23.6666 -20.5465 -22.8088 -17.458 -11.0157 -8.2095 -10.442 -18.9348 -18.5518 -19.8125 -20.885 -15.3689 -13.0068 -12.7931 -8.636001 -7.6925 -11.0851 -8.473001 -7.743001 
-26.7401 -27.5231 -25.4295 -24.0243 -19.0877 -12.3222 -12.9095 -19.4418 -20.7288 -23.4627 -25.4826 -23.7683 -16.3104 -17.2094 -14.7676 -9.013 -11.4551 -13.8206 -8.473001 
-8.51 -2.186 -2.664 -4.571 -4.879 -2.3345 -6.595 -1.7565 -5.743001 0 -6.595 -2.229 -3.213 0 -2.3345 -1.4985 -3.8315 -3.9785 -4.4915 0 
-10.6215 -3.8555 -6.543 -8.786 -5.605 -8.007 -7.56 -6.692 -5.743001 -6.595 -8.074 -4.994 -3.213 -2.3345 -3.233 -4.604 -6.8395 -5.7 -4.4915 
-12.291 -7.85 -10.5325 -8.8405 -10.1765 -9.151501 -7.635 -6.692 -9.6105 -8.074 -9.962001 -4.994 -5.245 -3.233 -6.3605 -7.151501 -7.1045 -5.7 
-16.2855 -12.2571 -10.6505 -14.0218 -11.798 -9.304 -7.635 -9.638 -10.69 -9.962001 -9.962001 -7.1245 -6.3715 -6.3605 -9.1735 -7.235001 -7.1045 
-20.6926 -12.3751 -15.8318 -15.6433 -11.9505 -9.304 -9.6805 -10.719 -12.578 -9.962001 -12.3883 -8.356 -9.323501 -9.1735 -9.243 -7.235001 
-3.5455 -1.4985 -3.9785 -3.7515 -3.3235 -3.9205 -4.8775 -4.1885 -6.7175 -2.5195 -5.743001 -4.0385 -1.4985 -3.0835 -3.9785 -3.7515 -3.452 -4.281 -8.51 -1.934 -4.4175 -4.8985 
-3.91 -4.496 -6.294 -7.1825 -4.8795 -8.076 -8.261 -11.142 -9.686001 -7.702001 -9.427001 -5.3245 -3.535 -6.2695 -6.294 -7.507 -7.758 -13.1076 -10.354 -6.2395 -9.5375 
-6.5755 -7.3835 -9.5365 -9.720501 -8.283 -12.0685 -16.2149 -14.1105 -14.8797 -11.7884 -11.2014 -6.903 -7.7865 -9.193501 -10.123 -12.48 -16.7578 -14.9516 -14.6595 -11.8721 
-8.931001 -10.8766 -12.2047 -13.3004 -12.3071 -20.0224 -19.1834 -19.3042 -18.9661 -13.5628 -12.7799 -11.5895 -10.513 -13.3159 -15.2206 -21.4798 -18.6018 -19.2571 -20.2921 
-12.5859 -13.5448 -15.7846 -17.3245 -20.261 -22.9909 -24.3771 -23.3906 -20.7405 -15.1413 -17.4664 -14.316 -14.6354 -18.4135 -24.2204 -23.3238 -22.9073 -24.8897 
-1.934 -8.460501 -2.95 -3.9535 -3.7875 -3.2825 -4.8775 -8.0825 -3.2875 -7.7165 -12.16972 -2.186 -3.535 -3.6765 -1.7565 -3.091 -3.452 -8.51 0 -4.8985 0 
-9.9645 -11.6499 -7.379001 -6.646 -8.1355 -8.690001 -13.9104 -11.706 -12.1514 -20.60102 -14.35572 -6.8505 -7.611 -5.5875 -4.0655 -5.5575 -13.0328 -8.51 -4.8985 -4.8985 
-13.1539 -16.0789 -10.075 -11.426 -13.857 -18.2365 -17.5339 -20.5699 -25.03592 -22.78702 -19.02022 -10.389 -9.2495 -7.3295 -6.562 -15.4359 -13.0328 -13.9095 -4.8985 
-17.5829 -18.7749 -14.936 -17.1475 -23.4035 -21.86 -26.3978 -33.45442 -27.22192 -27.45152 -22.55872 -12.0275 -11.3683 -10.5768 -16.5736 -15.4359 -18.4323 -13.9095 
-20.2789 -23.6359 -20.6575 -26.694 -27.027 -30.7239 -39.28232 -35.64042 -31.88642 -30.99002 -24.19722 -14.1463 -14.6156 -20.5884 -16.5736 -20.8354 -18.4323 
