-4.759 
n/a 
n/a 
n/a 
n/a 
-4.759 
n/a 
n/a 
n/a 
n/a 
-4.759 
n/a 
n/a 
n/a 
n/a 
-4.759 
n/a 
n/a 
n/a 
n/a 
-3.436 -4.943 -5.1165 0 -2.5045 -1.4985 -3.7575 -1.7565 -3.432 0 -5.0425 -4.8255 -2.4945 -2.6165 -3.8825 0 -3.436 -2.3335 -1.4985 -3.518 -1.7565 -4.9505 -2.7415 -3.689 -3.1575 -5.877 -1.756 -4.0005 -3.4425 -2.915 -3.1335 0 -6.479 0 -4.0135 -1.7565 -4.6895 -4.3435 -4.367 -2.8965 -4.385 0 
-6.672501 -10.8625 -5.1165 -2.5045 -3.1915 -4.9525 -4.4575 -5.5975 -3.432 -5.0425 -9.1035 -6.5745 -3.8065 -5.522 -3.8825 -3.436 -5.4805 -3.3515 -4.77 -4.302 -6.1975 -7.631 -5.778 -4.168 -9.308001 -7.511001 -5.8075 -5.811 -6.0585 -5.4905 -3.1335 -6.479 -6.479 -4.0135 -4.201 -6.065001 -10.2285 -9.2815 -7.381001 -7.2665 -4.385 
-14.0008 -10.8625 -7.845 -3.1915 -6.3855 -5.345 -8.656501 -5.5975 -9.634501 -9.1035 -12.3355 -7.6675 -6.497 -5.522 -6.9125 -5.4805 -6.856 -6.4475 -4.885 -8.467 -8.708 -10.9923 -6.094501 -11.1515 -11.177 -10.281 -7.055 -7.844501 -8.668501 -5.4905 -9.394001 -6.479 -11.4221 -4.201 -8.411501 -12.0892 -15.1665 -12.7649 -12.1944 -7.2665 
-14.0008 -13.591 -8.4995 -6.3855 -6.5585 -9.755001 -8.656501 -13.0424 -13.7297 -12.3355 -13.4285 -11.0786 -6.497 -8.080501 -9.2705 -6.856 -10.0675 -6.5105 -8.9775 -10.443 -12.1397 -11.3088 -13.3488 -13.0205 -13.947 -10.2905 -9.467001 -9.0495 -8.668501 -9.6125 -9.394001 -11.4221 -11.6096 -8.411501 -14.6101 -17.0272 -18.6499 -17.5783 -12.1944 
-16.7293 -14.2455 -11.8431 -6.5585 -11.4937 -9.755001 -16.3872 -17.1376 -16.9617 -13.4285 -16.8396 -11.0786 -9.6815 -10.451 -10.7178 -10.0675 -10.132 -10.5745 -10.7595 -13.8747 -12.4562 -18.5631 -15.2178 -15.7905 -13.9565 -10.3055 -10.7134 -9.0495 -9.623501 -9.6125 -14.5297 -11.6096 -15.8201 -14.6101 -19.5481 -20.5106 -23.4633 -17.5783 
-5.1165 -4.298 -1.7695 -3.432 -3.64 -3.013 -5.651501 -3.0465 -2.3335 -3.5015 -5.877 -6.479 -1.7695 -3.135 -4.2305 -1.7565 -4.4695 0 
-10.0785 -5.568 -5.956501 -6.837501 -6.660501 -8.529501 -6.711 -5.3435 -5.909 -10.259 -8.290001 -9.057 -4.779 -7.354001 -5.3675 -6.127 -4.4695 
-11.6989 -10.598 -10.4184 -8.163 -12.367 -11.0715 -10.0085 -8.904 -13.0819 -12.672 -10.718 -12.0893 -8.501 -9.025001 -10.5528 -6.127 
-16.7289 -15.0599 -11.7439 -15.4271 -14.402 -11.8255 -14.0685 -16.2623 -15.4949 -15.1 -13.7503 -15.8113 -10.19 -14.4109 -10.5528 
-21.1908 -16.3854 -19.008 -17.4621 -16.4878 -15.7468 -21.4268 -18.6753 -17.9229 -18.1323 -17.4723 -17.5003 -15.5759 -14.4109 
-3.436 -5.1165 -2.7415 -4.4895 0 -3.6965 -2.4945 -2.6165 -3.2955 -1.934 -3.16 -3.64 -3.436 -2.3335 -5.877 -1.756 -6.479 -3.152 -3.689 -3.6975 0 
-9.258 -7.717 -5.4595 -4.4895 -3.6965 -5.293 -3.8065 -5.259501 -4.2285 -5.4145 -4.892 -7.012 -5.4805 -8.664001 -7.511001 -8.0525 -9.8055 -5.8975 -6.726 -3.6975 
-10.2985 -10.1265 -5.4595 -9.632 -5.293 -6.7105 -6.069 -6.161 -7.458 -6.877 -8.1995 -9.2815 -12.198 -10.2185 -8.837001 -10.4675 -12.641 -8.701 -6.726 
-12.8762 -10.1265 -11.3446 -11.4795 -6.7105 -9.1145 -6.8565 -9.753501 -8.2945 -10.459 -10.674 -16.0172 -13.7525 -11.5445 -10.688 -13.303 -15.4445 -8.701 
-12.8762 -16.0116 -13.1921 -12.897 -9.1145 -9.842501 -10.1 -10.9666 -12.4591 -12.9335 -17.4097 -17.5717 -15.0785 -13.3955 -13.5235 -16.1065 -15.4445 
-3.436 -4.752 -1.4985 -5.1165 0 -3.482 -2.6165 -3.8825 -1.934 -3.16 -3.64 -2.4265 -2.186 -4.4895 -2.356 -3.135 -1.7565 -1.4985 -4.526 -3.9595 -2.5195 -1.4985 -5.877 -1.756 -6.479 0 
-9.2465 -5.671 -6.436 -5.1165 -3.482 -6.981501 -5.522 -4.9695 -5.4145 -4.892 -6.323 -3.292 -5.884501 -6.511 -4.668 -3.9195 -2.4195 -5.632501 -8.445 -5.087 -3.1695 -7.064 -7.511001 -8.0525 -6.479 
-9.8855 -10.9509 -6.436 -8.4265 -6.981501 -10.682 -6.202 -8.8795 -6.877 -7.267 -7.0475 -7.376 -7.616 -8.7925 -5.462 -4.168 -6.416 -9.482 -8.554 -5.51 -8.7895 -8.904 -8.837001 -8.0525 
-15.412 -10.9509 -10.4675 -12.7978 -10.682 -11.362 -9.757 -10.028 -8.7475 -7.941 -11.5485 -9.2355 -9.700001 -10.0095 -5.646 -7.279 -10.126 -9.598001 -8.9475 -11.3498 -11.0081 -10.2925 -8.837001 
-15.412 -14.9824 -14.8388 -16.4983 -11.362 -14.917 -11.3537 -11.8985 -9.5115 -12.7296 -13.408 -11.3519 -10.917 -10.218 -8.75 -11.2514 -10.4825 -10.6245 -15.0993 -13.5684 -12.3966 -10.2925 
