-4.759 
n/a 
n/a 
n/a 
n/a 
-4.759 
n/a 
n/a 
n/a 
n/a 
-4.759 
n/a 
n/a 
n/a 
n/a 
-4.759 
n/a 
n/a 
n/a 
n/a 
-4.9795 -3.9555 -5.1035 -1.934 -3.85 -2.742 -3.61 -3.2615 -4.051 -3.4425 -3.423 0 -3.441 -1.756 -4.051 -3.824 -4.415 0 
-7.449 -9.34 -6.408501 -4.875 -6.9475 -5.2735 -5.78 -7.929501 -6.2975 -6.073 -3.423 -3.441 -4.7645 -5.368 -7.641 -8.393001 -4.415 
-13.2633 -10.6345 -10.2925 -7.4965 -9.465 -7.096 -9.908001 -9.7845 -10.019 -6.073 -7.0065 -4.7645 -7.0445 -8.718 -12.7048 -8.393001 
-14.5578 -14.5185 -12.914 -10.292 -11.5383 -11.5514 -11.834 -14.0828 -10.019 -10.0049 -8.2545 -7.0445 -12.1513 -13.9246 -12.7048 
-18.4418 -17.14 -15.7095 -12.4103 -15.9937 -13.4774 -16.1323 -14.0828 -14.3679 -11.2529 -10.8669 -12.1513 -17.3579 -13.9246 
-1.4985 -3.85 -2.229 -5.171 -3.3035 -4.1675 -3.2615 0 -4.051 -4.3655 0 -6.1335 0 -4.5605 
-5.244 -5.5805 -6.827 -8.471001 -7.3755 -6.6705 -3.2615 -4.051 -7.759 -4.3655 -6.1335 -6.1335 -4.5605 
-8.033 -11.0683 -10.8418 -12.9826 -9.138 -6.6705 -7.929501 -7.759 -7.759 -10.7025 -6.1335 -11.874 
-13.6806 -15.0831 -15.3534 -14.7451 -9.138 -10.3285 -11.8513 -7.759 -14.5738 -10.7025 -11.874 
-17.6954 -19.5947 -17.1159 -14.7451 -12.9764 -14.2503 -11.8513 -14.5738 -14.5738 -16.443 
-3.441 0 -10.1825 -4.5605 -4.373 -6.326 -6.8325 -4.373 -2.7415 -3.9595 -3.456 -2.3345 -1.4985 -4.373 -1.934 -3.85 
-3.441 -10.1825 -14.8878 -8.668 -10.9075 -13.5897 -9.859001 -6.948 -5.2105 -5.863 -5.956 -3.233 -5.0385 -6.21 -4.875 
-15.0525 -14.8878 -18.9953 -15.3867 -18.1712 -16.6162 -12.4912 -9.728001 -7.351501 -7.9345 -7.163 -6.021 -7.094501 -9.044001 
-19.7578 -18.9953 -25.714 -22.6504 -21.1977 -19.2484 -15.2712 -12.116 -9.408001 -8.445001 -9.9505 -8.031501 -9.903 
-23.8653 -25.714 -32.9777 -25.6769 -23.8299 -22.0284 -17.6592 -14.1725 -10.032 -11.3161 -11.8504 -11.0928 
-4.051 -12.4825 -4.9785 -4.257 
-11.043 -14.6535 -8.846001 
-13.8897 -18.3269 
-22.5446 
n/a 
