-4.759 
n/a 
n/a 
n/a 
n/a 
-4.759 
n/a 
n/a 
n/a 
n/a 
-4.759 
n/a 
n/a 
n/a 
n/a 
-4.759 
n/a 
n/a 
n/a 
n/a 
0 -3.147 -4.9405 -4.232 -3.127 -2.7765 -2.489 -3.7855 0 
-3.147 -8.453501 -10.0345 -7.179 -5.66 -3.495 -4.789001 -3.7855 
-8.453501 -13.8325 -13.3669 -10.2135 -5.824501 -6.002 -4.789001 
-13.8325 -17.1649 -16.4014 -10.306 -8.856001 -6.002 
-17.1649 -20.1994 -16.4939 -14.0499 -8.856001 
-3.147 -3.991 -2.742 -2.489 -3.7855 -2.0935 -1.4985 -4.1535 -5.5 
-8.476001 -6.468 -3.301 -4.789001 -5.6715 -2.9725 -5.7445 -11.08 
-11.2196 -6.9385 -5.34 -6.370501 -6.3275 -7.481 -13.1488 
-11.6901 -9.264001 -6.7835 -7.094 -11.1134 -15.0761 
-14.0156 -11.1117 -7.5895 -12.1629 -18.7085 
0 -3.147 -5.1255 -4.4765 -3.127 -2.186 -4.4905 0 
-3.147 -9.1555 -10.7175 -5.7425 -4.6745 -5.5835 -4.4905 
-9.1555 -15.1099 -11.9835 -7.7135 -8.325 -5.5835 
-15.1099 -16.3759 -13.9545 -11.8854 -8.325 
-16.3759 -18.3469 -18.1264 -11.8854 
-3.147 -2.882 -3.7855 -3.915 -4.4765 -5.593 0 
-6.26 -8.278501 -7.924001 -7.556001 -9.3025 -5.593 
-12.3121 -12.7256 -12.08 -13.473 -9.3025 
-16.7592 -16.8816 -17.997 -13.473 
-20.9152 -22.7986 -17.997 
