-4.759 
n/a 
n/a 
n/a 
n/a 
-4.759 
n/a 
n/a 
n/a 
n/a 
-4.759 
n/a 
n/a 
n/a 
n/a 
-4.759 
n/a 
n/a 
n/a 
n/a 
-1.934 -2.3615 -3.6205 -4.6505 -3.2615 -2.9805 -5.571 -1.4985 -4.432 -4.328 -3.275 0 -10.6835 0 -2.9805 -4.101 -4.883 -4.3465 -2.5685 -3.509 -1.7695 -12.16972 
-3.539 -5.509501 -7.854 -7.707001 -5.2875 -6.625501 -7.133 -5.268001 -4.899 -7.804 -3.275 -9.563001 -9.563001 -2.9805 -5.2985 -10.8415 -9.23 -6.814001 -6.011 -5.5825 -14.92142 
-6.592 -10.3815 -11.1909 -9.6745 -8.127001 -7.976001 -9.8675 -5.504 -8.653501 -7.804 -12.853 -9.361 -11.836 -5.2985 -12.3658 -15.1885 -11.8253 -10.1075 -8.161 -19.49462 
-11.7242 -13.7184 -13.1584 -12.5884 -9.404 -10.757 -10.138 -8.957001 -8.653501 -19.2854 -14.0214 -11.8634 -13.8433 -12.3658 -16.7128 -17.7838 -15.1188 -12.2575 -22.33432 
-15.0611 -15.6859 -16.0723 -13.8654 -12.3366 -11.0275 -13.591 -8.957001 -20.4281 -19.2854 -16.5238 -13.8433 -21.507 -16.7128 -19.3081 -21.0773 -17.2688 -26.43082 
-4.302 -3.2615 -5.2955 -2.3615 -3.6205 0 -8.445001 -3.251 -5.571 -2.5195 -1.4985 -4.156 -4.328 -3.275 0 -10.6835 0 0 -5 -3.2295 -1.4985 -4.2325 -1.7695 -12.16972 -1.756 -3.687 -2.0935 -4.883 0 
-5.379 -6.907001 -7.3395 -5.509501 -3.6205 -8.445001 -12.4278 -7.1025 -6.3935 -3.1695 -4.9965 -6.2095 -7.804 -3.275 -9.563001 -9.563001 0 -5 -6.0585 -3.844 -5.147 -5.228 -14.92142 -13.92572 -5.358 -5.533 -7.248 -4.883 
-9.215 -9.1055 -9.758501 -5.509501 -13.1769 -12.4278 -16.2793 -7.823501 -6.6955 -6.6715 -6.746 -9.527 -7.804 -12.853 -9.361 -9.361 -5 -6.0585 -6.9875 -7.585 -6.1555 -19.57392 -16.67742 -17.52772 -6.9525 -9.0965 -7.248 
-11.5943 -11.6841 -9.758501 -15.7435 -17.1597 -16.2793 -17.0003 -8.104 -10.2485 -8.5425 -9.969 -9.527 -19.2854 -14.0214 -9.361 -15.6907 -6.0585 -6.9875 -9.1105 -8.748 -20.79302 -21.32992 -20.27942 -19.12222 -10.304 -9.0965 
-14.1729 -11.6841 -20.0465 -19.7263 -21.0112 -17.0003 -17.2808 -11.686 -12.1195 -12.0357 -9.969 -21.1004 -19.2854 -14.0214 -15.6907 -16.7492 -6.9875 -9.1105 -9.734 -23.55192 -22.54902 -24.93192 -21.87392 -22.47372 -10.304 
-4.302 -2.9805 -5.571 -3.091 -4.156 -4.328 -3.275 -2.264 -10.6835 -1.756 -4.3465 -6.744 -1.7695 -9.251 -1.756 -2.9805 -3.687 -1.7695 -4.883 0 
-6.8915 -6.625501 -6.8665 -6.5585 -6.2095 -7.804 -5.042 -11.7595 -11.321 -5.466001 -12.1815 -7.706 -12.0027 -11.4654 -4.3555 -5.572001 -4.984 -6.724501 -4.883 
-10.459 -7.517001 -10.298 -8.649 -9.527 -10.7335 -12.6585 -13.487 -14.9575 -13.5562 -13.1435 -18.434 -14.2171 -14.0649 -7.054 -7.1915 -10.597 -6.724501 
-11.3505 -11.0413 -12.3885 -12.1131 -12.5485 -20.7114 -17.0723 -18.7411 -23.1639 -14.5182 -23.8715 -20.6484 -16.8166 -16.7634 -8.740001 -13.2769 -10.597 
-14.8748 -13.1318 -15.8526 -15.1346 -23.9508 -24.1882 -22.157 -26.8313 -24.1259 -25.2462 -26.0859 -23.2479 -19.5151 -18.4494 -14.8604 -13.2769 
-4.302 -3.2615 -2.9805 -5.214 -2.3615 -3.6205 0 -2.9805 -5.571 0 -10.6835 0 -3.091 -4.156 -4.328 -3.275 -1.756 -5 -3.2295 -1.7695 -15.91072 -3.321 -4.101 -1.7695 -4.883 0 
-5.379 -5.2875 -6.54 -7.907001 -5.509501 -3.6205 -2.9805 -6.625501 -5.571 -9.563001 -9.563001 -3.091 -6.5585 -6.2095 -7.804 -5.3045 -6.353 -6.0585 -4.92 -18.18572 -19.80072 -5.874001 -4.6905 -6.724501 -4.883 
-7.6335 -8.9965 -9.345501 -10.733 -5.509501 -6.5425 -6.625501 -6.625501 -14.972 -9.361 -12.7893 -6.5585 -8.649 -9.527 -9.778 -9.9585 -7.1935 -6.351 -20.54622 -21.63772 -22.35372 -6.424 -8.820001 -6.724501 
-11.5467 -12.1084 -12.2651 -10.733 -8.222 -10.5035 -6.625501 -17.0145 -15.3616 -12.8167 -16.5238 -8.649 -12.1131 -11.593 -14.4518 -10.678 -7.4495 -21.70962 -23.93362 -24.19072 -22.90372 -10.418 -8.820001 
-14.6586 -15.028 -12.2651 -13.4455 -12.284 -10.5035 -17.0145 -17.0145 -18.8173 -16.5238 -18.6143 -12.1131 -14.1791 -16.2668 -15.1713 -10.934 -23.03632 -25.05282 -26.48662 -24.74072 -26.89772 -10.418 
