-4.759 
n/a 
n/a 
n/a 
n/a 
-4.759 
n/a 
n/a 
n/a 
n/a 
-4.759 
n/a 
n/a 
n/a 
n/a 
-4.759 
n/a 
n/a 
n/a 
n/a 
-3.6705 0 -1.4985 -4.02 -1.7565 -3.135 -3.959 0 -3.2775 -2.5045 -4.7375 -1.756 -3.8005 -2.186 -2.6165 -3.4765 -3.9205 -1.7695 -1.4985 -4.885 -3.748 0 0 -2.461 0 -3.0415 -3.0365 -2.186 -1.8085 -4.926 -4.4095 -1.7565 -3.731 -1.934 -3.2775 -4.4785 
-3.6705 -1.4985 -4.914001 -5.1665 -4.6765 -5.8285 -3.959 -3.2775 -3.678 -7.620001 -6.4445 -5.53 -5.7585 -3.5105 -4.9455 -7.2285 -4.971 -2.7955 -5.337 -7.755 -3.748 0 -2.461 -2.461 -3.0415 -5.1375 -3.66 -3.164 -5.5635 -7.7405 -5.621 -5.611001 -5.2495 -4.6915 -7.049 
-4.5585 -4.914001 -5.776 -7.642 -7.460001 -5.8285 -5.9915 -3.678 -7.939 -8.443001 -8.762 -7.2735 -7.1525 -6.134501 -7.874001 -7.989 -5.8955 -5.7435 -7.795501 -7.755 -3.748 -2.461 -2.461 -6.1155 -5.1375 -5.663 -4.218 -6.7875 -7.7915 -8.8475 -6.2465 -6.830501 -8.0795 -8.4715 
-7.953001 -5.776 -8.531501 -9.6075 -7.460001 -7.258 -6.015 -7.939 -8.580501 -10.2385 -10.5975 -8.604 -9.428 -8.423 -8.539001 -8.824 -9.6675 -7.797501 -7.795501 -7.755 -6.479 -2.461 -6.1155 -8.137501 -5.663 -6.3835 -7.0005 -9.732 -8.920501 -9.3805 -7.705 -9.206 -10.1895 
-8.606501 -8.531501 -9.7585 -9.6075 -9.0745 -7.285501 -8.265 -8.580501 -10.3345 -12.074 -11.928 -9.8985 -11.9295 -9.106501 -9.044001 -10.759 -10.636 -7.797501 -7.795501 -9.632 -6.479 -6.1155 -8.137501 -8.6765 -6.3835 -9.182 -9.766001 -10.07 -9.4285 -10.173 -9.986 -10.5645 
-2.3345 -3.326 -2.925 -4.2635 -1.4985 -3.5015 -1.756 -5.259 -1.4985 -4.201 -1.756 -3.535 -3.347 -2.9705 -3.5285 -1.7695 -2.3335 -3.5015 0 -2.3345 -1.4985 -3.898 -1.7565 -3.347 -1.756 -4.5905 -2.925 -2.7765 -3.2955 -1.7695 -3.3785 -2.7455 -1.4985 -4.1445 -1.756 -4.201 -1.756 -3.074 -2.4265 -4.508 -2.645 -4.676 -2.7455 -2.4265 
-6.0555 -6.607 -6.722 -4.9175 -4.737 -5.087 -6.432 -6.3555 -5.187 -5.758 -5.089 -7.236 -6.5195 -7.368 -5.1755 -4.46 -5.909 -3.5015 -2.3345 -3.233 -5.0465 -4.9795 -6.216001 -5.283 -7.113 -7.396501 -4.3215 -7.141 -3.9425 -4.1685 -4.6985 -3.637 -5.1825 -5.402 -5.8755 -5.758 -4.566 -5.653 -5.8625 -6.6555 -7.061501 -6.801 -4.4735 
-9.368 -9.790001 -7.5445 -8.106501 -6.22 -9.534 -7.0355 -8.8905 -6.6905 -9.3465 -9.5165 -9.406 -11.522 -8.613 -8.031 -7.019 -5.909 -5.85 -3.233 -6.93 -5.3325 -9.948 -7.7615 -8.1805 -10.1305 -9.013 -8.702001 -7.749001 -6.926 -5.138 -5.497 -6.858 -6.644001 -9.582001 -7.752501 -8.479 -6.903501 -9.2045 -8.0865 -12.3256 -8.293 -8.758 
-12.6022 -10.479 -10.5325 -9.081 -11.0368 -10.5715 -10.4265 -10.0245 -10.1145 -13.846 -11.8027 -14.6377 -12.767 -11.7735 -9.477 -7.019 -8.288 -6.577 -6.93 -7.175 -10.367 -11.5619 -9.896501 -11.8096 -11.9052 -13.6241 -9.444501 -10.8879 -8.8535 -5.989 -8.762 -7.894001 -11.1486 -11.6768 -9.8085 -10.8743 -10.2645 -11.5557 -13.4328 -13.5571 -10.096 
-13.2912 -13.467 -11.507 -14.434 -12.0743 -13.9625 -11.5605 -13.6409 -14.7898 -16.1322 -17.0344 -15.8827 -15.9275 -13.2195 -9.477 -9.1615 -8.9335 -10.553 -7.175 -12.3655 -11.9809 -13.6969 -13.6592 -13.5843 -16.5163 -14.3666 -12.5958 -12.8154 -9.6745 -9.251 -9.768001 -12.7054 -13.2434 -13.7328 -12.2832 -14.2353 -12.6157 -16.902 -14.6643 -15.3601 
-5.101 -3.5855 -1.756 -1.4985 -4.497 -3.433 -2.8645 -4.523 -1.934 -5.7915 -1.756 -5.2005 -1.4985 -4.201 -1.756 -4.295 0 -4.8315 -2.4265 -4.3465 -1.4985 -3.908 -4.0825 -4.676 -2.7455 -1.4985 -3.486 0 
-8.061001 -4.5585 -3.0405 -5.7405 -7.112 -5.76 -5.426 -6.3665 -7.066 -6.91 -6.6115 -5.7095 -5.187 -5.758 -5.805 -4.295 -4.8315 -6.097 -5.9305 -5.372001 -5.555 -6.1225 -8.7815 -6.801 -3.637 -3.5655 -3.486 
-8.803 -6.0915 -7.3165 -8.953501 -9.263 -7.6565 -7.3955 -10.316 -8.087001 -9.9725 -7.1715 -7.9675 -6.6905 -7.5325 -5.805 -8.2665 -6.097 -9.299 -6.9935 -9.047001 -7.449 -8.908501 -11.1811 -7.3255 -5.5885 -3.5655 
-11.0272 -11.1571 -10.8601 -11.2453 -11.2697 -9.5965 -11.4614 -11.4328 -11.3315 -10.5685 -9.200001 -9.569 -8.136001 -7.5325 -9.887001 -9.519 -9.299 -9.946501 -10.5855 -11.4478 -10.4944 -11.3101 -11.7056 -10.085 -5.5885 
-16.0928 -14.7007 -13.1519 -13.252 -13.2097 -13.6688 -12.5782 -14.6773 -11.9275 -12.597 -10.8117 -10.4205 -8.136001 -11.9127 -10.454 -12.7876 -9.946501 -13.5385 -12.9863 -14.4932 -12.896 -11.8346 -14.4651 -10.085 
-4.656 -1.4985 -4.088 -1.756 -5.2045 -3.3255 -3.326 -1.756 -1.7695 -3.3785 -1.4985 -4.8435 -4.201 -1.7695 -3.135 -4.4495 0 -1.756 -1.7695 -3.3785 -1.4985 -3.8685 -1.756 -4.295 -1.7565 -1.8085 -4.015 -3.89 0 -3.1495 -3.681 -2.674 -4.7195 -1.8085 -3.845 -3.9485 -2.356 -3.347 -3.6645 -1.756 -4.7615 -1.7695 -3.6845 -4.1535 -5.2785 0 
-5.197 -5.6785 -5.522501 -6.7295 -7.8955 -6.2165 -4.4115 -3.963 -4.1685 -4.6165 -6.142 -7.9565 -5.576 -4.779 -5.734 -4.4495 -1.756 -3.963 -4.1685 -4.6165 -4.916 -5.283 -5.805 -5.0085 -3.2595 -4.5105 -7.1525 -3.89 -3.1495 -5.1675 -5.7475 -5.7475 -6.8985 -3.9645 -7.658 -4.311 -6.7345 -7.681 -5.064 -6.1475 -7.248 -4.2695 -8.076 -8.644501 -5.2785 
-9.598001 -7.0755 -9.094001 -9.404 -11.0257 -6.7915 -6.738 -6.6255 -5.3175 -9.774 -8.8485 -8.934501 -8.143001 -5.7405 -5.734 -5.9375 -3.963 -6.6255 -5.3175 -7.844 -6.338 -7.7415 -6.345 -6.339 -5.5095 -7.5625 -7.1525 -6.979 -5.1675 -6.9465 -8.251501 -7.692 -7.626 -8.0415 -8.372001 -8.935 -10.6605 -9.335501 -10.019 -8.062 -9.915001 -8.4205 -10.634 -8.644501 
-10.6755 -9.664001 -12.1775 -13.0146 -11.6007 -8.719001 -9.93 -7.6205 -10.766 -12.6033 -9.92 -11.6617 -10.0885 -5.7405 -7.351501 -8.2255 -6.6255 -7.6205 -8.297001 -9.0425 -8.437501 -8.163 -7.690001 -8.672 -8.607 -7.5625 -10.151 -9.022501 -6.9465 -8.443001 -9.972001 -8.388 -10.1675 -8.724 -13.0366 -13.043 -12.315 -14.3411 -11.9335 -10.5425 -14.1006 -11.1883 -10.634 
-13.264 -13.6707 -15.7881 -13.5896 -13.5282 -12.4148 -11.0356 -13.3176 -13.5953 -13.6748 -12.8236 -13.6072 -10.0885 -7.36 -9.113001 -11.1256 -7.6205 -10.759 -9.584001 -10.7575 -8.507001 -9.057 -10.208 -12.0623 -8.607 -10.4035 -12.1945 -10.143 -8.443001 -11.3827 -10.4385 -10.1985 -11.5776 -13.385 -17.1446 -14.6975 -17.3206 -16.2556 -14.414 -14.7281 -16.8684 -11.1883 
