-4.759 
n/a 
n/a 
n/a 
n/a 
-4.759 
n/a 
n/a 
n/a 
n/a 
-4.759 
n/a 
n/a 
n/a 
n/a 
-4.759 
n/a 
n/a 
n/a 
n/a 
-7.9775 -2.7295 -3.7855 
-10.6475 -7.717501 
-15.6355 
n/a 
n/a 
-2.985 -2.0935 -2.3615 -2.186 -7.9775 -12.16972 0 
-7.188 -3.854 -3.5005 -11.3739 -20.51362 -12.16972 
-9.377501 -5.761 -13.2872 -23.91002 -20.51362 
-11.3211 -15.6437 -25.82332 -23.91002 
-21.2038 -28.17982 -25.82332 
-3.0415 -2.3615 -2.186 -3.849 -7.0255 -12.16972 
-5.189 -3.5005 -4.8565 -10.061 -19.99182 
-5.686 -5.99 -11.3495 -23.02732 
-8.6435 -12.7908 -24.31582 
-15.5875 -25.75712 
-3.0415 -2.4265 -2.186 -3.849 -2.5045 -7.9775 -12.16972 
-4.551 -3.292 -4.8565 -6.305 -10.932 -20.51362 
-5.318 -5.872 -7.104 -14.8361 -23.46812 
-8.269501 -8.048 -15.7649 -27.37222 
-9.7685 -16.7371 -28.30102 
