-4.759 
n/a 
n/a 
n/a 
n/a 
-4.759 
n/a 
n/a 
n/a 
n/a 
-4.759 
n/a 
n/a 
n/a 
n/a 
-4.759 
n/a 
n/a 
n/a 
n/a 
-7.4075 -7.3695 -7.1525 0 -7.515501 -10.5165 -2.4945 -4.0885 -1.4985 -4.257 -3.7015 -1.4985 -5.5485 0 
-15.7756 -10.382 -7.1525 -7.515501 -18.3826 -13.011 -6.2105 -5.411 -5.0245 -7.3585 -4.3435 -6.842 -5.5485 
-18.7881 -10.382 -15.2544 -18.3826 -20.8771 -16.727 -6.665 -8.599 -8.2605 -7.767 -8.767501 -6.842 
-18.7881 -18.4839 -26.1215 -20.8771 -24.5931 -17.1815 -10.451 -10.2085 -8.667001 -12.5276 -8.767501 
-26.89 -29.351 -28.616 -24.5931 -25.0476 -20.9675 -12.0605 -10.5305 -13.5572 -12.5276 
-7.423 -3.8005 -7.1525 0 -6.147501 -8.873 -4.172 -1.4985 -4.257 -1.7695 -4.319 -3.7015 -1.4985 -4.065 0 
-11.6181 -11.9518 -7.1525 -6.147501 -15.8179 -13.3972 -5.360001 -5.0245 -6.2085 -4.9595 -5.442 -4.3435 -4.824 -4.065 
-19.7694 -11.9518 -13.8864 -15.8179 -20.3421 -14.5852 -8.177001 -6.73 -7.791 -6.451 -6.401 -7.032001 -4.824 
-19.7694 -18.6857 -23.5568 -20.3421 -21.5301 -17.4022 -8.786 -8.4215 -8.7665 -7.064 -8.6315 -7.032001 
-26.5033 -28.3561 -28.081 -21.5301 -24.3471 -18.0112 -10.4035 -9.670001 -9.1115 -9.1575 -8.6315 
-9.204 -9.2615 0 -9.224 -8.873 -2.4945 -1.4985 -4.231 -3.0695 -3.9875 -1.4985 -4.257 -3.0695 -4.319 -3.7015 -1.4985 -4.065 0 
-9.635 -9.2615 -9.224 -18.2754 -11.7197 -3.9315 -5.5675 -5.9045 -6.721001 -5.3055 -5.0245 -7.101 -6.873 -5.442 -4.3435 -4.824 -4.065 
-9.635 -18.6723 -18.2754 -21.1221 -13.1567 -7.087501 -7.342 -8.510501 -7.378 -8.287001 -7.741501 -10.1305 -8.033501 -6.401 -7.032001 -4.824 
-19.0174 -27.7237 -21.1221 -22.5591 -16.3127 -8.6085 -10.003 -9.592001 -10.3225 -11.3986 -10.7595 -11.3076 -8.73 -8.6315 -7.032001 
-28.0688 -30.5704 -22.5591 -25.7151 -17.8337 -11.5185 -10.6015 -12.5671 -13.4341 -14.4166 -11.9366 -12.0041 -11.0753 -8.6315 
-9.188001 -9.2615 0 -9.224 -8.873 0 -4.4565 -1.4985 -4.257 -3.7015 -1.4985 -4.065 -3.5435 
-10.4855 -9.2615 -9.224 -18.2754 -8.873 -4.4565 -5.6065 -5.0245 -7.3585 -4.3435 -4.824 -6.1265 
-10.4855 -18.6723 -18.2754 -18.2754 -13.6817 -5.6065 -8.985001 -8.2605 -7.767 -7.032001 -6.2165 
-19.8963 -27.7237 -18.2754 -23.0841 -14.8317 -8.985001 -10.3965 -8.667001 -9.4935 -8.2495 
-28.9477 -27.7237 -23.0841 -24.2341 -18.2102 -10.3965 -11.1132 -10.5231 -10.816 
