-4.759 
n/a 
n/a 
n/a 
n/a 
-4.759 
n/a 
n/a 
n/a 
n/a 
-4.759 
n/a 
n/a 
n/a 
n/a 
-4.759 
n/a 
n/a 
n/a 
n/a 
-2.3345 -1.4985 -3.498 -3.972 -3.115 -3.7075 -4.5485 0 
-3.233 -4.0295 -8.4485 -6.5765 -7.214 -8.516001 -4.5485 
-5.098 -9.3365 -10.749 -10.243 -12.4217 -8.516001 
-11.4816 -11.8424 -14.4155 -15.4507 -12.4217 
-13.9875 -15.5089 -19.6232 -15.4507 
-3.1495 -2.4945 -3.9515 -1.7695 -5.757 -1.4985 -3.7075 -1.756 -3.584 -3.737 -1.7565 -4.031 0 
-4.459 -7.528 -5.9375 -8.464001 -7.7005 -4.6235 -5.318 -4.9685 -6.04 -5.3145 -5.849501 -4.031 
-8.783001 -9.557 -13.206 -10.513 -11.1305 -5.845 -9.279 -6.738 -10.233 -10.586 -5.849501 
-10.8014 -16.9153 -15.255 -13.943 -12.352 -9.406 -11.1743 -11.304 -15.5045 -10.586 
-18.1597 -18.9643 -18.685 -15.1645 -15.913 -11.3477 -15.7403 -16.5755 -15.5045 
-2.3345 -2.3615 -3.6 -2.4265 -2.186 -3.77 -3.7075 -1.7695 -3.5185 -3.972 -3.115 -3.7075 -2.9705 -4.0935 -4.3 -4.942 0 
-4.499 -4.98 -6.061501 -3.292 -5.0015 -7.014501 -5.234 -4.134 -8.398001 -6.5765 -7.214 -6.874001 -5.492001 -8.1675 -6.419001 -4.942 
-7.5895 -7.313001 -6.574 -5.525 -10.0965 -7.631001 -7.005 -8.965 -10.168 -10.243 -9.824 -9.7355 -9.642 -9.541 -6.419001 
-9.4515 -7.899001 -9.160001 -11.7326 -10.628 -8.9025 -12.1838 -10.9048 -14.3275 -12.853 -12.7843 -14.0113 -11.0155 -9.541 
-10.0485 -10.4505 -15.1938 -12.2641 -11.8995 -14.3261 -14.1236 -15.0643 -16.9375 -15.8133 -17.0601 -15.3848 -11.0155 
-1.4985 -4.365 -4.4315 -2.186 -2.6165 -4.0675 -5.796 0 -1.756 -1.4985 -3.7075 -4.179 -2.186 -5.453 -1.7695 -5.398 -4.7195 0 
-5.4465 -7.8395 -6.412001 -3.5105 -5.419001 -7.5555 -5.796 -1.756 -3.0405 -4.6235 -7.6225 -5.351 -6.954 -7.0305 -7.066501 -6.436501 -4.7195 
-8.101501 -9.553 -8.238501 -6.4355 -7.907001 -7.5555 -7.2235 -3.0405 -6.186 -7.7095 -8.611 -9.266001 -7.582 -9.4975 -7.886001 -6.436501 
-9.572001 -10.3495 -10.3405 -8.295 -7.907001 -8.637501 -8.505501 -6.186 -9.1625 -8.701 -10.3885 -9.4195 -9.992001 -9.5635 -7.886001 
-10.356 -10.4015 -10.4065 -8.295 -8.8815 -9.742001 -10.382 -9.1625 -9.776 -10.3885 -10.4005 -10.405 -10.0865 -9.5635 
