-4.759 
n/a 
n/a 
n/a 
n/a 
-4.759 
n/a 
n/a 
n/a 
n/a 
-4.759 
n/a 
n/a 
n/a 
n/a 
-4.759 
n/a 
n/a 
n/a 
n/a 
-1.934 -2.3615 -4.2085 -3.7575 0 -9.569501 -2.674 -5.555 -4.563 -4.4715 -4.8115 -3.1385 -2.4945 -3.213 -4.33 -4.4725 -3.0835 0 
-3.539 -6.2375 -8.376 -3.7575 -9.569501 -12.4963 -9.174001 -10.9984 -9.1085 -8.216001 -8.4255 -4.588 -6.988501 -6.074 -11.136 -8.790501 -3.0835 
-7.253 -11.1676 -8.376 -14.3694 -12.4963 -18.9963 -14.8076 -15.5439 -12.9696 -12.515 -9.953501 -9.442 -9.336 -13.5594 -15.454 -8.790501 
-12.3561 -11.1676 -19.1251 -17.2962 -18.9963 -24.6299 -19.3531 -19.405 -17.2686 -14.043 -14.8075 -11.9105 -17.418 -17.8774 -15.454 
-12.3561 -21.9167 -22.0519 -23.7962 -24.6299 -29.1754 -23.2142 -23.704 -18.7966 -18.897 -17.276 -19.9925 -21.736 -17.8774 
-1.934 -2.3335 -2.95 0 -12.16972 -4.9225 -3.998 -2.925 -2.5685 -3.3875 -3.511 -3.894 -1.7695 -4.4075 
-4.359 -4.8245 -2.95 -12.16972 -17.09222 -8.800501 -5.711 -5.194 -6.3745 -6.483 -6.088 -5.0415 -4.624 
-6.2115 -4.8245 -16.05332 -17.09222 -20.97022 -10.4345 -8.196 -7.68 -8.548 -8.444 -8.401001 -6.837501 
-6.2115 -18.20162 -20.97582 -20.97022 -22.60422 -12.9195 -10.76 -10.044 -9.836 -10.3415 -10.7025 
-19.92942 -23.12412 -24.85382 -22.60422 -25.08922 -15.4835 -13.124 -11.5134 -11.6749 -12.643 
-3.5455 -2.3615 -3.8405 0 -3.1385 -3.998 -2.3335 -1.4985 -4.6195 -2.5685 -3.2295 -1.4985 -3.188 -3.2645 -3.213 -3.894 -3.433 -1.7565 -1.4985 -4.2815 -2.229 -6.107 -4.9315 -5.3375 -2.229 -4.856 0 
-5.013 -5.371 -3.8405 -3.1385 -6.358 -5.1075 -3.3515 -5.9655 -7.035 -4.661 -3.844 -3.619 -6.413 -5.533 -5.22 -6.643001 -4.1845 -2.4195 -6.822001 -5.5905 -8.445 -9.0465 -7.925001 -7.5415 -6.856 -4.856 
-5.726 -5.371 -7.672 -6.358 -7.2075 -5.9775 -7.509 -8.8325 -8.045501 -4.894 -5.1895 -6.529 -8.477501 -6.946 -7.992001 -7.4645 -4.6515 -7.496001 -8.067 -9.83 -11.7501 -12.9756 -10.647 -10.4855 -6.856 
-5.726 -8.759501 -10.058 -7.2075 -8 -10.19 -10.7175 -9.743501 -8.0695 -5.231 -8.432501 -8.529 -9.703001 -9.800501 -8.901 -7.9915 -9.9915 -8.630001 -12.4883 -13.4741 -15.6792 -15.6976 -13.591 -10.4855 
-8.922501 -11.2109 -11.2693 -8 -12.3159 -13.5061 -11.6285 -9.764501 -8.121 -8.4595 -10.66 -9.7895 -12.8011 -10.7631 -9.429001 -13.4307 -11.2301 -13.1679 -16.1324 -17.4032 -18.4012 -18.6416 -13.591 
-1.934 -1.4985 -2.95 -12.16972 -1.934 -12.16972 -4.142 -4.7215 -5.145 -3.0415 -3.1385 -2.871 -1.7565 -1.4985 -4.873 -3.6705 -3.0365 -2.3615 -5.12 0 
-2.6125 -3.9285 -16.05332 -14.10372 -15.11012 -16.31172 -9.451 -10.2645 -8.137001 -5.8815 -6.368 -3.5385 -2.4195 -6.0205 -7.501 -6.42 -5.9405 -6.6565 -5.12 
-5.674 -17.60962 -17.98732 -27.27984 -19.25212 -21.62072 -15.0936 -13.2565 -11.2542 -10.233 -7.0375 -3.7675 -7.165 -9.156 -10.4675 -8.684 -10.5855 -6.6565 
-20.07392 -19.54362 -31.16344 -31.42184 -24.56112 -27.26332 -18.0856 -16.3737 -15.6057 -10.9025 -7.295001 -9.113001 -10.0505 -12.0523 -12.7315 -13.4398 -10.5855 
-22.00792 -32.71974 -35.30544 -36.73084 -30.20372 -30.25532 -21.2028 -20.7252 -16.2752 -11.16 -12.8689 -12.1043 -12.9088 -14.3163 -17.4873 -13.4398 
