-4.759 
n/a 
n/a 
n/a 
n/a 
-4.759 
n/a 
n/a 
n/a 
n/a 
-4.759 
n/a 
n/a 
n/a 
n/a 
-4.759 
n/a 
n/a 
n/a 
n/a 
-2.925 -4.742 -2.688 -14.8325 -2.664 -4.509 -2.264 -1.4985 -4.7855 
-7.400001 -7.5305 -18.7317 -17.3489 -9.264 -6.6665 -2.9195 -5.798 
-10.9765 -24.3238 -21.1107 -24.4789 -11.4527 -7.07 -7.558501 
-27.7698 -26.7028 -28.2407 -26.6676 -11.8562 -12.2428 
-30.1488 -33.8328 -30.4294 -27.0711 -17.029 
-1.4985 -4.215 -4.966 -2.7415 -4.4905 -1.7695 -1.4985 -4.7855 0 
-5.51 -6.649 -7.726501 -6.4495 -4.895 -2.7955 -5.798 -4.7855 
-7.410501 -9.308001 -9.901501 -6.598001 -5.3335 -7.038001 -5.798 
-9.955501 -11.539 -10.151 -6.907001 -9.436001 -7.038001 
-12.1865 -11.7885 -10.4145 -10.702 -9.436001 
-2.688 -4.7855 -2.664 -3.6845 -1.7695 -2.791 -2.688 -8.4185 0 
-7.6825 -8.019 -7.952 -5.38 -4.385 -5.568 -12.1803 -8.4185 
-11.38 -13.5804 -9.943 -7.3675 -7.535501 -16.0603 -12.1803 
-16.9414 -15.5714 -11.9609 -10.66 -18.3662 -16.0603 
-18.9324 -17.5893 -15.2534 -21.4907 -18.3662 

n/a 
n/a 
n/a 
n/a 
