-4.759 
n/a 
n/a 
n/a 
n/a 
-4.759 
n/a 
n/a 
n/a 
n/a 
-4.759 
n/a 
n/a 
n/a 
n/a 
-4.759 
n/a 
n/a 
n/a 
n/a 
-5.7635 -2.186 -3.683 -1.934 -3.8735 0 -3.929 -2.4265 -2.186 -1.4985 -3.689 -5.2965 -3.9115 -1.4985 -4.1865 -3.5435 -2.229 -14.39772 -2.264 -1.4985 -3.634 -2.186 -2.3335 -4.0355 -2.4945 -3.046 -1.7695 -4.597 -2.985 -3.5385 -2.5045 -2.8195 0 -2.7835 -2.925 -4.0165 -1.7695 -1.756 -2.674 -1.4985 -3.757 
-7.447001 -6.0705 -6.188 -4.885 -3.8735 -3.929 -5.029 -3.292 -3.339 -5.357 -8.099501 -9.616501 -5.7285 -5.177 -6.517 -4.973001 -17.46192 -16.93792 -2.9195 -4.6385 -5.197 -3.9765 -6.059 -5.546 -5.162 -4.575 -5.044 -6.596 -5.087 -5.6995 -4.4345 -2.8195 -2.7835 -4.2715 -5.8025 -4.453 -4.6875 -4.3315 -3.998 -5.3165 
-8.939 -7.0535 -8.8935 -4.885 -7.757501 -5.029 -5.7665 -4.5995 -7.023 -8.927 -10.6605 -11.5777 -9.854501 -6.6705 -7.6965 -21.71662 -20.07712 -17.59342 -5.617001 -5.7755 -6.2685 -7.539001 -7.056 -8.209001 -5.5825 -8.314 -6.961 -7.1095 -7.031 -6.8075 -4.4345 -5.9335 -4.2715 -6.411 -6.033 -8.11 -7.144001 -5.5965 -6.644 
-9.130501 -9.426001 -8.8935 -8.168501 -8.8585 -5.7665 -7.2825 -7.8985 -10.7595 -11.6274 -12.6217 -15.7037 -11.487 -7.738501 -25.45432 -24.74322 -20.73262 -20.29092 -7.624501 -6.785501 -9.7255 -8.380501 -9.5865 -8.455501 -8.981501 -9.713 -7.430501 -8.408501 -7.494 -6.8075 -6.734 -7.2165 -6.411 -6.666501 -8.7425 -9.666 -8.322001 -8.2805 
-12.0564 -9.426001 -12.3794 -9.2145 -9.38 -7.2825 -10.494 -11.8786 -13.4599 -13.5886 -16.7477 -17.3362 -12.555 -25.52672 -27.71832 -25.39872 -23.43012 -22.29842 -8.740001 -10.3535 -10.662 -11.0176 -9.613001 -10.3885 -10.0855 -10.187 -8.638 -8.443 -7.494 -8.6115 -7.8555 -8.9975 -6.666501 -9.125501 -10.4945 -10.1365 -10.218 
-3.676 -2.186 -1.4985 -3.0835 -3.4005 -3.59 -2.3085 -3.188 0 
-5.5015 -3.339 -3.535 -7.6785 -7.555 -5.8475 -6.693 -3.188 
-6.601501 -4.8925 -8.226 -12.2542 -10.6033 -11.059 -6.693 
-8.497001 -9.335501 -12.9885 -15.3025 -15.8148 -11.059 
-13.1006 -14.2062 -16.0368 -20.514 -15.8148 
-6.821 -1.934 -3.676 -6.302001 0 -1.934 -1.7695 -1.4985 -3.8125 -4.749 -3.5015 
-10.1305 -4.7985 -10.136 -5.551001 -1.934 -4.0395 -2.7955 -5.272 -9.412001 -7.1875 
-12.995 -11.447 -10.1265 -8.036 -4.0395 -5.3685 -6.8465 -11.4403 -12.0769 
-19.9797 -11.7832 -12.7067 -11.7553 -5.3685 -9.688 -13.5808 -14.1052 
-19.9797 -14.3634 -16.426 -13.3975 -9.688 -16.2003 -16.2457 
-3.188 -3.8225 -4.8635 -6.302001 -4.91 -4.4345 -1.756 -5.068 -2.846 -4.184 -3.5015 -1.934 -2.5685 -3.2295 -3.188 
-7.910501 -10.281 -12.7745 -11.9365 -10.1995 -6.5435 -6.6555 -8.7805 -5.9665 -6.701 -4.704 -4.244 -4.661 -7.143 
-14.7524 -18.5074 -19.7708 -17.9004 -12.3477 -12.0862 -10.7175 -12.2282 -8.334001 -7.834 -7.133 -7.26 -7.740001 
-22.9788 -25.2921 -25.3355 -20.0486 -17.8904 -16.1482 -14.1652 -14.5957 -9.384501 -9.7085 -10.054 -8.891001 
-29.7635 -30.8568 -27.4837 -25.5913 -21.9524 -19.5959 -16.5327 -15.6462 -11.3202 -12.7861 -11.7898 
