-4.759 
n/a 
n/a 
n/a 
n/a 
-4.759 
n/a 
n/a 
n/a 
n/a 
-4.759 
n/a 
n/a 
n/a 
n/a 
-4.759 
n/a 
n/a 
n/a 
n/a 
-2.925 -3.8755 -2.985 -3.5205 -3.4605 -4.281 0 -3.16 -1.7565 -3.8625 0 -2.3345 -4.8775 -1.4985 -3.308 -3.64 -2.5195 -1.4985 -2.911 -4.5745 0 -1.756 -3.793 -1.934 -1.4985 -3.5025 -1.934 -1.4985 -7.5855 0 -4.1855 0 
-6.298 -6.674 -4.257 -5.8695 -7.9975 -4.281 -3.16 -5.266 -5.8585 -3.8625 -2.3345 -6.456 -6.119 -4.846 -6.8025 -6.001 -3.1695 -4.6515 -4.953 -4.5745 -1.756 -5.6215 -4.752 -2.6125 -4.16 -5.7415 -2.6125 -9.5395 -7.5855 -4.1855 -4.1855 
-7.7815 -6.984 -6.9845 -9.93 -7.9975 -7.995501 -5.266 -9.899 -5.8585 -6.156 -6.456 -7.547 -10.513 -8.097 -9.59 -6.5505 -6.286 -5.987 -4.953 -5.727 -5.6215 -6.333 -5.2475 -5.7555 -5.918 -6.5445 -10.3285 -9.5395 -10.821 -4.1855 
-8.074 -9.369 -11.3192 -9.93 -11.8376 -10.7575 -9.899 -9.899 -8.057 -10.8547 -7.547 -12.044 -13.764 -10.396 -10.318 -9.004001 -7.4195 -5.987 -6.097 -10.051 -6.333 -6.728 -8.454 -7.771 -6.717 -14.9653 -10.3285 -12.883 -10.821 
-10.3285 -13.8315 -11.3192 -14.1723 -14.5996 -15.3905 -9.899 -12.3049 -13.0721 -11.9457 -12.044 -15.295 -16.063 -10.715 -12.7715 -9.455501 -7.4195 -7.0315 -10.286 -10.763 -6.728 -9.628 -9.9665 -8.6335 -15.2424 -14.9653 -13.672 -12.883 
-1.934 -4.1855 -3.5025 -5.7745 -4.5165 -1.756 -3.321 -3.849 -3.16 -1.7565 -3.8625 -4.0555 -2.9905 0 
-5.408 -7.394 -8.719501 -9.2425 -5.6735 -4.0055 -6.433001 -7.150001 -5.266 -5.8585 -8.2355 -5.1245 -2.9905 
-10.1945 -14.3214 -12.3845 -11.6755 -7.822001 -7.4195 -10.0618 -9.0865 -9.899 -10.0815 -9.250501 -5.1245 
-17.1219 -17.9864 -14.8175 -13.824 -11.5956 -11.4597 -11.9983 -13.5859 -14.3294 -11.0965 -9.250501 
-20.7869 -20.4194 -16.966 -17.5976 -15.6358 -13.3962 -16.4977 -18.0163 -15.3444 -11.0965 
-2.925 -2.264 -4.1855 -1.934 -1.8085 -4.5905 0 -5.159 0 -2.356 -3.45 -2.3345 -4.4525 -3.3755 0 0 -10.707 -3.64 0 -4.5165 -2.356 -2.3615 0 -3.16 -1.7565 -3.803 0 -3.9235 -4.5155 -1.934 -3.43 0 -1.756 -4.4795 -2.3335 -3.16 0 
-6.881001 -7.276501 -6.3255 -3.2685 -6.3085 -4.5905 -5.159 -5.159 -2.356 -5.0785 -6.6715 -6.4995 -8.6075 -3.3755 0 -10.707 -14.347 -3.64 -4.5165 -6.7175 -4.2185 -2.3615 -3.16 -5.266 -5.9315 -3.803 -3.9235 -9.503 -6.8595 -7.068 -3.43 -1.756 -6.011 -7.1835 -6.256001 -3.16 
-12.3947 -9.878 -7.8075 -8.234 -6.3085 -10.5135 -5.159 -7.160501 -5.0785 -8.188001 -11.0429 -10.9863 -8.6075 -3.3755 -10.707 -14.347 -14.347 -8.6215 -6.7175 -8.634501 -4.2185 -4.687 -5.266 -10.7028 -5.9315 -9.0425 -9.503 -12.1896 -12.4771 -7.068 -5.3195 -6.011 -8.8935 -11.409 -6.256001 
-14.9962 -11.4694 -12.9728 -8.234 -13.2539 -10.5135 -7.160501 -10.702 -8.188001 -12.6304 -15.5297 -10.9863 -8.6075 -15.1193 -14.347 -14.347 -19.3285 -11.0841 -8.634501 -8.634501 -6.572001 -7.872 -10.7028 -10.7028 -12.12 -14.9588 -12.1896 -17.8072 -12.4771 -8.875 -9.7325 -8.8935 -13.212 -11.409 
-16.5876 -16.6347 -12.9728 -15.1596 -13.2539 -12.515 -10.702 -13.8115 -12.6304 -17.1172 -15.5297 -10.9863 -21.1451 -18.7593 -14.347 -19.3285 -21.7911 -13.0011 -8.634501 -11.3332 -9.831501 -12.8666 -10.7028 -16.8913 -18.0363 -17.6454 -17.8072 -17.8072 -14.2841 -14.015 -12.6334 -13.212 -13.212 
-2.925 -2.4945 -4.1855 -3.158 -3.135 -4.6895 -3.64 -1.7695 0 -3.36 0 -3.3255 -3.5185 -1.4985 -12.16972 -3.64 -1.7695 -3.634 -1.934 -3.5195 
-3.7675 -8.557001 -7.298 -6.371 -7.806 -9.9925 -5.5055 -1.7695 -3.36 -3.36 -3.3255 -8.403001 -4.9765 -14.76202 -15.80972 -5.5055 -5.337 -5.312 -5.009 
-10.322 -11.8027 -11.3736 -11.463 -13.3966 -11.858 -5.5055 -5.864 -3.36 -6.9305 -8.403001 -9.731001 -18.76642 -18.40202 -17.67522 -10.071 -7.682 -8.241 
-13.5677 -15.8783 -16.4656 -17.0536 -15.2621 -11.858 -9.72 -5.864 -6.9305 -12.4574 -9.731001 -23.70152 -22.40642 -20.26752 -22.24072 -12.416 -10.3095 
-17.6433 -20.9703 -22.0562 -18.9191 -15.2621 -16.0725 -9.72 -9.359 -12.4574 -13.7854 -23.70152 -27.34152 -24.27192 -24.83302 -24.58572 -15.0435 
