-4.759 
n/a 
n/a 
n/a 
n/a 
-4.759 
n/a 
n/a 
n/a 
n/a 
-4.759 
n/a 
n/a 
n/a 
n/a 
-4.759 
n/a 
n/a 
n/a 
n/a 
-3.676 -2.186 -3.3425 -3.9655 0 -5.4075 -1.756 -4.0415 -4.6195 -1.934 -1.4985 -4.1735 -4.225 -3.8495 -3.676 -2.186 -1.8085 -4.3705 -3.4185 
-5.5015 -5.2235 -7.8395 -3.9655 -5.4075 -6.278501 -5.4935 -7.695 -6.1685 -2.6125 -5.115 -9.7005 -6.442501 -8.5485 -5.5015 -3.164 -5.301 -7.116 
-8.590501 -9.307501 -7.8395 -7.631001 -6.278501 -9.110001 -8.354 -8.5535 -6.807 -6.5225 -10.354 -12.021 -10.0475 -10.361 -6.3355 -6.583 -7.327 
-12.8651 -9.307501 -11.958 -7.9685 -9.110001 -12.1135 -8.8535 -9.139 -9.67 -11.9989 -12.6745 -15.626 -12.3438 -11.195 -10.213 -8.2535 
-12.8651 -13.6474 -12.2955 -9.392 -12.1135 -12.613 -9.892 -12.3554 -15.5206 -14.3194 -16.2795 -17.9223 -13.1778 -15.0725 -11.8835 
-3.676 -4.078 -6.442 -3.8565 0 -3.97 -1.756 -4.0415 -3.519 -3.676 -3.7555 -4.3705 -3.7095 -1.934 -3.4225 -4.39 -3.441 -3.8495 0 -4.8315 -3.4225 -4.39 -5.5095 -1.934 -2.688 -3.586 
-7.7815 -11.3688 -8.717501 -3.8565 -3.97 -5.137 -5.4935 -6.476 -7.631 -7.5305 -8.7335 -7.0985 -5.4635 -5.4655 -4.7525 -6.474 -5.473001 -3.8495 -4.8315 -9.2855 -4.7525 -9.369 -5.5575 -4.282 -3.615 
-15.3497 -13.6443 -8.717501 -8.197001 -5.137 -8.339001 -7.462501 -9.7185 -12.0973 -12.8459 -10.7335 -8.092 -9.402 -7.3675 -6.483 -6.4935 -5.473001 -8.567501 -9.2855 -10.0755 -9.6005 -9.444 -6.9385 -4.681 
-17.6252 -13.6443 -13.5124 -9.128 -8.339001 -9.8485 -10.757 -14.349 -17.4127 -14.8459 -11.727 -12.7243 -10.477 -8.772 -6.495 -6.4935 -9.425501 -13.1091 -10.0755 -15.0753 -9.6455 -10.4135 -7.0085 
-17.6252 -18.4392 -14.4434 -12.5072 -9.8485 -13.143 -15.3875 -19.6644 -19.4127 -15.8394 -16.3593 -13.7993 -11.8815 -8.79 -6.495 -10.733 -14.0061 -13.8991 -15.0753 -15.1203 -10.4805 -10.466 
-3.676 -2.229 -3.188 -4.0005 -5.269 -3.97 -1.756 -4.0415 -1.7565 -2.9645 -1.7695 -4.5735 0 
-4.593 -4.928 -4.969501 -10.107 -10.8415 -5.137 -5.4935 -6.9675 -3.7085 -4.905 -6.877501 -4.5735 
-7.995 -6.9805 -11.896 -15.7959 -12.0085 -8.339001 -8.443501 -9.583301 -6.3095 -10.9132 -6.877501 
-9.628 -14.4 -17.5849 -16.9629 -15.2105 -10.674 -11.2715 -12.1843 -12.8855 -10.9132 
-16.9561 -20.0889 -18.7519 -20.1649 -17.5455 -13.502 -13.8725 -18.7603 -12.8855 
-3.4975 -3.188 -5.4075 0 -3.9655 -1.756 -4.0415 -2.9645 -1.934 -1.4985 -3.4185 -1.7565 -1.4985 -3.5795 -2.688 -3.586 -3.2875 -1.934 -1.4985 -3.9515 -3.2875 0 
-6.858 -9.033501 -5.4075 -3.9655 -5.2915 -5.4935 -6.8985 -4.6135 -2.6125 -5.019 -4.2475 -2.4195 -6.228001 -6.2325 -3.615 -4.582 -5.248 -2.6125 -5.059 -5.783 -3.2875 
-13.3809 -9.033501 -8.061501 -5.2915 -6.691 -7.962 -8.376 -5.409 -6.2665 -6.382501 -4.482 -7.382 -10.0375 -7.621 -4.585 -6.414001 -5.8105 -5.858 -6.233 -5.783 
-13.3809 -10.1005 -8.4005 -6.691 -10.411 -9.561001 -9.0745 -9.047501 -8.563001 -6.7175 -10.0065 -11.6567 -11.426 -8.3205 -6.415501 -7.190001 -9.2075 -6.9205 -6.233 
-14.4479 -10.1455 -9.925501 -10.411 -12.2876 -10.2825 -12.8202 -11.9034 -8.885 -12.7268 -14.2812 -13.0452 -12.1255 -10.5425 -7.193 -11.0688 -10.3285 -6.9205 
