-4.759 
n/a 
n/a 
n/a 
n/a 
-4.759 
n/a 
n/a 
n/a 
n/a 
-4.759 
n/a 
n/a 
n/a 
n/a 
-4.759 
n/a 
n/a 
n/a 
n/a 
-1.4985 -3.509 -2.7455 -3.595 -2.186 -1.934 -10.14 
-4.917 -5.192 -5.5125 -5.940001 -4.0835 -13.0804 
-6.5825 -8.3505 -7.142 -7.898 -15.8565 
-9.7495 -10.2664 -9.298 -19.8638 
-11.708 -12.4224 -21.4884 
-3.0365 -2.4945 -3.7775 -3.43 -1.7695 -3.595 -1.934 -10.14 0 0 
-3.688 -7.409501 -7.3725 -4.647 -4.741 -4.9735 -13.0804 -10.14 0 
-8.5895 -11.6039 -7.7085 -7.1665 -6.122 -16.8475 -13.0804 -10.14 
-13.0377 -11.9399 -9.6765 -8.172501 -18.2752 -16.8475 -13.0804 
-13.3737 -13.9079 -10.196 -20.6987 -18.2752 -16.8475 
-6.2955 -9.077001 -2.7455 -3.8625 0 
-16.0263 -12.2165 -7.440001 -3.8625 
-19.1658 -16.911 -7.440001 
-23.8603 -16.911 
-23.8603 
-3.0365 -3.152 -3.845 -1.7565 -2.9195 -2.7455 -6.5295 -1.934 -10.14 0 
-4.453 -8.276 -4.13 -5.3895 -5.022 -9.300501 -8.633 -13.0804 -10.14 
-8.456 -8.536 -7.359 -7.226501 -12.164 -11.6536 -20.1274 -13.0804 
-8.5725 -11.8752 -8.4425 -14.7419 -14.5171 -23.148 -20.1274 
-11.9251 -12.9587 -16.0757 -17.095 -26.0115 -23.148 
