-4.759 
n/a 
n/a 
n/a 
n/a 
-4.759 
n/a 
n/a 
n/a 
n/a 
-4.759 
n/a 
n/a 
n/a 
n/a 
-4.759 
n/a 
n/a 
n/a 
n/a 
-3.6055 -3.158 0 -2.645 -4.3225 -2.4945 -4.296 -1.934 -5.1845 -1.756 -3.502 -4.1865 -4.2915 
-5.061 -3.158 -2.645 -6.9855 -6.175 -5.67 -5.419 -6.564 -7.2435 -5.1085 -6.301 -6.8595 
-5.061 -5.8945 -6.9855 -8.739 -8.364 -6.5305 -9.818 -8.114 -9.8545 -7.9945 -8.666 
-7.129001 -10.389 -8.739 -10.468 -9.219001 -11.1987 -11.2694 -10.8398 -9.9595 -10.1505 
-12.1595 -12.1425 -10.468 -10.748 -13.8858 -12.6501 -13.9952 -10.9448 -12.5037 
-3.3715 -5.517 -2.4945 -4.296 -1.934 -5.1845 -1.756 -2.8965 -3.502 -4.1865 -4.2915 -1.934 -5.3885 
-8.4545 -7.8055 -5.67 -5.419 -6.564 -7.2435 -3.751 -6.759 -6.301 -6.8595 -5.985 -6.4035 
-9.803 -11.2826 -6.5305 -9.818 -8.114 -8.921 -7.476501 -8.793 -8.666 -8.3995 -10.66 
-13.4195 -12.1431 -11.1987 -11.2694 -10.0005 -10.31 -9.300501 -9.6075 -10.341 -13.2439 
-14.28 -16.8113 -12.6501 -13.1559 -11.4883 -10.4525 -10.2235 -11.2711 -15.1854 
-1.934 -3.6055 -3.158 -3.845 -1.7565 -5.1845 -1.756 -4.1225 -4.0165 -3.6885 -3.7805 -2.4945 -4.296 -1.934 -6.557 
-4.8595 -5.061 -8.252501 -4.13 -6.580501 -7.2435 -5.5775 -6.667001 -7.3815 -7.861501 -6.093 -5.67 -5.419 -7.536 
-7.103 -10.0475 -9.116 -9.5585 -8.677001 -11.837 -8.3925 -10.459 -10.119 -9.5635 -8.6615 -6.5305 -11.737 
-12.4791 -10.432 -14.6579 -11.575 -13.4563 -14.652 -12.3205 -13.8613 -11.821 -12.1998 -9.6715 -13.1177 
-12.8636 -15.9739 -16.6744 -16.3543 -16.2713 -18.58 -15.7228 -15.5633 -14.4573 -13.2098 -16.2977 
-3.345 -3.158 -4.386 -1.7565 -5.1845 -4.3225 0 -1.756 -2.8965 -3.502 -4.2915 -2.4945 -3.4625 -4.296 -1.934 -5.1845 -5.74 
-4.824 -7.668 -4.539 -6.580501 -7.6455 -4.3225 -1.756 -3.751 -6.759 -8.8935 -6.186 -4.7105 -6.262 -5.419 -6.564 -5.7465 
-9.347501 -7.719501 -10.0925 -9.009001 -7.6455 -5.6365 -3.751 -7.476501 -12.9513 -11.4554 -8.317 -7.211 -7.14 -9.818 -6.819 
-9.403501 -13.521 -12.521 -9.009001 -9.399 -7.359 -7.476501 -14.0102 -15.5132 -13.5864 -10.586 -8.093 -11.7208 -10.307 
-15.25 -15.9495 -12.521 -10.389 -11.1471 -11.8029 -14.0102 -16.5721 -17.6442 -15.8554 -11.468 -12.7138 -12.2098 
