-4.759 
n/a 
n/a 
n/a 
n/a 
-4.759 
n/a 
n/a 
n/a 
n/a 
-4.759 
n/a 
n/a 
n/a 
n/a 
-4.759 
n/a 
n/a 
n/a 
n/a 
-3.135 -3.1385 -3.998 -2.5045 0 -1.4985 -12.16972 -3.0695 -4.657 -3.6215 -3.8735 -3.819 -3.893 -1.8085 -2.95 -3.152 -2.871 -1.7565 -1.4985 -3.999 -1.7565 -7.112 -6.924 -5.2145 0 
-4.8745 -6.358 -6.3415 -2.5045 -1.4985 -14.76202 -15.23922 -5.7825 -7.4 -7.665001 -7.925 -5.7665 -5.1615 -4.4675 -6.275 -6.058001 -3.5385 -2.4195 -5.112 -4.5785 -8.7755 -14.5786 -12.7997 -5.2145 
-7.419001 -9.153501 -6.3415 -3.583 -14.76202 -17.83152 -17.95222 -8.079 -11.6775 -12.2213 -9.574 -5.785501 -5.929 -7.9615 -9.1595 -6.303 -3.7675 -5.935 -5.475 -12.5969 -16.4933 -20.4543 -12.7997 
-10.6465 -9.153501 -7.587501 -17.01852 -17.83152 -20.54452 -20.24872 -12.4521 -16.2338 -13.8703 -9.585501 -5.944 -9.023001 -10.717 -9.577 -6.4455 -8.2605 -6.232 -14.6658 -20.3147 -22.369 -20.4543 
-10.6465 -10.3895 -21.14162 -20.08802 -20.54452 -22.84102 -24.62182 -17.0084 -17.8828 -13.8818 -9.609 -9.038 -11.8767 -11.1345 -9.678 -11.4735 -9.441 -15.7234 -22.3836 -26.1904 -22.369 
-3.135 -3.5095 0 -8.357 -4.657 -2.5685 -3.2295 -3.8735 0 -1.756 -1.4985 -6.0695 -6.9755 -5.2145 -2.186 -5.0075 -1.7695 -3.277 
-6.6355 -3.5095 -8.357 -14.0588 -7.058 -4.661 -6.805 -3.8735 -1.756 -3.0405 -6.7475 -9.9925 -10.513 -6.813001 -8.119 -5.113 -4.619 
-6.6355 -13.0235 -14.0588 -16.4598 -7.5315 -7.013 -6.805 -5.3865 -3.0405 -8.1125 -10.434 -10.6145 -12.1115 -13.1354 -8.237 -7.3165 
-16.3215 -18.7253 -16.4598 -16.9333 -10.382 -7.013 -7.808001 -6.375 -8.1125 -11.9204 -11.056 -12.213 -18.4339 -13.2534 -10.3415 
-22.0233 -21.1263 -16.9333 -19.7838 -10.382 -7.904 -8.873 -10.088 -11.9204 -12.5424 -12.6545 -18.5354 -18.5519 -15.3579 
-3.135 -3.1385 -2.4945 -3.89 -2.3335 -1.4985 -12.16972 -2.4945 -4.196 -7.5405 -1.934 -2.5685 -4.088 -1.934 -3.8735 -2.925 -2.4945 -2.5685 -1.934 -7.112 -12.16972 -8.324 -2.229 -3.355 -1.7565 -3.1385 0 
-4.8745 -4.588 -7.869501 -5.018 -3.3515 -14.76202 -14.66422 -5.439 -10.674 -8.962 -4.244 -6.2235 -5.429501 -4.885 -7.045 -3.7675 -4.6335 -4.606 -9.316501 -19.82432 -20.49372 -10.1 -5.6335 -3.725 -4.388 -3.1385 
-5.9665 -10.5035 -9.105501 -6.659 -16.85382 -17.25652 -17.60872 -12.9098 -12.0955 -10.504 -7.022 -7.421 -7.6435 -7.439001 -7.7645 -5.5775 -6.195001 -12.8455 -22.38982 -28.14832 -22.26972 -13.6099 -5.928 -7.239501 -4.388 
-12.1876 -11.7395 -10.9401 -20.40012 -19.34832 -20.20102 -25.07952 -14.3313 -13.6375 -13.282 -8.450001 -9.959001 -10.172 -8.120501 -9.5365 -7.07 -14.6555 -25.91882 -30.71382 -29.92432 -25.77962 -13.9044 -9.801001 -7.239501 
-13.4236 -13.5741 -24.68122 -22.89462 -22.29282 -27.67182 -26.50102 -15.8733 -16.4155 -14.71 -11.2264 -12.4875 -10.8535 -10.006 -11.029 -15.5897 -27.72882 -34.24282 -32.48982 -33.43422 -26.07412 -17.7774 -9.801001 
-6.9985 -3.152 -7.5405 -3.6215 -3.8735 -6.744 -3.074 -7.4315 -3.9585 -2.356 -5.1875 -5.2145 0 
-10.4945 -9.724501 -9.338 -7.665001 -9.6125 -7.514 -9.6415 -11.865 -4.2035 -7.847 -8.441001 -5.2145 
-17.067 -11.5848 -13.5043 -13.9543 -12.9195 -16.6003 -14.2856 -12.11 -9.236501 -11.3735 -8.441001 
-18.9273 -15.7511 -19.7936 -17.2856 -20.9366 -21.3594 -14.5306 -17.143 -12.8984 -11.3735 
-23.0936 -22.0404 -23.1249 -25.2329 -25.5807 -21.6044 -19.5636 -20.8049 -12.8984 
