-4.759 
n/a 
n/a 
n/a 
n/a 
-4.759 
n/a 
n/a 
n/a 
n/a 
-4.759 
n/a 
n/a 
n/a 
n/a 
-4.759 
n/a 
n/a 
n/a 
n/a 
-3.2615 -2.985 -3.0465 -1.934 -2.5235 -3.4155 0 -3.5045 0 -3.4155 -4.6095 -3.539 -3.9265 0 -2.5195 -3.4155 
-6.568501 -6.255 -4.8825 -3.8285 -5.8815 -3.4155 -3.5045 -3.5045 -3.4155 -9.081501 -5.7545 -5.376 -3.9265 -2.5195 -6.388 
-8.5675 -8.094001 -6.6835 -6.979501 -5.8815 -6.9135 -3.5045 -7.467501 -9.081501 -9.5515 -6.124001 -5.376 -6.51 -6.388 
-10.702 -10.034 -9.856501 -6.979501 -9.671501 -6.9135 -7.467501 -13.9439 -9.5515 -9.7925 -6.124001 -7.675 -10.6215 
-12.642 -13.3746 -9.856501 -11.4163 -9.671501 -9.3035 -13.9439 -14.4139 -9.7925 -9.7925 -8.3415 -12.5003 
-3.4295 -1.4985 -3.4155 -3.673 -1.756 -3.327 -3.4155 -4.6095 -3.539 -3.9265 -1.756 -1.4985 -3.5045 -4.0995 -3.9265 -3.4155 0 
-4.8885 -5.219 -6.187 -5.3365 -4.756001 -7.579 -9.081501 -5.7545 -5.376 -5.489 -3.0405 -5.6735 -7.1875 -6.1 -8.2045 -3.4155 
-7.814 -7.385 -7.6925 -6.569 -9.095501 -14.171 -9.5515 -6.124001 -6.837 -6.828 -7.350501 -9.0305 -8.3225 -10.6215 -8.2045 
-9.4235 -8.4905 -9.440001 -11.6315 -15.7367 -14.641 -9.7925 -7.436 -8.5135 -9.398001 -10.9779 -10.1115 -13.7614 -10.6215 
-10.2935 -10.5425 -14.9251 -18.2727 -16.2067 -14.882 -10.4165 -9.087501 -10.5745 -13.1928 -12.0589 -15.5504 -13.7614 
-3.3165 -1.7695 -3.4155 -3.321 -3.4155 -4.6095 -3.539 
-3.881 -5.93 -7.098001 -7.146 -9.081501 -5.7545 
-7.952 -9.3915 -9.536501 -13.8492 -9.5515 
-10.298 -11.9436 -16.3719 -14.3192 
-12.8501 -18.779 -16.8419 
-3.2615 -3.717 -1.934 -1.7695 -1.4985 -3.4155 0 -3.5045 -3.4155 -2.5195 -1.4985 -3.4155 -4.6095 -3.539 -3.9265 
-8.0565 -5.9895 -4.0395 -2.7955 -5.219 -3.4155 -3.5045 -7.467501 -5.650001 -3.1695 -5.219 -9.081501 -5.7545 -5.376 
-10.2535 -7.6845 -5.3685 -6.7175 -5.219 -6.9135 -7.467501 -7.993501 -6.599 -6.944 -10.038 -9.5515 -6.124001 
-11.9485 -8.318001 -8.9055 -6.7175 -9.003 -9.3035 -7.993501 -8.229501 -8.234 -10.6735 -10.1865 -9.7925 
-12.582 -12.0486 -8.9055 -10.66 -12.004 -10.761 -8.229501 -11.1457 -12.8059 -10.6965 -10.241 
