-4.759 
n/a 
n/a 
n/a 
n/a 
-4.759 
n/a 
n/a 
n/a 
n/a 
-4.759 
n/a 
n/a 
n/a 
n/a 
-4.759 
n/a 
n/a 
n/a 
n/a 
-1.4985 -4.237 -4.7195 -2.186 -4.5275 -2.5195 -3.7075 -2.186 -3.849 -4.7825 0 
-5.154 -7.3165 -6.4665 -6.1735 -6.5565 -6.1755 -5.825 -4.8565 -8.0845 -4.7825 
-8.169001 -8.903 -9.989 -8.3295 -10.757 -8.455501 -8.5535 -9.2295 -8.0845 
-9.816 -12.5071 -12.4298 -12.9522 -13.037 -10.361 -13.2735 -9.2295 
-13.4201 -14.9479 -17.0525 -15.2322 -14.9425 -15.081 -13.2735 
-3.851 -1.7695 -3.922 -1.7565 -4.211 -4.7825 -4.983 -2.4945 -3.563 -2.9905 -1.756 -2.3615 -3.837 -1.934 -1.8085 -4.2985 -2.264 -3.7075 -2.229 -4.7885 -4.126 0 
-4.0015 -4.5985 -5.2335 -7.460501 -10.2815 -9.852501 -6.5395 -7.415 -5.716001 -4.565001 -4.4615 -5.96 -5.709 -3.2685 -5.4175 -6.888 -5.29 -5.5255 -6.6485 -9.035 -4.126 
-7.359 -7.759 -11.6857 -13.761 -15.5399 -11.409 -12.0678 -8.779 -7.9735 -7.17 -7.394 -7.913 -7.2635 -6.594501 -8.323 -10.609 -7.39 -8.5205 -11.6026 -9.035 
-8.288 -14.3788 -17.9862 -19.0194 -17.0964 -16.9373 -13.4318 -10.6605 -10.3475 -10.2225 -8.4665 -8.955501 -10.647 -9.167001 -12.1406 -12.709 -10.965 -14.5748 -11.6026 
-14.9884 -20.6793 -23.2446 -20.5759 -22.6247 -18.3013 -15.3133 -13.0345 -13.4 -10.741 -10.2915 -12.8522 -13.2195 -13.1536 -14.2406 -16.284 -17.0193 -14.5748 
-1.934 -4.237 -3.585 -1.4985 -4.7885 -4.35 -1.934 -4.7825 -3.7285 -4.6255 -3.124 -3.43 -4.285 -4.35 0 
-6.2135 -7.993 -5.022501 -5.282001 -6.498 -6.133501 -6.293 -9.1575 -8.978001 -8.269 -7.8955 -8.0635 -6.4325 -4.35 
-10.76 -9.452001 -9.01 -6.845 -8.5465 -10.004 -11.0878 -14.72 -12.8671 -13.2387 -12.8406 -10.7335 -6.4325 
-12.219 -13.5065 -10.186 -9.064 -12.4694 -15.0584 -16.6503 -18.6091 -17.8368 -18.1838 -15.5106 -10.7335 
-16.2735 -14.6825 -12.4418 -13.0707 -17.5238 -20.6209 -20.5394 -23.5788 -22.7819 -20.8538 -15.5106 
-4.7825 -4.067 -4.8675 -1.4985 -3.7075 -4.983 
-7.4405 -9.5345 -5.4845 -4.6235 -7.178 
-13.6012 -10.0365 -9.502501 -7.854001 
-14.1032 -14.0545 -12.9664 
-18.1212 -17.5184 
