-4.759 
n/a 
n/a 
n/a 
n/a 
-4.759 
n/a 
n/a 
n/a 
n/a 
-4.759 
n/a 
n/a 
n/a 
n/a 
-4.759 
n/a 
n/a 
n/a 
n/a 
-4.3235 -2.7295 -2.7765 -4.603 -7.2025 -1.7565 -7.6225 -1.934 -4.468 0 -1.756 -7.0395 -3.8275 -1.934 -3.7485 0 
-7.617001 -4.065 -7.176001 -12.5761 -10.0958 -9.06 -9.460001 -5.6555 -4.468 -1.756 -8.6765 -7.88 -5.2615 -5.12 -3.7485 
-9.361501 -7.7305 -15.3131 -15.4694 -17.3993 -10.598 -10.4205 -5.6555 -6.102 -8.6765 -10.147 -9.236501 -8.269 -5.12 
-13.043 -15.8882 -18.2064 -22.7729 -18.9373 -11.5585 -10.4205 -6.5965 -13.6215 -10.147 -11.5035 -9.506001 -8.269 
-21.2007 -18.7815 -25.5099 -24.3109 -19.8978 -11.5585 -11.3615 -14.5286 -15.092 -11.5035 -11.773 -9.506001 
-1.4985 -7.6225 -3.8275 -4.468 -4.468 -1.756 -7.0395 -3.8275 -1.7565 -3.7485 -2.7765 -2.489 -4.8725 0 
-8.111 -9.551001 -8.478001 -6.9055 -6.102 -8.6765 -7.88 -5.4695 -5.8735 -7.37 -3.495 -6.357 -4.8725 
-9.617001 -14.7339 -11.1869 -9.8675 -13.6215 -10.147 -9.573 -8.818501 -9.2675 -8.092 -7.363501 -6.357 
-15.0215 -17.4428 -14.1489 -17.387 -15.092 -11.84 -9.64 -12.3761 -9.716001 -12.3415 -7.363501 
-17.7304 -20.4048 -21.6684 -18.8575 -16.785 -11.907 -13.2144 -12.8246 -14.0949 -12.3415 
-5.147 -2.7765 -4.603 -1.4985 -12.16972 -4.2875 -3.8275 -1.934 -9.0415 -9.469001 -3.8275 -2.9705 -3.429 -3.5015 -1.934 -3.7485 
-9.358 -7.176001 -5.4685 -14.76202 -16.45722 -5.364501 -5.2615 -9.972501 -18.9969 -13.7815 -6.424 -6.343 -4.918 -4.704 -5.12 
-13.9007 -7.948501 -18.97602 -19.04952 -17.53422 -7.1415 -14.3844 -20.0239 -23.3094 -16.378 -10.5745 -6.9805 -5.58 -8.009001 
-14.6732 -21.56842 -23.26352 -20.12652 -19.31122 -16.6298 -24.4358 -24.3364 -25.9059 -20.5285 -11.212 -7.5065 -9.1055 
-28.29312 -25.85592 -24.34052 -21.90352 -28.79952 -26.6812 -28.7483 -26.9329 -30.0564 -21.166 -11.738 -11.249 
-5.147 -7.0395 -3.8275 -1.934 -3.7485 -1.756 -4.468 -12.16972 -3.8275 -2.4945 -7.885 
-13.4715 -7.88 -5.2615 -5.12 -5.521 -6.886 -17.00532 -15.99722 -6.592 -9.778 
-14.312 -9.236501 -8.269 -6.1365 -10.028 -19.73092 -20.83282 -18.76172 -14.2027 
-15.6685 -9.506001 -9.387 -10.757 -22.87292 -23.55842 -23.59732 -26.37242 
-15.938 -10.5155 -14.1093 -23.60192 -26.70042 -26.32292 -31.20802 
