-4.759 
n/a 
n/a 
n/a 
n/a 
-4.759 
n/a 
n/a 
n/a 
n/a 
-4.759 
n/a 
n/a 
n/a 
n/a 
-4.759 
n/a 
n/a 
n/a 
n/a 
-1.934 -3.135 -3.7515 -3.264 -4.2115 0 -2.3335 -2.186 -4.0675 -3.893 
-4.4015 -7.923 -6.8035 -8.653001 -4.2115 -2.3335 -3.7085 -5.7005 -9.634501 
-9.590001 -10.495 -12.4041 -8.653001 -5.891 -3.7085 -6.794001 -12.0767 
-12.4038 -16.0956 -12.4041 -10.041 -7.996 -6.794001 -13.4042 
-18.0044 -16.0956 -13.7921 -12.146 -11.5239 -13.4042 
-3.135 -4.103 -3.644 -3.7515 -3.135 -3.509 -3.893 
-7.150001 -7.872001 -7.603001 -6.7915 -6.0015 -7.7545 
-11.683 -11.9218 -10.5325 -10.047 -11.512 
-15.7328 -14.8513 -13.788 -15.6733 
-18.6623 -18.1068 -19.4143 
-3.135 -3.509 -4.1585 
-6.0015 -9.138 
-12.8955 
n/a 
n/a 
-1.934 -3.135 -3.4605 -1.4985 -3.7515 0 -2.3335 -2.186 -4.0675 -3.893 0 
-4.4015 -7.190001 -5.3605 -4.4675 -3.7515 -2.3335 -3.7085 -5.7005 -9.634501 -3.893 
-9.0255 -9.463 -8.443501 -4.4675 -5.9115 -3.7085 -6.794001 -12.0767 -9.634501 
-11.4205 -12.6828 -8.443501 -7.272 -7.2015 -6.794001 -13.4042 -12.0767 
-14.6403 -12.6828 -11.6636 -8.604501 -10.426 -13.4042 -13.4042 
