-4.759 
n/a 
n/a 
n/a 
n/a 
-4.759 
n/a 
n/a 
n/a 
n/a 
-4.759 
n/a 
n/a 
n/a 
n/a 
-4.759 
n/a 
n/a 
n/a 
n/a 
-12.16972 -1.7695 -4.2615 -2.871 -3.6765 -1.934 -3.7825 -4.764 0 
-13.93922 -4.7355 -7.0135 -5.168 -5.201 -5.324 -8.1835 -4.764 
-16.90522 -7.4485 -9.045 -6.5265 -8.687 -10.647 -8.1835 
-19.61822 -9.5 -10.2645 -8.8385 -14.2822 -10.647 
-21.66972 -10.7035 -12.5765 -14.5303 -14.2822 
-12.16972 -2.186 -3.6055 -3.6765 -4.2615 -1.4985 -4.764 0 
-14.35572 -6.0665 -5.728001 -8.535 -5.128 -6.0035 -4.764 
-18.23622 -8.169001 -10.1385 -9.5265 -9.092501 -6.0035 
-20.33872 -12.9441 -11.4556 -13.5164 -9.092501 
-25.11382 -14.2612 -15.4455 -13.5164 
-2.3615 -3.7825 -4.3925 -3.3155 -2.871 -3.6385 -2.8645 -1.7695 -3.7555 -1.934 -3.3435 
-6.319 -8.574 -7.596001 -5.7465 -5.371 -5.782001 -4.4755 -7.0645 -5.738 -5.009501 
-12.1973 -11.9495 -10.2865 -8.0655 -7.5635 -7.2295 -9.064501 -9.2935 -9.0205 
-15.5728 -14.64 -12.6055 -9.000501 -9.2475 -11.9765 -11.7295 -12.56 
-18.2633 -16.959 -13.5405 -11.1403 -14.0915 -14.6415 -14.996 
-8.8255 -2.4945 -4.764 -2.3335 -2.871 -3.2645 -4.4075 -1.934 -3.091 -2.4285 -3.332 -3.3435 0 
-10.3225 -8.370001 -7.5585 -4.7635 -5.529 -7.219 -6.4585 -4.2105 -4.9215 -4.844501 -5.33 -3.3435 
-16.198 -9.598001 -10.3545 -6.581 -9.4665 -8.868 -8.5245 -6.0305 -4.929 -6.8335 -5.33 
-17.426 -12.5442 -12.172 -10.304 -11.2123 -11.0892 -10.1465 -6.0375 -6.844 -6.8335 
-20.3722 -14.3617 -15.895 -12.0498 -13.4335 -12.7112 -10.1535 -7.547501 -6.844 
