-4.759 
n/a 
n/a 
n/a 
n/a 
-4.759 
n/a 
n/a 
n/a 
n/a 
-4.759 
n/a 
n/a 
n/a 
n/a 
-4.759 
n/a 
n/a 
n/a 
n/a 
-3.1435 -4.6975 -3.074 -3.807 -4.5515 -6.7285 -1.7565 -5.219 -3.4715 -3.9205 -2.5045 -8.526 -5.0895 -1.756 -4.8415 -5.266 -3.3155 -4.186 -7.202 -3.3435 -3.423 -3.7905 -4.196 -3.5455 -3.8315 -6.748 -2.95 0 
-5.7585 -8.113501 -5.2695 -7.413 -8.347501 -6.845 -6.692501 -6.1155 -7.9585 -4.449 -11.0465 -9.0355 -6.39 -6.4075 -7.435 -8.0465 -7.769001 -9.7215 -9.033 -6.602 -5.821 -6.8055 -6.7725 -6.3795 -7.998 -8.856 -2.95 
-9.036 -10.4185 -9.117001 -11.8686 -8.396501 -9.441001 -7.483001 -10.195 -8.1625 -12.7218 -11.556 -10.1 -9.729501 -8.7805 -9.528001 -12.5814 -13.5331 -10.5255 -12.6223 -8.7605 -8.76 -9.1475 -9.3625 -10.001 -9.655001 -8.856 
-11.4732 -14.4406 -13.6076 -11.9176 -10.5755 -9.782001 -10.4765 -10.306 -16.5727 -13.2313 -12.6205 -13.5717 -10.1175 -10.8889 -14.0585 -18.3455 -14.3371 -14.1148 -14.7808 -11.7449 -11.2282 -11.8285 -13.119 -10.223 -9.655001 
-15.4953 -18.9312 -13.6566 -14.0966 -10.7215 -12.8915 -10.528 -18.7162 -17.0822 -14.2958 -16.0922 -13.9597 -12.2259 -15.4194 -19.8226 -19.1495 -17.9264 -16.2733 -17.7652 -14.2131 -13.9092 -15.585 -13.341 -10.223 
-6.0765 -4.8155 -2.5045 -2.925 -3.952 -2.264 -1.4985 -4.1455 -1.7565 -1.4985 -4.3305 0 -1.4985 -3.873 -4.3755 -3.9615 -1.4985 -4.1115 -2.4945 -5.4285 -3.9875 -1.934 -1.4985 -6.4175 -4.8015 -3.8195 0 
-7.067 -7.146 -4.3205 -6.0465 -5.2985 -2.9195 -4.870501 -5.11 -2.4195 -5.05 -4.3305 -1.4985 -4.7405 -7.759501 -8.114 -4.716 -4.843 -6.946 -6.7935 -8.972 -6.565001 -2.6125 -7.620501 -12.3346 -8.08 -3.8195 
-9.168 -8.569 -6.552001 -7.2475 -6.6105 -5.568 -5.3985 -5.3235 -5.962501 -5.05 -6.125 -4.7405 -8.021 -11.5882 -8.31 -6.9885 -7.436 -11.4918 -9.981001 -12.0137 -7.296 -9.027 -14.0716 -15.6131 -8.08 
-10.104 -9.887001 -8.127501 -8.652 -8.854 -5.951 -5.6005 -7.5595 -5.962501 -6.568 -9.495501 -8.021 -12.1677 -11.7842 -10.6735 -9.4425 -12.1374 -14.6793 -13.2833 -12.7447 -14.0615 -15.5565 -17.3501 -15.6131 
-11.422 -11.4625 -9.356501 -10.1715 -9.185 -6.194 -7.632 -7.5595 -7.3945 -9.922501 -12.982 -12.1677 -12.3637 -14.1477 -13.7957 -14.1819 -15.3249 -17.9816 -14.0143 -19.5102 -20.591 -18.835 -17.3501 
-3.034 -6.0765 -4.502 -4.6175 -1.934 -3.995 -4.285 -3.518 -4.617 -4.887 -7.690001 -4.7505 -1.934 -4.1115 -4.675 -4.418 0 
-8.984501 -7.442 -8.2535 -5.923 -6.139 -9.031501 -5.863501 -8.1975 -10.195 -13.4498 -13.1439 -5.939 -6.27 -6.957001 -8.5695 -4.418 
-10.7035 -9.5915 -9.434 -10.6215 -12.0627 -10.427 -11.045 -13.9225 -18.8684 -18.9037 -14.3324 -10.0315 -9.6435 -11.2599 -8.5695 
-12.853 -11.1646 -14.2889 -16.5452 -13.4582 -15.6085 -16.77 -22.5959 -24.3223 -20.0922 -18.4249 -13.5196 -14.0538 -11.2599 
-14.4261 -16.0195 -20.2126 -17.9407 -18.6397 -21.3335 -25.4434 -28.0498 -25.5108 -24.1847 -21.913 -17.9299 -14.0538 
-12.16972 -4.1325 -8.796 -3.7515 -4.2995 -1.7565 -3.815 -4.207 -1.7695 -3.6135 -4.1115 -3.5795 0 
-16.30222 -14.1309 -12.9057 -8.459001 -5.232 -5.535501 -7.589001 -6.034 -5.829 -6.951 -8.573 -3.5795 
-26.30062 -18.2406 -17.6132 -9.031501 -9.1965 -9.832001 -9.5135 -10.096 -10.1265 -12.0451 -8.573 
-30.41032 -22.9481 -18.1857 -13.7614 -13.902 -11.9139 -13.7307 -14.3935 -15.2206 -12.0451 
-35.11782 -23.5206 -22.9156 -18.4669 -15.9839 -16.1311 -18.0282 -19.4876 -15.2206 
