-4.759 
n/a 
n/a 
n/a 
n/a 
-4.759 
n/a 
n/a 
n/a 
n/a 
-4.759 
n/a 
n/a 
n/a 
n/a 
-4.759 
n/a 
n/a 
n/a 
n/a 
-3.1495 -3.3785 -12.16972 -3.9915 -4.3895 0 -3.432 -3.213 -2.0935 -3.1335 -3.013 0 -4.5635 0 -4.5635 0 -5.4605 0 -2.9195 -3.1335 -1.7695 -5.7455 0 
-6.463 -16.69322 -16.16122 -7.8405 -4.3895 -3.432 -6.553 -4.5705 -5.274 -6.2765 -3.013 -4.5635 -4.5635 -4.5635 -4.5635 -5.4605 -5.4605 -2.9195 -5.39 -4.809 -7.832001 -5.7455 
-20.70752 -20.68472 -20.01022 -7.8405 -9.859 -6.553 -8.362 -8.615001 -8.713501 -6.2765 -7.476001 -4.5635 -5.690001 -4.5635 -8.769001 -5.4605 -6.811 -5.39 -7.828501 -11.5277 -7.832001 
-24.69902 -24.53372 -20.01022 -14.3688 -13.0362 -8.362 -12.4701 -12.3779 -8.713501 -10.368 -7.476001 -5.690001 -5.690001 -8.769001 -8.769001 -6.811 -8.716001 -7.828501 -14.932 -11.5277 
-28.54802 -24.53372 -26.53852 -17.546 -14.8452 -12.4701 -16.233 -12.3779 -12.8192 -10.368 -8.856501 -5.690001 -10.5635 -8.769001 -9.632001 -8.716001 -10.016 -14.932 -14.932 
-3.115 -2.3615 -4.5635 -3.09 -4.281 -2.5045 -4.5635 0 -5.4605 -2.9195 -3.1335 -4.281 -2.5045 -2.9195 -2.4285 -5.7455 -1.756 -2.645 
-4.312 -7.4705 -7.182501 -7.890501 -5.893 -7.1615 -4.5635 -5.4605 -6.811 -5.39 -7.407 -5.893 -6.279 -5.731 -8.226501 -7.2435 -3.898 
-8.796 -10.8233 -12.905 -9.628501 -10.9108 -7.1615 -8.769001 -6.811 -8.716001 -10.078 -9.5275 -10.051 -8.2475 -9.7755 -9.762001 -9.896501 
-12.4026 -16.5458 -14.643 -14.6417 -10.9108 -10.2435 -9.632001 -8.716001 -13.7318 -12.1985 -13.7879 -12.3315 -12.7284 -11.6762 -13.0128 
-18.1251 -18.2838 -19.6562 -14.6417 -13.9928 -11.9063 -11.8862 -13.7318 -15.8523 -16.4589 -16.0684 -16.8124 -14.6291 -14.927 
-4.426 -1.7565 -1.4985 -3.6115 -4.7285 -4.1555 -3.147 -1.8085 -3.16 -3.9885 -3.1335 -2.186 -1.8085 -3.319 -1.7565 -3.5025 -3.9885 -3.1335 -2.3335 -4.111 -4.179 -1.756 -4.0805 -1.7695 -3.2345 -2.985 -3.5205 -3.4605 -4.4825 -3.815 -1.4985 -3.013 -1.4985 -4.5635 -3.09 -4.5635 -1.756 -5.4605 -2.9195 -3.09 -2.9195 -2.4285 -5.7455 -3.843 0 
-5.47 -2.4195 -4.081 -6.5495 -8.4455 -5.77 -5.4375 -4.6915 -4.5575 -5.7985 -4.6915 -3.164 -5.18 -4.165 -5.2375 -6.793 -5.7985 -5.155 -4.936501 -6.9285 -5.146501 -5.1455 -5.518 -3.713 -5.2675 -4.257 -5.8695 -6.882501 -6.1905 -4.676001 -5.357 -6.191 -5.981 -7.182501 -7.4685 -6.390501 -7.326 -6.811 -5.818 -5.621 -5.731 -8.226501 -8.9515 -3.843 
-5.9535 -5.180501 -6.670501 -9.978001 -9.541501 -7.9705 -8.7445 -6.452 -6.486 -7.628 -6.202 -6.125 -5.543 -7.1445 -8.274501 -8.196 -7.565001 -6.139 -7.55 -7.788 -6.265501 -6.6555 -7.245501 -5.648 -6.0655 -6.9845 -8.84 -8.613001 -6.7335 -7.6675 -7.7745 -11.2739 -9.1975 -9.59 -9.232 -9.4715 -8.014501 -9.606501 -7.8835 -9.706 -9.7755 -12.0607 -8.9515 
-8.462501 -7.797 -10.054 -11.0524 -11.742 -11.4107 -10.5204 -7.3335 -8.085 -8.335 -8.403501 -6.215 -8.1215 -8.580501 -8.6385 -8.691 -8.055 -8.394 -8.268001 -8.533501 -7.3275 -8.238501 -8.516001 -6.3745 -8.8905 -8.907001 -8.908001 -8.7755 -9.032001 -9.338501 -13.0204 -14.4904 -11.7922 -11.4365 -12.695 -10.1645 -10.6875 -11.7344 -12.8587 -13.9767 -13.9749 -12.0607 
-10.2375 -11.2985 -11.1648 -13.2529 -15.1822 -13.1866 -11.4019 -8.536 -8.5045 -8.5105 -8.4115 -8.34 -8.592501 -8.728001 -8.7375 -8.765 -8.778 -8.6145 -8.6905 -8.561501 -8.81 -9.158501 -9.000501 -9.066 -9.2685 -8.929501 -8.9125 -11.7394 -10.375 -14.6002 -16.2369 -17.0851 -13.6387 -14.8995 -13.388 -12.8375 -12.8154 -16.7096 -17.1294 -18.1761 -13.9749 
-3.013 -2.0935 -3.4605 -4.2635 -4.5635 -2.0935 -2.664 -4.5635 -4.2635 -5.4605 -2.4285 -5.7455 -2.4285 -2.9195 -2.0935 -2.9195 -4.2635 
-7.083501 -6.143 -8.147 -7.424 -7.0425 -4.189 -6.3025 -6.606501 -8.998501 -7.782001 -8.226501 -8.456 -6.2635 -5.0745 -5.485001 -7.0765 
-11.7764 -11.3813 -11.7859 -10.139 -9.522501 -7.933001 -10.4675 -10.1345 -11.6098 -10.123 -9.5415 -9.578 -8.691 -8.2515 -9.328501 
-17.0147 -15.0202 -14.5009 -13.456 -9.966001 -12.3662 -13.9955 -13.2232 -13.9508 -12.1672 -11.4601 -12.7687 -12.1822 -12.5162 
-20.6536 -17.7352 -17.8179 -13.8995 -15.1182 -15.8942 -17.0842 -15.5642 -15.995 -14.0858 -14.6508 -16.2599 -16.4469 
