-4.759 
n/a 
n/a 
n/a 
n/a 
-4.759 
n/a 
n/a 
n/a 
n/a 
-4.759 
n/a 
n/a 
n/a 
n/a 
-4.759 
n/a 
n/a 
n/a 
n/a 
-3.2615 -2.3335 0 -2.4265 -3.251 -3.7905 -1.4985 -4.1755 -3.9675 -3.59 0 
-5.0495 -2.3335 -2.4265 -4.8545 -5.5965 -4.969 -7.012 -6.526 -7.609 -3.59 
-5.0495 -3.913 -4.8545 -6.736001 -6.69 -10.6095 -10.3475 -11.9693 -7.609 
-6.402 -5.7335 -6.736001 -7.8745 -12.4367 -14.4084 -15.7908 -11.9693 
-8.910001 -7.757501 -7.8745 -13.7464 -16.2356 -19.8517 -15.7908 
-3.882 0 -2.4265 -4.3195 -3.9675 -1.7565 -4.1755 0 
-3.882 -2.4265 -5.45 -9.0555 -4.4555 -5.3105 -4.1755 
-5.945001 -5.45 -10.459 -9.9515 -5.7345 -5.3105 
-7.5845 -10.459 -11.355 -11.4069 -5.7345 
-12.7253 -11.355 -12.8104 -11.4069 
-3.321 0 -2.4265 -4.3195 -3.9675 -1.7565 -4.1755 
-3.321 -2.4265 -5.45 -9.0555 -4.4555 -5.3105 
-4.872 -5.45 -10.459 -9.9515 -5.7345 
-7.265 -10.459 -11.355 -11.4069 
-12.171 -11.355 -12.8104 
-3.321 0 -2.4265 -4.3195 -4.1755 -3.9675 
-3.321 -2.4265 -5.45 -8.979 -6.526 
-4.872 -5.45 -10.4505 -12.4943 
-7.265 -10.4505 -13.493 
-12.1625 -13.493 
