-4.759 
n/a 
n/a 
n/a 
n/a 
-4.759 
n/a 
n/a 
n/a 
n/a 
-4.759 
n/a 
n/a 
n/a 
n/a 
-4.759 
n/a 
n/a 
n/a 
n/a 
-2.7295 -2.7765 -3.394 -1.4985 -3.4605 -6.753 -3.3255 -3.135 -3.4095 -1.756 -3.135 -3.331 
-4.065 -5.213 -4.542 -4.652 -10.504 -9.916 -5.8075 -6.120501 -5.0475 -4.5755 -6.514 
-7.586 -5.8915 -8.554 -12.2637 -14.0176 -12.3742 -9.397501 -7.7355 -7.901 -7.921 
-8.374001 -9.709001 -16.4339 -15.7773 -16.4758 -15.9642 -10.4515 -9.349001 -11.5371 
-12.3173 -17.9445 -19.9475 -18.2355 -20.0658 -17.0182 -12.065 -13.0443 
-3.4605 -3.3425 -1.756 -3.5665 -1.756 -5.034 -4.617 
-5.952001 -4.828 -5.571 -5.252501 -5.897 -8.6505 
-7.2285 -8.715 -7.6495 -9.415501 -9.6855 
-11.8103 -11.3865 -12.1885 -13.2506 
-14.4818 -15.9255 -16.0236 
-3.432 -4.96 -3.881 -1.7695 -3.571 -5.2125 -3.074 0 
-9.063 -8.9755 -6.237 -4.6785 -10.209 -8.126 -3.074 
-13.4435 -11.8319 -8.781501 -11.6699 -13.1225 -8.126 
-16.2999 -14.3764 -15.9757 -14.5834 -13.1225 
-18.8444 -21.5706 -18.8892 -14.5834 
-3.16 -3.473 -1.756 -3.881 -3.074 -2.8965 -3.5025 -3.8875 -3.074 -3.9285 0 
-6.8645 -5.7295 -5.225 -7.463 -6.226 -5.903501 -6.259 -6.9065 -5.4325 -3.9285 
-9.0015 -9.348001 -8.467 -11.0256 -9.611501 -9.427 -10.2185 -9.3435 -5.4325 
-12.8532 -12.9014 -12.2282 -14.4111 -13.3082 -13.5501 -13.0311 -9.3435 
-16.4066 -16.6626 -15.6137 -18.1078 -17.4313 -16.3627 -13.0311 
