-4.759 
n/a 
n/a 
n/a 
n/a 
-4.759 
n/a 
n/a 
n/a 
n/a 
-4.759 
n/a 
n/a 
n/a 
n/a 
-4.759 
n/a 
n/a 
n/a 
n/a 
-4.1865 -3.4075 -4.203 -4.319 -3.7015 -4.065 -5.4435 -2.3335 -5.62 -3.3755 -2.0935 -4.1865 -4.248 0 
-6.714 -6.197001 -8.875 -5.442 -7.2475 -7.05 -7.279 -7.403001 -7.84 -4.9855 -6.2405 -8.061501 -4.248 
-7.1085 -11.4552 -10.6095 -8.9405 -10.6875 -8.871 -12.7953 -9.43 -7.993001 -9.1215 -9.429501 -8.061501 
-12.5791 -13.1897 -14.108 -12.6229 -12.5085 -14.6531 -14.8223 -9.529501 -12.3862 -12.3965 -9.429501 
-14.3136 -16.6882 -17.7904 -14.4439 -18.2906 -16.6801 -14.9218 -14.0845 -15.6612 -12.3965 
-4.1865 -3.4075 -4.203 0 -6.009 -3.7015 -4.065 -6.061 -2.9705 -4.172 -1.7695 -4.1865 -4.712 
-6.714 -6.197001 -4.203 -6.009 -6.915 -7.2475 -7.7055 -8.3065 -5.886001 -4.8625 -6.303 -7.3815 
-7.1085 -6.197001 -9.465 -6.915 -10.044 -9.0205 -9.6475 -10.66 -6.027501 -9.410001 -9.069 
-7.1085 -12.0452 -10.436 -10.044 -11.9108 -11.0733 -12.0442 -10.7795 -10.5975 -10.1605 
-13.1691 -13.0162 -13.6108 -11.9108 -13.9636 -13.47 -12.1637 -15.3495 -11.348 
-3.8735 -3.4075 -4.203 -4.668 -4.896 -4.065 -4.1 -1.934 -3.8735 -1.756 -5.62 -3.3755 -2.0935 -4.712 
-6.8215 -6.197001 -8.4065 -6.765 -8.952001 -6.884 -5.763 -4.885 -5.3865 -6.976501 -7.84 -4.9855 -6.2175 
-9.1055 -10.7495 -9.928 -10.5865 -9.717001 -7.513 -7.6885 -6.0505 -10.3675 -9.288 -7.993001 -9.315001 
-14.113 -12.271 -13.8925 -11.3515 -10.1925 -7.939 -8.859 -11.1919 -13.5186 -9.370001 -10.6095 
-15.6345 -16.2355 -14.6575 -11.827 -10.6185 -9.148001 -14.1858 -14.343 -13.6006 -12.1629 
-4.1865 -3.4075 -4.203 -3.251 -3.1125 -5.192 -2.356 -4.065 -5.171 -3.321 -2.925 -4.1885 -3.7555 -12.16972 -2.0935 -3.8735 0 
-6.714 -6.197001 -6.6085 -4.28 -7.193501 -6.552501 -6.432 -7.0915 -8.401001 -5.154 -6.231501 -5.76 -17.19142 -14.26322 -6.1265 -3.8735 
-7.1085 -8.778501 -8.019 -7.9405 -8.762001 -9.865001 -9.751301 -9.928 -10.1345 -8.3205 -7.326 -19.90812 -19.28492 -18.29622 -6.1265 
-9.536 -9.918 -11.9325 -9.500001 -12.1911 -13.2387 -12.5878 -11.6615 -13.301 -9.464001 -21.65172 -22.00162 -23.31792 -18.29622 
-10.6887 -13.8315 -13.492 -12.9821 -15.5648 -16.0752 -14.3213 -14.828 -14.4445 -23.78572 -23.74522 -26.03462 -23.31792 
