-4.759 
n/a 
n/a 
n/a 
n/a 
-4.759 
n/a 
n/a 
n/a 
n/a 
-4.759 
n/a 
n/a 
n/a 
n/a 
-4.759 
n/a 
n/a 
n/a 
n/a 
-2.5195 -4.8945 -2.7295 -3.8255 -3.135 -3.638 -2.0935 -10.0975 0 -1.756 -5.043 0 -2.3615 -3.074 -3.7075 -4.918 -3.638 0 -3.1435 -4.0555 -2.5195 -4.9345 -4.2335 0 
-7.002 -8.295501 -6.847 -6.006001 -6.83 -5.83 -13.182 -10.0975 -1.756 -6.688 -5.043 -2.3615 -5.384501 -7.7735 -9.883 -7.7925 -3.638 -3.1435 -8.7845 -5.0775 -8.1645 -9.128 -4.2335 
-9.6945 -12.6332 -9.0535 -9.4165 -8.320001 -17.5919 -13.182 -11.9265 -6.688 -6.688 -7.665 -5.384501 -10.564 -14.331 -12.8971 -7.7925 -7.47 -8.7845 -9.956 -10.6095 -12.556 -9.128 
-14.1214 -14.8397 -12.668 -11.2285 -20.5015 -17.5919 -15.011 -16.8585 -6.688 -9.1645 -10.27 -10.564 -17.1215 -17.3451 -12.8971 -12.3881 -13.4514 -9.956 -15.5054 -15.001 -12.556 
-16.3279 -18.4542 -14.48 -23.41 -20.5015 -19.4209 -19.943 -16.8585 -9.1645 -11.7987 -15.4495 -17.1215 -20.1356 -17.3451 -17.4927 -18.3695 -14.6229 -15.5054 -19.8969 -15.001 
-2.7295 -3.0465 -1.4985 -3.638 -2.5195 -1.4985 -4.8945 -4.1845 -2.186 -4.066 -2.5195 -1.4985 -3.7075 -3.7805 0 -6.281 -4.2335 0 
-4.932 -4.046 -4.9385 -5.8435 -3.1695 -6.2485 -6.8795 -6.237 -7.468 -4.976 -3.1695 -4.6235 -6.981 -3.7805 -6.281 -10.2985 -4.2335 
-5.9795 -7.625 -7.021501 -6.403 -7.7855 -8.909 -9.435501 -12.1012 -8.14 -5.5295 -5.905 -7.743001 -6.981 -10.7025 -10.2985 -10.2985 
-9.0065 -8.920501 -7.3535 -11.6328 -10.543 -10.7175 -15.3819 -12.7732 -8.662001 -7.9895 -9.061501 -7.743001 -14.3066 -14.72 -10.2985 
-10.2285 -9.409 -12.6871 -14.3903 -12.3515 -16.6639 -16.0539 -13.2952 -11.3204 -10.586 -9.061501 -15.3356 -18.3241 -14.72 
-4.4365 -3.871 -2.0935 -1.4985 -5.304 -2.4945 -10.6015 -3.9595 -2.5195 -3.7075 
-5.7905 -5.488 -2.9725 -6.831 -8.3645 -14.5242 -14.9914 -5.087 -6.1755 
-6.856 -6.2925 -8.1455 -10.5855 -20.5396 -18.9141 -16.1189 -8.7305 
-7.5665 -11.7765 -12.07 -22.7606 -24.9295 -20.0416 -19.7624 
-13.4103 -15.701 -24.2451 -27.1505 -26.057 -23.6851 
-1.4985 -3.638 -2.5195 -4.8945 -3.402 -5.02 -2.186 -1.4985 -3.486 -2.5045 -4.918 -3.638 0 -6.429 -4.2335 0 -2.5195 -1.4985 -3.7075 -3.7805 0 
-4.9385 -5.8435 -7.002 -6.669001 -7.108 -7.035501 -3.339 -3.5655 -4.737 -7.17 -7.7925 -3.638 -6.429 -8.924001 -4.2335 -2.5195 -3.1695 -4.6235 -6.981 -3.7805 
-7.021501 -9.404501 -8.2715 -7.634 -8.780001 -8.107 -5.074 -4.8655 -9.744 -10.1075 -7.7925 -10.115 -8.924001 -8.924001 -6.354 -3.1695 -5.905 -7.743001 -6.981 
-10.6735 -10.7132 -9.1225 -9.6295 -10.028 -10.298 -5.4775 -9.932501 -12.7427 -10.1075 -15.0331 -12.974 -8.924001 -11.5163 -7.084 -5.905 -9.061501 -7.743001 
-11.9822 -11.5642 -11.3592 -10.8775 -12.219 -10.759 -10.702 -12.9772 -12.7427 -17.3481 -17.8921 -12.974 -11.5163 -12.2463 -9.534 -9.061501 -9.061501 
