-4.759 
n/a 
n/a 
n/a 
n/a 
-4.759 
n/a 
n/a 
n/a 
n/a 
-4.759 
n/a 
n/a 
n/a 
n/a 
-4.759 
n/a 
n/a 
n/a 
n/a 
-9.541 -2.8645 -3.383 -6.7035 -3.3855 -3.429 -1.4985 -4.799 -3.563 -1.7695 -1.4985 -6.3215 
-12.7169 -5.9505 -7.573501 -9.0555 -7.08 -4.4635 -5.743 -7.5585 -4.445 -2.7955 -8.272 
-15.8029 -10.6228 -9.521501 -12.3715 -8.071501 -8.881001 -9.462501 -9.626 -6.245 -9.6125 
-20.4752 -12.8388 -13.4594 -14.0909 -12.659 -12.8475 -10.0585 -12.4858 -13.6176 
-22.6912 -16.9941 -15.1678 -18.6784 -16.6255 -13.4435 -13.4369 -19.8584 
-3.5725 -1.934 -1.8085 -4.191 -1.7565 -5.1245 0 -7.449 -5.5015 -3.4045 -3.332 -4.4175 -1.756 -5.243 -2.4265 -3.2295 -6.3215 0 
-5.073 -3.2685 -6.006001 -6.1895 -6.382501 -5.1245 -7.449 -13.7859 -6.081 -5.666 -6.613 -6.0565 -6.179 -6.4755 -5.4375 -10.123 -6.3215 
-6.545001 -6.826 -6.681 -7.5365 -6.382501 -13.4361 -13.7859 -14.3654 -8.159 -8.989 -7.5455 -9.8265 -6.952001 -8.1115 -12.912 -10.123 
-9.9975 -6.935 -7.6255 -7.5365 -15.1649 -19.773 -14.3654 -16.4434 -11.9222 -9.632001 -10.733 -10.498 -8.432 -16.1862 -12.912 
-10.439 -7.6975 -7.6255 -16.5521 -21.5018 -20.3525 -16.4434 -20.2066 -12.5652 -12.9315 -11.4045 -11.978 -16.5425 -16.1862 
-8.908 -4.0825 -3.332 -5.3485 -1.756 -5.243 -3.2295 -6.3215 -3.433 -1.7565 -3.332 -4.9475 
-13.2597 -6.7435 -6.407001 -6.4345 -6.179 -7.9325 -10.123 -10.468 -4.1845 -4.4865 -7.633 
-15.9207 -9.9375 -7.283 -10.228 -8.9945 -15.3266 -14.2695 -10.764 -6.1655 -9.028 
-19.1147 -10.517 -10.646 -13.1631 -16.6302 -19.4731 -14.5655 -12.745 -10.597 
-19.6942 -14.3634 -13.5811 -20.7988 -20.7767 -19.7691 -16.5465 -17.1765 
-8.172 -5.52 -3.091 -4.4175 -2.0935 -3.332 -6.039001 -4.9475 0 
-14.4456 -8.221001 -6.7805 -7.3835 -4.7045 -8.7405 -10.7025 -4.9475 
-17.1466 -12.2405 -8.755501 -9.3555 -10.0475 -13.689 -10.7025 
-21.1661 -14.2155 -11.0937 -14.9557 -14.996 -13.689 
-23.1411 -16.5537 -16.6939 -19.9042 -14.996 
