-4.759 
n/a 
n/a 
n/a 
n/a 
-4.759 
n/a 
n/a 
n/a 
n/a 
-4.759 
n/a 
n/a 
n/a 
n/a 
-4.759 
n/a 
n/a 
n/a 
n/a 
-2.264 -3.539 -3.2815 0 -6.9525 -2.5195 -3.2875 -1.7565 -9.3085 -1.934 -6.6585 -2.7455 -2.855 -3.1385 -4.424 -3.5005 -2.789 -3.284 -4.004 -3.851 -1.8085 -5.044 -4.299 -1.934 -12.16972 0 
-4.87 -5.6105 -3.2815 -6.9525 -8.012501 -5.9 -4.3315 -10.316 -11.046 -7.809 -9.946 -5.9775 -6.2415 -6.278501 -7.75 -7.110001 -7.05 -5.9845 -8.22 -6.5725 -5.522 -6.7535 -5.88 -15.11012 -12.16972 
-6.527 -5.6105 -10.688 -8.012501 -10.0285 -7.1515 -14.0844 -12.0535 -16.921 -11.5537 -13.3234 -8.935 -8.606 -8.361501 -11.8169 -11.6882 -10.434 -10.757 -11.4703 -10.204 -7.9005 -8.9455 -19.71812 -15.11012 
-6.527 -14.1918 -11.748 -10.0285 -10.6395 -17.306 -15.8219 -17.9285 -20.6657 -14.9311 -16.2809 -11.4589 -10.341 -12.665 -16.3951 -15.0722 -15.2065 -14.0073 -15.1018 -12.5825 -9.6715 -23.39522 -19.71812 
-15.5671 -15.2518 -13.764 -10.6395 -21.7776 -19.0435 -21.6969 -21.6732 -24.0431 -17.8886 -18.8048 -13.1939 -14.6445 -17.2432 -19.7791 -19.8447 -18.4568 -17.6388 -17.4803 -14.3535 -24.30442 -23.39522 
-3.539 -3.2815 0 -1.934 -1.4985 -10.678 -4.299 -2.5045 -12.16972 -4.99 -3.133 -4.323 -3.641 -1.7565 -9.3085 -3.2875 0 -2.855 -3.1385 -3.152 -4.493 -3.5005 -2.789 -3.284 -3.6515 -3.5385 0 
-5.6105 -3.2815 -1.934 -2.6125 -13.2703 -14.977 -6.425 -15.36922 -17.15972 -8.444 -6.4265 -6.816501 -5.198501 -10.316 -12.7412 -3.2875 -2.855 -6.2415 -5.219 -5.593 -7.3945 -7.110001 -7.05 -7.083 -7.7415 -3.5385 
-5.6105 -5.9045 -2.6125 -14.7785 -17.5693 -17.103 -19.74412 -20.35922 -20.61372 -9.02 -8.5695 -6.947001 -14.5324 -13.7487 -12.7412 -6.7705 -6.2415 -7.9275 -6.315001 -7.665 -10.078 -11.6882 -10.6735 -7.7935 -7.7415 
-7.821501 -6.71 -14.7785 -19.0775 -19.6953 -30.42212 -24.73412 -23.81322 -21.18972 -10.293 -8.622001 -16.4017 -17.9651 -13.7487 -16.2242 -10.0185 -7.9275 -8.3175 -8.028001 -10.759 -14.8196 -15.3117 -11.384 -7.7935 
-7.897501 -19.1626 -19.0775 -21.2035 -33.01442 -35.41212 -28.18812 -24.38922 -22.46272 -10.3145 -18.1581 -19.8344 -17.9651 -17.2317 -19.4722 -12.1567 -8.3175 -9.997001 -11.4062 -15.5006 -18.4431 -16.0222 -11.384 
-3.539 -6.1365 -3.6765 -3.5005 -2.789 -3.284 -4.004 -4.493 -6.39 -10.8475 -9.0775 -1.7565 -12.16972 -2.9705 -2.186 -3.133 -6.142 -3.641 -1.7565 -10.14 
-7.83 -10.322 -6.448 -7.110001 -7.05 -5.9845 -7.562 -10.1515 -17.6213 -19.925 -10.9362 -14.87542 -15.14022 -3.89 -6.017 -8.804501 -8.8725 -5.198501 -12.8457 
-13.895 -13.6921 -10.543 -11.6882 -10.434 -9.4245 -14.4105 -21.3828 -26.6988 -21.7837 -24.05512 -17.84592 -16.05972 -7.6845 -11.6855 -13.0605 -10.8945 -17.0621 
-17.1297 -17.7871 -15.1212 -15.0722 -13.874 -17.0408 -25.6418 -30.4603 -28.5575 -34.90262 -27.02562 -18.76542 -19.85422 -13.6078 -16.0216 -14.0201 -22.278 
-21.2247 -22.3653 -18.5052 -18.5122 -21.4903 -28.2721 -34.7193 -32.319 -41.67642 -37.87312 -27.94512 -22.55992 -25.77752 -17.9439 -16.8566 -26.0741 
-3.539 -3.2815 0 -1.934 -1.4985 -12.16972 -4.5115 -2.3335 -4.0875 -3.5015 -1.934 -12.16972 -2.9705 -2.186 -4.99 -3.133 -5.7335 -3.502 -1.7565 -6.6585 -2.229 -9.3085 -3.2875 0 -2.855 -3.1385 -3.152 -4.493 -3.5005 -2.789 -3.284 -4.004 0 
-5.6105 -3.2815 -1.934 -2.6125 -14.76202 -16.68122 -6.357501 -5.637 -5.143 -4.704 -15.11012 -15.14022 -3.89 -5.502 -8.444 -7.7755 -7.807001 -5.0575 -8.343 -9.037001 -12.1325 -12.7412 -3.2875 -2.855 -6.2415 -5.219 -5.593 -7.3945 -7.110001 -7.05 -5.9845 -4.004 
-5.6105 -5.9045 -2.6125 -16.27022 -19.27352 -18.52722 -8.344501 -6.0175 -5.692 -18.38092 -18.08062 -16.05972 -6.855 -8.788501 -10.0255 -9.543501 -7.956001 -12.5276 -10.2755 -19.1819 -15.5652 -12.7412 -6.7705 -6.2415 -7.9275 -6.315001 -7.665 -10.078 -11.6882 -10.434 -5.9845 
-7.821501 -6.71 -16.27022 -20.78172 -21.11952 -20.51422 -8.432 -6.4845 -19.55492 -21.35142 -19.00012 -19.02472 -10.1465 -10.2595 -11.9447 -9.7005 -15.5627 -14.4601 -20.4204 -22.6146 -15.5652 -16.2242 -10.0185 -7.9275 -8.3175 -8.028001 -10.759 -14.8196 -15.0722 -10.434 
-7.897501 -20.65432 -20.78172 -22.62772 -23.10652 -20.60172 -8.828001 -20.51622 -22.52542 -22.27092 -21.96512 -22.31622 -11.7023 -12.1095 -12.1017 -17.3374 -17.4952 -24.605 -23.8531 -22.6146 -19.0482 -19.4722 -12.1567 -8.3175 -9.997001 -11.4062 -15.5006 -18.2036 -15.0722 
