-4.759 
n/a 
n/a 
n/a 
n/a 
-4.759 
n/a 
n/a 
n/a 
n/a 
-4.759 
n/a 
n/a 
n/a 
n/a 
-4.759 
n/a 
n/a 
n/a 
n/a 
-2.9805 -3.0835 -4.2765 -4.284 -5.1205 -4.758 -1.934 -1.4985 -3.158 -4.3285 -3.034 -2.9805 -2.7415 -3.6705 -1.934 -3.091 -3.5035 -3.4425 -1.756 -2.9805 -3.7555 -4.4785 -2.264 -3.524 -2.461 0 -4.2005 
-5.948501 -6.228001 -8.8815 -9.584501 -9.0975 -6.9615 -2.6125 -4.178 -6.5725 -6.8315 -4.4605 -4.004 -5.528 -4.865 -4.2105 -6.4465 -5.7795 -5.048 -4.3555 -5.3095 -6.1 -6.3265 -4.855 -5.5525 -2.461 -4.2005 
-7.460501 -10.543 -14.268 -13.5913 -10.46 -7.707 -5.265 -7.755 -9.4175 -7.795 -5.2415 -6.469 -6.614 -7.232501 -7.685501 -7.9585 -7.7695 -7.3255 -6.598001 -7.540501 -7.5415 -7.9185 -6.5245 -5.5525 -6.4855 
-11.8373 -15.9295 -18.2748 -14.9538 -10.703 -10.067 -8.328501 -9.6195 -10.7505 -8.315001 -7.5245 -7.503 -8.231001 -10.259 -8.718 -9.0695 -9.918 -9.6485 -9.198 -8.9975 -9.120501 -9.397 -6.5245 -8.7065 
-17.2238 -19.9363 -19.6373 -15.1968 -13.063 -13.5003 -10.2435 -10.9521 -11.2705 -10.4105 -8.4325 -8.723001 -11.4293 -10.656 -9.7895 -10.4855 -12.2956 -12.2949 -10.76 -10.9331 -10.5645 -9.397 -9.344501 
-1.934 -4.3285 0 -3.986 -4.254 -1.934 -3.5035 -3.6215 -1.756 -5.267 -3.091 -4.284 -7.312 -4.758 -2.264 -3.524 -2.461 0 -4.2005 
-5.522501 -4.3285 -3.986 -7.823501 -5.313 -5.1175 -6.568 -5.3685 -6.884 -7.1375 -4.863 -12.546 -12.7736 -6.811501 -4.855 -5.5525 -2.461 -4.2005 
-5.522501 -9.6385 -7.823501 -9.318501 -8.315001 -8.976501 -8.071501 -11.2991 -8.389 -8.550501 -13.4366 -18.0076 -14.8271 -8.751 -6.5245 -5.5525 -6.4855 
-10.2645 -13.8118 -9.318501 -12.6287 -13.164 -10.7096 -14.1757 -12.8041 -9.795501 -17.4145 -18.8982 -20.0611 -16.7666 -10.4185 -6.5245 -8.7065 
-14.4378 -15.3068 -12.6287 -17.4777 -14.8971 -16.8138 -15.6807 -14.2106 -18.6595 -22.8761 -20.9517 -22.0006 -18.4341 -10.4185 -9.344501 
-3.5455 -4.3285 0 -3.4985 -3.6705 -1.934 -1.8085 -4.058 -3.3035 0 -2.9805 -3.0835 -4.2765 -3.091 -6.0885 -8.0505 -4.758 -4.4685 -2.9805 -4.4785 -2.264 -3.524 -4.3365 -4.2005 0 
-7.548 -4.3285 -3.4985 -5.772 -4.865 -3.2685 -5.5085 -8.604 -3.3035 -2.9805 -5.948501 -6.228001 -6.4185 -6.7905 -15.052 -13.1591 -9.060501 -5.5575 -5.818501 -6.3265 -4.855 -6.3765 -8.6045 -4.2005 
-7.548 -7.5515 -5.772 -6.715 -5.8865 -6.4085 -9.472 -8.604 -6.129001 -5.948501 -7.460501 -8.3155 -9.084001 -16.0898 -20.1606 -17.4616 -9.689001 -7.422 -7.8995 -7.9185 -7.205501 -10.1115 -8.6045 
-10.27 -9.070001 -6.715 -7.55 -9.637001 -11.0694 -9.472 -11.7143 -9.185501 -7.460501 -8.752501 -11.2532 -18.4625 -21.1984 -24.4631 -18.0901 -10.5065 -8.407001 -9.530001 -9.852501 -10.6465 -10.1115 
-11.7885 -10.186 -7.55 -11.4363 -14.4921 -11.0694 -12.6661 -14.7708 -10.9391 -8.752501 -11.8758 -20.6317 -23.5711 -25.5009 -25.0916 -18.9076 -11.4915 -9.8065 -11.4776 -13.5303 -10.6465 
-4.3285 0 -3.986 -4.2765 -4.6395 -4.758 -3.034 -2.9805 -2.7415 -4.6075 -1.934 -1.8085 -3.5035 -4.1865 -2.264 -3.524 -2.461 -4.2005 -2.925 -3.7555 -4.4785 0 
-4.3285 -3.986 -7.3715 -8.3555 -7.797501 -8.0865 -4.4605 -4.004 -6.036 -5.4935 -3.2685 -5.268 -5.0075 -6.48 -4.855 -5.5525 -6.4855 -7.347 -5.431 -6.1 -4.4785 
-9.6385 -7.3715 -9.8585 -9.554 -10.1385 -8.892501 -5.2415 -6.796 -6.955 -6.634 -6.881001 -6.2565 -7.6555 -9.199 -6.5245 -8.7065 -10.4265 -9.885 -7.258 -6.1 
-10.17 -9.8585 -10.0505 -10.33 -10.311 -9.513501 -8.429501 -7.818 -7.993001 -9.4315 -7.4125 -8.682 -10.181 -11.0475 -9.344501 -12.7741 -12.9645 -11.8238 -7.258 
-10.1815 -10.0505 -10.3625 -10.347 -10.321 -10.336 -9.4805 -8.756001 -10.621 -9.968 -9.9475 -11.3849 -12.0295 -13.8675 -13.5427 -15.3121 -14.9033 -11.8238 
