-4.759 
n/a 
n/a 
n/a 
n/a 
-4.759 
n/a 
n/a 
n/a 
n/a 
-4.759 
n/a 
n/a 
n/a 
n/a 
-4.759 
n/a 
n/a 
n/a 
n/a 
-1.934 -4.811 0 -4.649 -5.409 -4.2775 -3.59 -2.0935 -7.961 
-6.0125 -4.811 -4.649 -9.923 -9.23 -7.607 -5.627 -10.3045 
-6.0125 -9.184501 -9.923 -13.7972 -12.6215 -9.269501 -14.3736 
-10.513 -14.5357 -13.7972 -17.1887 -14.284 -18.2681 
-15.8642 -18.4099 -17.1887 -18.8512 -23.2826 
-1.934 -3.5715 -7.0165 0 -6.946 -3.8755 -1.4985 -7.539001 -10.0295 0 -2.9905 -1.7565 -1.4985 -4.1585 -3.6825 -1.756 -1.4985 -7.9205 -4.2995 -2.5045 -1.4985 -4.9395 -5.0075 -3.711 0 
-5.0835 -12.212 -7.0165 -6.946 -10.985 -5.275 -8.479 -10.8025 -10.0295 -2.9905 -3.6185 -2.4195 -5.6005 -7.5125 -5.315 -3.0405 -7.7935 -11.116 -6.617 -3.1915 -6.475 -11.046 -7.977 -3.711 
-13.4346 -12.212 -14.8193 -10.985 -12.3845 -12.4989 -12.0555 -10.8025 -13.1756 -3.6185 -4.3385 -6.508 -8.5185 -8.932501 -6.1835 -9.331 -10.64 -11.4928 -7.14 -7.6755 -13.3915 -14.0155 -7.977 
-13.4346 -20.0148 -18.8583 -12.3845 -19.6084 -16.0754 -12.0555 -13.9486 -13.8036 -4.3385 -8.540001 -9.0865 -9.621501 -9.4455 -12.444 -10.385 -11.8777 -12.1082 -11.9888 -14.9704 -16.361 -14.0155 
-21.2374 -24.0538 -20.2578 -19.6084 -23.1849 -16.0754 -15.2016 -14.5766 -14.5236 -8.540001 -11.6533 -10.016 -10.049 -15.764 -13.7125 -12.9419 -12.5319 -16.957 -19.2837 -17.9399 -16.361 
-1.934 -4.811 0 -4.649 -4.4175 -1.934 -1.4985 -4.304 -2.3335 -6.9985 -3.1385 -3.1425 -3.115 -1.7695 -3.619 -2.985 -7.9205 0 -2.7295 -3.331 -3.502 -3.8735 -4.9425 0 
-6.0125 -4.811 -4.649 -9.533501 -5.2705 -2.6125 -5.3885 -6.5435 -9.408001 -8.954 -5.4145 -4.228 -3.974 -4.5275 -6.219501 -8.726501 -6.373 -2.7295 -4.4705 -8.48 -6.2275 -9.317 -4.9425 
-6.0125 -9.184501 -9.533501 -10.5153 -5.64 -6.409 -7.4015 -14.1242 -11.5525 -11.4058 -6.803 -4.321 -6.430501 -6.4835 -11.5195 -7.942 -8.575001 -4.4705 -9.4145 -11.4101 -12.3296 -9.317 
-10.513 -14.1462 -10.5153 -10.8848 -9.7405 -8.408001 -15.2072 -16.2687 -14.0043 -12.7943 -6.9475 -6.598001 -9.092501 -10.5585 -10.2665 -10.199 -9.935 -9.4145 -12.6322 -17.5122 -12.3296 
-15.4747 -15.128 -10.8848 -14.9853 -10.637 -16.2523 -17.3517 -18.7205 -15.3928 -12.9388 -9.777 -9.6075 -13.2715 -10.4155 -12.5235 -11.559 -15.2612 -12.6322 -18.7343 -17.5122 
-1.934 -4.811 -4.649 -4.1585 -1.934 -1.4985 -4.698 -2.3335 -7.961 -4.331 -1.7695 -4.888 -2.985 -7.9205 -1.756 -2.7295 -2.4945 -5.149 -3.502 -3.8735 -2.5045 -1.8085 -4.2775 -3.59 0 
-6.0125 -9.184501 -8.52 -6.16 -2.6125 -5.740001 -6.8675 -9.771001 -12.871 -4.593 -5.393 -6.162 -8.726501 -7.784 -4.083 -3.7725 -6.401 -9.739 -6.2275 -6.3415 -3.3625 -4.8285 -7.607 -3.59 
-10.513 -13.1327 -10.8987 -6.7925 -6.765501 -7.803501 -14.6098 -15.03 -13.133 -7.752 -6.711 -10.978 -8.6005 -9.361501 -5.182 -7.9455 -11.6606 -12.6195 -8.7005 -6.9735 -5.875 -7.7015 -7.607 
-14.4612 -15.5114 -11.5312 -11.3521 -8.663501 -15.6998 -19.8688 -15.292 -16.292 -9.337001 -10.086 -10.264 -10.943 -10.613 -9.128 -13.4891 -14.5411 -15.0925 -9.4965 -9.9945 -8.623 -7.7015 
-16.8399 -16.1439 -16.0908 -13.2501 -16.587 -20.9588 -20.1308 -18.451 -17.877 -12.9444 -10.5665 -12.7753 -12.4702 -15.0094 -14.861 -16.3696 -17.0141 -15.8885 -12.5695 -12.7425 -8.623 
