-4.759 
n/a 
n/a 
n/a 
n/a 
-4.759 
n/a 
n/a 
n/a 
n/a 
-4.759 
n/a 
n/a 
n/a 
n/a 
-4.759 
n/a 
n/a 
n/a 
n/a 
-1.934 -3.0105 -2.688 -3.519 -4.0465 -3.8025 -2.8645 -3.3195 -5.3535 -1.7695 -1.4985 -8.4735 0 
-4.827 -5.811501 -6.198501 -5.8285 -8.0985 -6.8105 -5.9135 -10.3745 -7.330501 -2.7955 -9.104501 -8.4735 
-7.66 -9.543501 -7.989501 -8.867001 -11.3027 -10.5325 -12.9413 -12.3515 -8.314 -10.6367 -9.104501 
-11.6142 -11.3845 -10.1185 -12.2886 -15.0247 -17.5603 -14.9183 -13.335 -16.52 -10.6367 
-13.4552 -13.5135 -13.5401 -16.0106 -22.0525 -19.5373 -15.9018 -21.541 -16.52 
-1.4985 -3.5435 -2.8645 -4.673 -3.7715 -2.0935 -4.9315 -3.519 -4.437 0 
-4.2755 -5.259501 -6.6045 -8.1815 -5.087 -6.922 -7.119 -6.1925 -4.437 
-5.6235 -8.397501 -8.575001 -8.475 -9.612 -8.824 -8.716001 -6.1925 
-8.866501 -10.1075 -8.724501 -13.412 -11.9814 -10.061 -8.716001 
-10.7595 -10.2765 -13.9137 -15.7814 -13.2184 -10.061 
-1.934 -3.0105 0 -3.5435 -3.8935 -2.688 -5.3535 -2.0935 -2.688 -4.9315 -3.519 -4.437 0 
-4.827 -3.0105 -3.5435 -7.563001 -6.9985 -8.062 -6.8855 -4.612 -7.6445 -7.119 -6.1925 -4.437 
-4.827 -7.1025 -7.563001 -10.322 -12.7111 -9.172 -8.946001 -9.565001 -9.0105 -8.716001 -6.1925 
-8.715501 -11.6378 -10.322 -16.227 -13.8211 -11.4141 -14.0834 -10.506 -9.792001 -8.716001 
-13.3074 -14.3968 -16.227 -17.337 -16.0632 -16.5515 -15.0244 -11.1967 -9.792001 
-2.264 -3.0105 0 -2.0935 -2.688 -4.563 -3.519 -4.437 -3.3715 -3.7715 -3.5435 -3.7555 0 
-5.783501 -3.0105 -2.0935 -4.612 -6.952001 -8.450001 -6.1925 -7.924001 -6.1265 -7.879 -7.367001 -3.7555 
-5.783501 -5.713 -4.612 -10.013 -11.024 -10.733 -9.462 -10.951 -10.8616 -12.2769 -7.367001 
-9.410501 -8.514501 -10.013 -14.085 -13.307 -14.0025 -12.5636 -15.6861 -15.2595 -12.2769 
-12.3096 -14.0879 -14.085 -16.368 -16.5765 -17.1041 -17.2987 -20.084 -15.2595 
