-4.759 
n/a 
n/a 
n/a 
n/a 
-4.759 
n/a 
n/a 
n/a 
n/a 
-4.759 
n/a 
n/a 
n/a 
n/a 
-4.759 
n/a 
n/a 
n/a 
n/a 
-1.4985 -3.893 -1.7565 -5.8215 -1.8085 -4.1145 -4.6665 -4.641 -2.264 -3.043 -3.4295 -1.4985 -4.1145 -2.186 0 
-4.3925 -4.1785 -6.815001 -8.009501 -5.757 -9.959 -8.4245 -4.7885 -4.4475 -6.854 -4.8885 -5.3525 -6.3365 -2.186 
-4.5425 -8.942 -8.966001 -10.533 -10.564 -10.5795 -8.538 -6.0045 -8.233001 -8.0835 -8.9665 -7.1895 -6.3365 
-9.256001 -10.495 -10.5745 -10.592 -10.593 -10.598 -9.397 -9.1295 -9.1735 -10.543 -10.427 -7.1895 
-10.543 -10.591 -10.593 -10.6105 -10.6115 -10.6165 -10.565 -9.750501 -10.5645 -10.5815 -10.427 
-2.871 -4.1145 -2.229 -3.0465 -4.3655 -1.7695 -4.224 -3.135 -5.593 0 -1.7695 -4.1145 -2.229 -4.2305 -4.149 -2.4265 0 
-7.3935 -6.818501 -5.399 -6.9835 -7.3325 -5.104 -6.8635 -7.7 -5.593 -1.7695 -6.501 -6.818501 -6.921 -8.0165 -5.308 -2.4265 
-9.762501 -10.4765 -10.1338 -10.485 -11.1206 -7.5065 -12.3387 -7.7 -7.466001 -6.501 -8.807501 -12.2005 -11.1472 -9.783001 -5.308 
-14.1025 -15.2113 -13.6353 -14.6449 -13.5231 -12.9523 -12.3387 -9.349501 -12.7601 -8.807501 -14.4559 -16.4267 -12.9137 -9.783001 
-18.8373 -18.7128 -17.7952 -17.0474 -18.9689 -12.9523 -13.9882 -14.7382 -15.0666 -14.4559 -18.6821 -18.1932 -12.9137 
-1.4985 -5.9655 -3.5745 -5.651501 -3.383 -6.0525 -4.7015 -1.934 -1.4985 -3.1385 -1.7565 -1.4985 -3.383 -5.3175 0 
-7.797501 -9.3725 -9.1155 -8.05 -11.1599 -11.8388 -6.569 -2.6125 -4.2575 -4.861 -2.4195 -4.554501 -10.4249 -5.3175 
-11.9691 -13.4556 -11.6755 -17.5134 -16.9462 -13.7063 -7.4715 -6.285501 -5.1835 -5.5655 -5.7505 -12.0648 -10.4249 
-16.0522 -18.2773 -20.7876 -23.3117 -18.8137 -14.6088 -11.6011 -7.642 -5.8365 -9.17 -13.452 -12.0648 
-20.8739 -26.7602 -26.5739 -25.1792 -19.7162 -18.7384 -12.9576 -8.3195 -9.932501 -16.9897 -13.452 
-1.4985 -3.893 -1.7565 -5.5325 -4.856 -3.8935 -2.3345 -1.8085 -4.1145 -4.641 -2.264 -3.1435 -4.1445 
-4.3925 -4.1785 -6.802001 -7.8135 -9.772501 -5.077 -3.8605 -5.757 -9.286 -4.7885 -4.6705 -6.768001 
-4.5425 -9.1775 -9.243501 -13.5542 -10.979 -6.418 -8.7205 -10.1945 -9.361 -6.8245 -8.204 
-9.6925 -11.8332 -14.6844 -14.7607 -12.32 -12.0364 -13.2716 -10.256 -10.676 -9.476501 
-12.4744 -17.2741 -15.8909 -16.1017 -17.9384 -16.5875 -13.3331 -11.7506 -14.0166 
