-4.759 
n/a 
n/a 
n/a 
n/a 
-4.759 
n/a 
n/a 
n/a 
n/a 
-4.759 
n/a 
n/a 
n/a 
n/a 
-4.759 
n/a 
n/a 
n/a 
n/a 
-4.331 -12.16972 -2.9805 -5.3075 -1.4985 -4.237 -4.194 0 -1.934 -5.32 -12.16972 -5.7755 -2.9805 -3.074 -4.673 -1.4985 -3.486 
-17.24592 -15.15022 -6.816501 -6.034501 -5.154 -6.689 -4.194 -1.934 -6.4995 -18.08832 -17.94522 -8.796 -4.8805 -6.981 -5.842 -3.5655 
-20.22642 -18.98622 -7.262001 -10.1725 -7.4985 -6.689 -5.7375 -6.4995 -19.83022 -23.86382 -20.96572 -10.5645 -7.538 -7.499001 -8.885 
-24.06242 -19.43172 -11.534 -12.6482 -7.4985 -8.5675 -10.9566 -19.83022 -25.60572 -26.88432 -22.73422 -13.222 -7.9545 -10.733 
-24.50792 -23.70372 -14.0097 -12.6482 -9.448 -13.9658 -24.28732 -25.60572 -28.62622 -28.65282 -25.39172 -13.6385 -11.2563 
-1.934 -5.564 -4.331 -12.16972 -5.3075 -1.4985 -3.974 -1.7565 -5.463 -3.638 -1.7565 -4.237 -1.756 -1.934 -5.32 -9.3295 -12.16972 -5.3075 -1.4985 -4.486 -1.7565 -5.463 -4.237 -1.7565 -3.638 0 
-6.9355 -8.8915 -17.24592 -17.47722 -6.034501 -4.772 -4.613 -7.253001 -10.4855 -5.668 -5.66 -5.4575 -4.0205 -6.4995 -15.2481 -22.23582 -17.47722 -6.034501 -5.5485 -5.308 -7.253001 -9.834001 -5.8415 -4.8635 -3.638 
-9.646001 -21.88722 -22.55342 -18.20422 -10.155 -4.923 -10.2085 -13.0389 -12.5155 -9.202001 -6.598 -8.113 -8.300501 -16.99 -28.15442 -27.54332 -18.20422 -10.7025 -5.979 -11.6127 -12.3874 -11.5529 -9.975 -4.8635 
-23.06532 -27.19472 -23.28042 -22.32472 -10.4358 -10.3745 -16.1318 -15.0689 -16.0495 -9.930501 -9.155001 -12.6278 -18.968 -29.89632 -33.46192 -28.27032 -22.87222 -11.133 -12.4387 -16.7471 -14.1063 -15.6864 -9.975 
-28.37282 -27.92172 -27.40092 -22.60552 -15.8873 -16.3764 -18.1618 -18.6029 -16.778 -12.7135 -13.7812 -23.2953 -31.87432 -35.20382 -34.18892 -32.93832 -23.30272 -17.5927 -17.5731 -18.466 -18.2398 -15.6864 
-4.237 -4.612 -2.186 -10.0905 -8.589001 -5.564 -3.158 -18.12 -3.158 -11.0555 -12.16972 -4.237 -4.612 -3.638 -2.186 -4.554 0 
-8.764 -6.164 -13.4869 -18.7197 -14.3364 -9.636 -22.828 -21.9828 -15.3057 -23.22522 -16.40672 -8.764 -7.878 -5.627 -5.002501 -4.554 
-10.688 -17.9901 -22.1161 -24.4671 -18.4084 -29.5384 -26.233 -34.1305 -27.47542 -27.46222 -20.93372 -12.2322 -9.304001 -8.3155 -5.002501 
-22.5141 -26.6193 -27.8635 -28.5391 -38.3108 -32.9434 -38.3807 -46.30022 -31.71242 -31.98922 -24.40192 -13.6582 -12.2109 -8.3155 
-31.1433 -32.3667 -31.9355 -48.4415 -41.7158 -45.0911 -50.55042 -50.53722 -36.23942 -35.45742 -25.82792 -16.5651 -12.2109 
-4.237 -5.291 -3.974 -2.7415 -4.6275 -2.3345 -4.331 -5.7145 -2.5045 -5.564 0 -1.756 -1.4985 -5.1865 -1.7565 -4.237 -5.291 -3.974 -2.7415 -4.6275 -2.3345 -12.16972 -9.403001 -2.5045 -5.32 0 
-9.5085 -9.609001 -6.132 -5.812 -5.9515 -5.7405 -7.313001 -9.621 -8.687 -5.564 -1.756 -3.0405 -6.2985 -6.518 -5.66 -9.5085 -9.609001 -6.132 -5.812 -5.9515 -14.83482 -21.57272 -12.1345 -9.088 -5.32 
-13.8551 -11.792 -8.342501 -6.6425 -9.068501 -9.221001 -10.688 -15.9921 -8.687 -7.468 -3.0405 -7.7615 -7.1555 -9.7355 -11.5091 -13.8551 -11.792 -8.342501 -6.6425 -19.01562 -24.23782 -24.30422 -18.718 -9.088 
-16.0381 -14.0025 -8.505 -9.416 -9.6265 -13.0862 -17.0591 -15.9921 -10.6095 -8.653501 -7.7615 -8.5505 -10.6465 -16.0944 -15.8557 -16.0381 -14.0025 -8.505 -19.94702 -28.41862 -26.96932 -30.88772 -18.718 
-18.2486 -14.165 -10.0445 -9.733001 -14.4061 -19.4573 -17.0591 -17.9146 -11.795 -13.4757 -8.5505 -12.1259 -17.0054 -20.441 -18.0387 -18.2486 -14.165 -22.54492 -29.35002 -31.15012 -33.55282 -30.88772 
