-4.759 
n/a 
n/a 
n/a 
n/a 
-4.759 
n/a 
n/a 
n/a 
n/a 
-4.759 
n/a 
n/a 
n/a 
n/a 
-4.759 
n/a 
n/a 
n/a 
n/a 
-3.2615 -3.2495 -3.277 -4.331 -13.98 -3.44 0 -4.216 -10.5675 -2.988 -4.686 -3.6835 -4.563 -3.326 -12.16972 -3.4605 -3.8755 0 
-5.6585 -4.6515 -7.686501 -15.0097 -17.7052 -3.44 -4.216 -16.0799 -13.9265 -9.519501 -9.664001 -9.1105 -8.82 -16.80112 -15.63022 -6.29 -3.8755 
-6.2765 -9.0935 -18.937 -18.7679 -17.7052 -8.419001 -16.0799 -19.4389 -20.458 -15.2431 -15.2546 -13.6459 -22.71412 -20.26162 -18.45972 -6.29 
-11.0585 -20.4082 -22.39 -18.7679 -23.2052 -20.3775 -19.4389 -25.9704 -26.1816 -20.8337 -19.79 -27.54002 -26.17462 -23.09112 -18.45972 
-22.3732 -23.8612 -22.39 -24.2679 -35.1637 -23.7365 -25.9704 -31.694 -31.7722 -25.3691 -33.68412 -31.00052 -29.00412 -23.09112 
-3.2615 -2.341 -7.883 -3.44 -2.186 -6.38 -1.7695 -2.988 -2.3615 -3.326 -3.982 -3.9235 -5.574 -3.16 -4.673 
-5.81 -9.3795 -11.8878 -5.8085 -7.524 -6.8295 -5.142 -7.149 -5.4165 -7.283 -7.1085 -9.272 -8.755501 -8.5425 
-13.9059 -13.3739 -14.2563 -12.1321 -8.061501 -9.694 -8.892501 -10.997 -10.5035 -9.857 -10.757 -12.7055 -14.7434 
-17.9003 -15.7424 -20.5799 -12.6696 -10.6465 -13.5469 -13.1559 -16.084 -13.0775 -14.0539 -14.1905 -18.6934 
-20.2688 -22.066 -21.1174 -15.2546 -14.4994 -17.8103 -18.2429 -18.658 -17.2744 -17.4874 -20.1784 
-3.2615 -2.341 -3.277 0 -4.331 -4.9705 -4.156 -3.44 -3.6885 0 -2.988 -4.239 -3.991 -2.7415 -4.09 -2.5045 -1.8085 -3.4605 -2.0935 -3.982 -4.0375 -2.229 -3.326 -3.307 -5.574 0 
-5.81 -4.464 -3.277 -4.331 -7.759001 -8.769501 -8.1495 -6.903501 -3.6885 -2.988 -6.468 -8.083 -7.1575 -5.289001 -5.9375 -3.3625 -4.9875 -5.0435 -5.882 -4.964 -5.8135 -5.4715 -5.021501 -9.156 -5.574 
-6.666 -4.464 -7.686501 -7.759001 -10.597 -13.0302 -11.8214 -6.903501 -6.937 -6.468 -9.824 -11.4593 -9.135 -6.712501 -6.333 -7.2565 -6.284 -8.8505 -7.4265 -6.4295 -8.691501 -7.447001 -9.637001 -9.156 
-6.666 -9.515501 -11.3811 -10.597 -14.8577 -16.7021 -11.8214 -9.7515 -10.9092 -9.824 -13.3759 -13.4368 -10.6055 -6.9875 -9.896001 -8.536501 -10.3035 -10.8734 -9.6125 -8.9515 -11.2148 -12.7097 -9.637001 
-11.9689 -13.2723 -14.2191 -14.8577 -18.5296 -16.7021 -14.6694 -13.8093 -14.2652 -13.3759 -15.3534 -14.9073 -10.8805 -10.3035 -10.6915 -12.8134 -12.3264 -13.0594 -12.2287 -11.5972 -16.4775 -12.7097 
-3.436 -3.2495 -3.158 -3.515 -16.29572 -3.44 -3.6885 0 -2.988 -3.9915 -1.4985 -4.1 -2.688 -4.142 -2.911 -5.574 -1.934 -3.737 -3.5025 0 
-7.0715 -5.246 -5.958 -20.86012 -20.20122 -6.903501 -3.6885 -2.988 -8.6005 -4.907 -5.0695 -7.390501 -7.264501 -7.2875 -9.3855 -7.571001 -5.191 -7.468 -3.5025 
-9.906 -8.722 -24.82352 -24.76562 -22.73372 -6.903501 -6.937 -8.6005 -10.01 -8.803 -8.9995 -12.3978 -11.06 -15.1026 -11.6669 -11.6196 -9.2255 -7.468 
-13.5688 -28.44812 -28.72902 -27.29812 -22.73372 -9.7515 -13.0417 -10.01 -14.1958 -13.2812 -13.9348 -16.1933 -18.8751 -17.384 -15.7155 -15.6541 -9.2255 
-33.29492 -32.35362 -31.26152 -27.29812 -25.58172 -15.9418 -14.4512 -14.1958 -18.674 -18.2165 -17.7303 -24.0084 -21.1565 -21.4326 -19.75 -15.6541 
