-4.759 
n/a 
n/a 
n/a 
n/a 
-4.759 
n/a 
n/a 
n/a 
n/a 
-4.759 
n/a 
n/a 
n/a 
n/a 
-4.759 
n/a 
n/a 
n/a 
n/a 
-3.7515 0 -3.098 0 -4.0355 0 -3.098 -1.756 -3.6175 0 -3.509 -1.7565 -2.9705 -2.4945 -3.7855 -2.871 -3.2615 -1.4985 -2.8965 -2.3345 -1.4985 -6.56 
-3.7515 -3.098 -3.098 -4.0355 -4.0355 -3.098 -4.558 -5.5265 -3.6175 -3.509 -4.762 -4.3815 -4.302 -5.125 -6.5325 -5.942 -4.032 -3.928 -6.033 -3.233 -7.7805 
-7.037 -3.098 -7.8895 -4.0355 -7.5465 -4.558 -7.6905 -5.5265 -6.117 -4.762 -6.7735 -5.289001 -7.064 -7.734 -9.328501 -6.464 -6.372 -6.6475 -7.0085 -9.0885 
-7.037 -7.8895 -7.8895 -7.5465 -8.7675 -7.6905 -7.6905 -8.815001 -8.7755 -6.7735 -7.193 -7.824 -10.2035 -9.906 -9.698001 -6.5815 -8.516001 -7.3695 -13.0568 
-12.7717 -7.8895 -8.901 -8.7675 -12.115 -7.6905 -10.718 -10.733 -10.766 -7.193 -8.228001 -11.3097 -12.3755 -10.1505 -9.7355 -8.666 -9.1625 -13.481 
-3.7515 0 -3.098 0 -4.0355 -3.9915 0 -3.6175 -2.4945 -3.2775 -4.251 -4.4155 -3.275 0 
-3.7515 -3.098 -3.098 -4.0355 -7.196 -3.9915 -3.6175 -6.7115 -5.863501 -8.273001 -8.554501 -8.285 -3.275 
-7.037 -3.098 -7.8895 -7.196 -7.196 -7.959001 -6.7115 -9.8695 -11.4136 -12.8965 -12.72 -8.285 
-7.037 -7.8895 -8.9405 -7.196 -11.6703 -12.1244 -9.8695 -15.8818 -16.0371 -17.062 -12.72 
-12.7717 -8.9405 -8.9405 -11.6703 -15.8357 -15.2824 -15.8818 -20.5053 -20.2026 -17.062 
-3.7515 0 -3.098 0 -4.0355 -3.098 0 -1.756 -3.213 -3.9745 -2.4945 -3.9285 
-3.7515 -3.098 -3.098 -4.0355 -7.5465 -3.098 -1.756 -4.9205 -7.6235 -6.4235 -5.071 
-7.037 -3.098 -7.8895 -7.5465 -7.5465 -4.558 -4.9205 -9.6245 -10.5961 -8.9125 
-7.037 -7.8895 -8.901 -7.5465 -8.7675 -8.147 -9.6245 -12.6945 -13.0851 
-12.7717 -8.901 -8.901 -8.7675 -12.5715 -13.2562 -12.6945 -15.1835 
-3.7515 0 -3.098 0 -4.0355 -3.098 0 -3.9745 -1.7565 -3.6175 -2.742 -2.489 -3.7855 -5.075 0 
-3.7515 -3.098 -3.098 -4.0355 -7.5465 -3.098 -3.9745 -4.5865 -5.5995 -6.4295 -3.301 -4.789001 -8.936001 -5.075 
-7.037 -3.098 -7.8895 -7.5465 -7.5465 -7.361 -4.5865 -8.255 -8.673 -6.831 -5.34 -9.753501 -8.936001 
-7.037 -7.8895 -8.901 -7.5465 -12.2699 -8.067 -8.255 -11.4161 -9.3485 -9.134501 -10.5803 -9.753501 
-12.7717 -8.901 -8.901 -12.2699 -12.9759 -12.2355 -11.4161 -12.0916 -11.7248 -14.5784 -10.5803 
