-4.759 
n/a 
n/a 
n/a 
n/a 
-4.759 
n/a 
n/a 
n/a 
n/a 
-4.759 
n/a 
n/a 
n/a 
n/a 
-4.759 
n/a 
n/a 
n/a 
n/a 
-4.744 -5.6435 -2.4945 -2.6165 -4.0455 -3.433 -2.3335 -2.186 -4.567 -2.674 -1.8085 -4.0455 -4.1445 
-10.5865 -7.239 -3.8065 -8.17 -7.348001 -5.392 -3.7085 -7.601001 -5.667 -3.63 -5.2965 -8.259001 
-12.182 -8.675501 -9.1645 -11.7701 -9.109501 -6.0995 -8.910001 -9.379001 -6.468 -7.4655 -9.824 
-13.6185 -14.3495 -12.94 -13.5316 -9.953501 -12.3728 -11.0374 -10.2605 -10.389 -12.4108 
-19.2925 -18.125 -14.7015 -14.3756 -16.2472 -14.5002 -11.9189 -14.1815 -15.3343 
-3.047 -5.6435 -2.186 -2.6165 -1.8085 -4.0455 0 -2.4265 -2.186 -2.6165 -3.469 -2.95 -4.055 0 
-8.892 -7.8465 -3.5105 -4.0345 -5.2965 -4.0455 -2.4265 -3.292 -3.5105 -5.7985 -4.7535 -7.822001 -4.055 
-11.4972 -9.56 -4.4335 -7.566 -5.2965 -6.5645 -3.292 -4.443 -7.125 -8.3065 -9.6815 -7.822001 
-13.2107 -10.5245 -8.198 -7.566 -7.483 -7.1625 -4.443 -7.7165 -9.913 -13.7301 -9.6815 
-14.1752 -14.289 -8.198 -9.168 -8.1335 -8.42 -7.7165 -10.3095 -14.9928 -13.7301 
-5.6435 0 -2.186 -2.6165 -1.8085 -4.0455 -3.319 0 -2.4265 -2.186 -2.6165 -1.8085 -7.91 -3.277 -3.8245 -4.0455 0 -3.456 -2.3335 -2.186 -2.6165 -4.997 -1.8085 -4.0455 
-5.6435 -2.186 -3.5105 -4.0345 -5.2965 -6.778501 -3.319 -2.4265 -3.292 -3.5105 -4.0345 -10.7175 -8.6735 -6.8655 -7.3745 -4.0455 -3.456 -5.7725 -3.7085 -3.5105 -9.474501 -7.419001 -5.2965 
-7.8465 -3.5105 -4.4335 -7.566 -8.552 -6.778501 -6.0305 -3.292 -4.443 -4.4335 -13.9483 -11.481 -13.5784 -11.6267 -7.3745 -6.455501 -5.7725 -6.7205 -4.873 -11.0903 -12.1719 -11.2392 
-9.56 -4.4335 -8.198 -10.304 -8.552 -9.9505 -6.912001 -4.443 -5.5165 -14.7283 -14.7118 -16.3859 -18.3396 -11.6267 -10.3745 -9.6675 -6.7205 -7.9655 -12.6654 -13.7877 -15.9921 
-10.5245 -8.198 -10.3345 -10.304 -12.11 -10.651 -8.0705 -5.5165 -15.9443 -15.4918 -19.6167 -21.1471 -18.3396 -14.6267 -13.5865 -10.6873 -7.9655 -16.0743 -15.3628 -17.6079 
-2.871 -3.2645 -3.803 -3.4765 -9.406 -4.439 -2.5045 -1.8085 -4.116 -3.8825 -1.7695 -4.0455 -2.872 -2.6165 -1.8085 -4.055 -1.756 -3.074 -4.515 -2.6165 -1.8085 -4.0455 0 
-5.529 -7.047 -7.4795 -14.1739 -14.0576 -6.1995 -3.3625 -5.3395 -7.915 -4.5575 -6.4075 -6.618501 -4.245 -4.0345 -5.689 -5.365 -4.566 -7.8005 -7.319 -4.0345 -5.2965 -4.0455 
-8.318501 -10.3345 -18.9053 -18.8255 -15.8181 -6.763 -6.704 -8.1505 -8.1715 -8.9705 -8.901 -8.245001 -5.9845 -8.023001 -7.3455 -8.242001 -9.243 -10.7809 -8.402 -7.566 -5.2965 
-12.015 -21.7603 -23.5569 -20.586 -16.3816 -9.908001 -10.051 -8.554501 -12.7619 -11.6556 -10.8661 -9.633 -10.044 -9.6075 -10.081 -13.01 -12.346 -11.8639 -12.1183 -7.566 
-23.4408 -26.4119 -25.3174 -21.1495 -19.5266 -13.419 -10.063 -13.2425 -15.447 -13.6207 -12.2541 -13.6925 -11.7183 -12.4042 -14.849 -16.113 -13.429 -15.5802 -12.1183 
