-4.759 
n/a 
n/a 
n/a 
n/a 
-4.759 
n/a 
n/a 
n/a 
n/a 
-4.759 
n/a 
n/a 
n/a 
n/a 
-4.759 
n/a 
n/a 
n/a 
n/a 
-9.489 -4.672 -2.186 -12.16972 -5.532 
-14.272 -6.625501 -15.56612 -17.70172 
-16.2255 -20.30762 -21.09812 
-29.90762 -25.83962 
-35.43962 
-6.0565 -6.5845 -10.3565 0 -5.675 -6.653 -12.16972 0 
-13.3786 -17.6784 -10.3565 -5.675 -10.523 -19.66572 -12.16972 
-24.4725 -17.6784 -16.1101 -10.523 -23.53572 -19.66572 
-24.4725 -23.432 -20.9581 -23.53572 -23.53572 
-30.2261 -28.28 -33.97082 -23.53572 
-12.16972 -4.672 -12.16972 0 0 -11.128 -4.554 0 
-16.84172 -17.70332 -12.16972 0 -11.128 -15.682 -4.554 
-29.87304 -17.70332 -12.16972 -11.128 -15.682 -15.682 
-29.87304 -17.70332 -23.29772 -15.682 -15.682 
-29.87304 -28.83132 -27.85172 -15.682 
-9.489 -4.672 -3.264 -2.3335 -2.4265 -2.186 -1.4985 0 -4.278 -2.229 -8.1545 0 0 
-14.272 -8.044001 -4.533 -3.913 -3.292 -3.339 -1.4985 -4.278 -6.414001 -10.932 -8.1545 0 
-17.644 -9.529 -5.853 -4.5215 -4.5995 -3.339 -6.1565 -6.414001 -16.0408 -10.932 -8.1545 
-19.129 -10.915 -6.666 -5.8585 -4.5995 -8.151 -8.5145 -16.0408 -16.0408 -10.932 
-20.515 -11.728 -7.923 -5.8585 -9.9325 -10.3035 -18.4435 -16.0408 -16.0408 
