-4.759 
n/a 
n/a 
n/a 
n/a 
-4.759 
n/a 
n/a 
n/a 
n/a 
-4.759 
n/a 
n/a 
n/a 
n/a 
-4.759 
n/a 
n/a 
n/a 
n/a 
-3.691 -3.6115 -3.6135 -3.59 -3.4765 -8.825001 -1.7695 -3.1385 -4.02 -2.186 -3.535 0 
-7.605 -7.192 -6.519 -6.806 -13.5929 -8.892001 -5.0525 -7.271 -5.624 -5.677 -3.535 
-11.9839 -10.5043 -9.927501 -17.488 -13.6599 -12.4894 -10.322 -9.712001 -8.038 -5.677 
-15.2962 -13.9128 -20.7455 -17.555 -17.2573 -17.7589 -12.763 -12.126 -8.038 
-18.7047 -24.7308 -20.8125 -21.1524 -22.5268 -20.1999 -15.177 -12.126 
-3.691 -2.186 -4.4665 -3.59 0 -2.872 -1.4985 -4.02 -2.186 -3.383 -3.644 0 
-5.832 -7.133 -7.635 -3.59 -2.872 -4.035 -4.914001 -5.624 -4.438 -5.271 -3.644 
-11.382 -11.0353 -7.635 -5.904 -4.035 -7.660001 -6.2225 -7.7815 -6.3665 -5.271 
-15.2843 -11.0353 -9.613501 -7.01 -7.660001 -8.396001 -8.341001 -8.956 -6.3665 
-15.2843 -13.0138 -10.3905 -9.846001 -8.396001 -10.4035 -9.5565 -8.956 
-3.4765 -3.929 -3.691 -2.186 -3.6115 -4.1735 -3.59 0 -1.934 -4.3485 -3.7875 -3.535 -4.02 0 
-4.589 -8.1405 -5.832 -5.979 -5.7235 -6.9245 -3.59 -1.934 -5.4065 -8.705501 -7.3935 -6.812 -4.02 
-8.527 -8.881001 -9.152 -8.3995 -7.8015 -6.9245 -5.272 -5.4065 -9.462501 -12.3499 -10.757 -6.812 
-9.2355 -12.3928 -10.7495 -10.382 -7.8015 -7.166 -8.634501 -9.462501 -13.1821 -15.7134 -10.757 
-12.8379 -13.9903 -12.732 -10.382 -7.9475 -12.0577 -12.7585 -13.1821 -16.5456 -15.7134 
-3.691 -2.186 -3.6115 -4.4665 -3.59 0 -2.872 -4.02 -2.186 -3.644 0 
-5.832 -5.979 -6.555501 -7.635 -3.59 -2.872 -8.039001 -5.624 -5.6125 -3.644 
-9.152 -8.915001 -9.146501 -7.635 -5.904 -8.039001 -9.3345 -8.229 -5.6125 
-12.3018 -11.8836 -9.146501 -9.613501 -10.6215 -9.3345 -12.1513 -8.229 
-15.2704 -11.8836 -11.3704 -14.886 -11.917 -12.1513 -12.1513 
