-4.759 
n/a 
n/a 
n/a 
n/a 
-4.759 
n/a 
n/a 
n/a 
n/a 
-4.759 
n/a 
n/a 
n/a 
n/a 
-4.759 
n/a 
n/a 
n/a 
n/a 
-6.096 -6.096 -2.186 -1.8085 -2.688 -3.535 -4.3305 -2.5045 -3.5315 -3.0575 
-7.9615 -8.209001 -3.164 -3.642 -6.538 -7.0315 -6.7635 -7.1105 -5.4975 
-9.9455 -8.7155 -5.166 -7.248 -10.1035 -9.5395 -11.9157 -9.436001 
-10.291 -11.1299 -8.5515 -10.248 -12.9751 -14.7689 -14.2412 
-12.8796 -14.5154 -11.7103 -13.4334 -18.2045 -17.0944 
-8.309501 0 -12.16972 -2.7415 -4.3215 -2.5045 -1.8085 -3.535 -4.3305 0 
-8.309501 -12.16972 -14.91122 -5.758 -6.389 -3.3625 -4.294 -7.0315 -4.3305 
-21.02722 -14.91122 -17.92772 -7.098001 -7.372001 -6.055 -7.2795 -7.0315 
-23.76872 -17.92772 -19.26772 -7.9045 -10.609 -9.758501 -7.2795 
-26.78522 -19.26772 -20.07422 -11.2619 -14.3125 -9.758501 
-3.5315 -3.0575 -6.096 -6.096 -2.186 -2.664 -2.688 -4.719 -4.3215 
-5.4975 -9.400001 -7.9615 -8.209001 -3.8555 -6.7325 -6.903501 -10.1305 
-12.8228 -11.3845 -9.9455 -9.8585 -8.211 -10.341 -12.7272 
-14.8073 -13.3685 -11.8686 -14.214 -11.9707 -16.1647 
-16.7913 -15.2916 -16.2241 -17.9737 -17.7944 
-16.649 -2.7415 -4.4895 -2.5045 -1.4985 -3.2825 0 
-20.6717 -5.4595 -6.1555 -3.583 -3.712 -3.2825 
-23.3897 -6.9455 -7.1985 -5.8065 -3.712 
-24.8757 -7.675 -9.482 -5.8065 
-25.6052 -10.018 -9.482 
