-4.759 
n/a 
n/a 
n/a 
n/a 
-4.759 
n/a 
n/a 
n/a 
n/a 
-4.759 
n/a 
n/a 
n/a 
n/a 
-4.759 
n/a 
n/a 
n/a 
n/a 
-4.714 -4.6655 
-8.775001 
n/a 
n/a 
n/a 
-5.9145 -4.6655 -1.756 -2.6165 -4.47 -4.478 
-8.354 -5.5855 -4.2965 -6.542 -7.4775 
-10.575 -8.379001 -8.310501 -8.2745 
-13.3685 -12.5292 -10.1185 
-17.5187 -14.3372 
-4.714 0 -6.279 0 -4.6655 -1.756 -5.895 -4.6655 0 -3.869 -4.0035 -3.456 0 
-4.714 -6.279 -6.279 -4.6655 -5.5855 -7.1715 -11.1415 -4.6655 -3.869 -8.443501 -5.6255 -3.456 
-9.209001 -6.279 -11.7577 -5.5855 -10.435 -12.5296 -11.1415 -8.316 -8.443501 -10.199 -5.6255 
-9.209001 -11.7577 -12.6777 -10.435 -16.2887 -12.5296 -14.792 -13.5429 -10.199 -10.199 
-15.1141 -12.6777 -17.5272 -16.2887 -16.2887 -16.1801 -20.0189 -15.2984 -10.199 
-3.299 -5.9145 -4.6655 -5.5495 -4.6655 -2.4945 -2.6165 -4.47 -4.478 
-9.3855 -8.354 -10.5755 -10.5754 -6.249 -3.8065 -6.542 -7.4775 
-11.918 -15.4876 -15.6014 -12.1589 -7.604 -7.035 -8.2745 
-19.0516 -20.5135 -17.1849 -13.5139 -9.2845 -8.901501 
-24.0775 -22.097 -18.5399 -15.1944 -10.7035 
