-4.759 
n/a 
n/a 
n/a 
n/a 
-4.759 
n/a 
n/a 
n/a 
n/a 
-4.759 
n/a 
n/a 
n/a 
n/a 
-4.759 
n/a 
n/a 
n/a 
n/a 
-4.1395 -2.5195 -4.288 0 -4.476 0 -2.8965 -6.9985 -4.2915 0 -4.6795 0 -4.631 0 -3.9685 0 -5.1645 0 -7.189 0 -5.693 -1.756 -3.6085 -3.152 -3.9595 -1.756 -4.431 -2.356 -5.1845 0 
-5.6695 -6.007 -4.288 -4.476 -4.476 -2.8965 -9.186501 -8 -4.2915 -4.6795 -4.6795 -4.631 -4.631 -3.9685 -3.9685 -5.1645 -5.1645 -7.189 -7.189 -5.693 -7.4245 -5.505 -7.204 -5.4355 -5.8625 -5.8395 -5.562 -7.8135 -5.1845 
-8.177 -6.007 -9.256001 -4.476 -8.641001 -9.186501 -9.439 -8 -7.653 -4.6795 -7.197001 -4.631 -6.388 -3.9685 -7.726501 -5.1645 -10.647 -7.189 -13.9036 -7.4245 -8.508 -8.255 -9.870001 -7.0375 -9.3175 -7.017 -10.6735 -7.8135 
-8.177 -11.6692 -9.256001 -8.641001 -15.3188 -9.439 -9.439 -11.7177 -7.653 -7.197001 -7.197001 -6.388 -6.388 -7.726501 -7.726501 -10.647 -10.647 -13.9036 -15.6351 -8.508 -11.4266 -11.1114 -11.5336 -10.0275 -9.525001 -12.4231 -10.6735 
-14.6582 -11.6692 -13.842 -15.3188 -15.5713 -9.439 -13.2723 -11.7177 -10.4595 -7.197001 -8.449 -6.388 -9.007501 -7.726501 -14.1708 -10.647 -17.3616 -15.6351 -16.7186 -11.4266 -14.283 -12.775 -14.5236 -10.2085 -14.9325 -12.4231 
-3.3715 -3.9355 -5.2115 -1.7695 -4.5475 -4.2915 -3.115 -4.973 -1.756 -4.8 0 -2.8965 -6.9985 -4.2915 0 -4.9795 -4.2915 -3.115 -6.3755 0 -4.631 -1.756 -3.9685 0 -4.2915 -1.7565 -5.1845 -3.4635 -4.8445 -3.115 -5.1645 0 -6.5175 -1.756 -5.693 0 -1.756 -1.4985 -3.6085 -3.6885 0 -2.674 -3.6955 -1.7695 -5.1845 0 
-6.386001 -8.311501 -5.282 -6.3485 -6.9595 -6.6435 -8.605501 -6.8725 -6.462 -4.8 -2.8965 -9.186501 -8 -4.2915 -4.9795 -8.698 -6.6435 -9.844 -6.3755 -4.631 -6.318 -5.691 -3.9685 -4.2915 -6.0825 -6.580501 -9.33 -9.097501 -7.5925 -8.280001 -5.1645 -6.5175 -7.81 -7.548 -5.693 -1.756 -3.0405 -5.023 -5.021 -3.6885 -2.674 -5.082 -4.4705 -7.4505 -5.1845 
-10.7175 -8.3345 -10.0745 -9.625501 -9.7045 -9.505 -9.691501 -8.032001 -6.462 -8.1475 -9.186501 -9.439 -8 -9.785 -8.698 -10.523 -14.0847 -9.844 -9.017 -6.318 -7.404 -5.691 -7.639501 -6.0825 -10.0605 -10.434 -15.1524 -12.0071 -13.0295 -8.280001 -10.2925 -7.81 -14.3256 -7.548 -7.4245 -3.0405 -6.5355 -5.7225 -5.021 -7.188001 -5.082 -5.5345 -9.854501 -7.4505 
-10.783 -13.4896 -13.3515 -12.4257 -12.8648 -10.14 -10.37 -8.032001 -9.6295 -15.0069 -9.439 -9.439 -13.8497 -13.7147 -10.523 -17.9642 -14.0847 -12.5739 -9.752501 -7.404 -7.404 -7.927 -9.691501 -10.0605 -13.9216 -16.5382 -18.062 -17.4441 -13.0295 -13.9282 -11.585 -14.3256 -14.3256 -9.2375 -9.014 -6.5355 -7.339 -5.7225 -8.4665 -9.4975 -5.5345 -10.6335 -9.854501 
-15.9381 -16.7666 -16.1517 -15.586 -13.4998 -10.5215 -10.37 -11.5287 -16.7245 -15.2594 -9.439 -15.4043 -17.7794 -15.5397 -17.9642 -17.9642 -16.8146 -13.3094 -11.0289 -7.404 -9.920501 -9.8715 -13.7863 -13.9216 -20.0258 -19.4478 -23.499 -17.4441 -18.6777 -15.2207 -18.1006 -14.3256 -16.0151 -10.435 -10.533 -7.339 -7.339 -8.5675 -10.688 -9.947001 -10.6335 -10.6335 
-3.3715 -3.9355 -3.251 -4.518 -1.7695 -5.1845 -3.3255 -1.4985 -4.5475 -3.6885 -3.115 -9.359 0 -8.661 -1.756 -5.171 -3.6885 -3.2775 -2.5045 -4.6795 0 -4.157 0 -3.9685 -5.599 -5.1645 0 -10.4535 -1.756 -7.1525 -2.9705 -3.4635 -1.7695 -5.1845 -3.1385 -1.756 -3.074 -2.5195 -3.6085 -3.6885 
-6.386001 -7.0985 -6.1035 -6.717 -7.4505 -9.408501 -3.8945 -5.662001 -7.6115 -6.731 -13.2496 -9.359 -8.661 -11.136 -7.337 -10.041 -6.706 -3.678 -8.09 -4.6795 -4.157 -4.157 -3.9685 -9.179001 -10.6835 -5.1645 -10.4535 -12.2095 -9.111 -9.7745 -7.097501 -4.2045 -7.4505 -7.4095 -4.6325 -4.566 -5.787 -6.3155 -5.021 
-9.411501 -9.728001 -8.686001 -12.8778 -12.0955 -10.383 -8.233 -8.2095 -10.361 -17.2158 -13.2496 -18.3302 -11.136 -16.717 -12.6186 -13.0585 -6.755 -8.7325 -8.09 -10.004 -4.157 -8.7235 -9.18 -15.2753 -11.3683 -16.7144 -12.2095 -19.5645 -11.8894 -14.1143 -7.271501 -9.303501 -9.466001 -8.628 -7.279 -6.7305 -9.673 -7.9595 
-12.2764 -12.5309 -15.0578 -17.5228 -13.07 -14.7215 -10.9695 -11.3818 -20.8458 -17.2158 -22.2208 -20.8052 -16.717 -21.9986 -15.6361 -13.1075 -10.228 -8.7325 -13.5855 -10.004 -8.7235 -14.4682 -15.3755 -15.3755 -23.4024 -18.4704 -19.5645 -22.3429 -16.2292 -14.2883 -12.5853 -11.3086 -10.7529 -10.071 -9.495001 -10.3675 -11.3446 
-15.0793 -18.9027 -19.7028 -18.4973 -17.4085 -17.458 -14.1418 -21.8666 -20.8458 -26.187 -24.6958 -26.3862 -21.9986 -25.0161 -15.6851 -16.5805 -10.228 -14.4394 -13.5855 -14.5705 -14.4682 -20.6637 -15.3755 -27.4096 -25.1584 -25.8254 -22.3429 -26.6827 -16.4032 -19.6021 -14.5904 -12.5955 -12.1959 -13.0734 -13.204 -12.0825 
-1.934 -5.1845 0 -3.3715 -1.7565 -3.9355 -4.0555 -2.5195 -1.4985 -2.8965 -10.178 -4.2915 0 -12.16972 0 -4.157 0 -3.9685 -4.2915 0 -1.756 -3.4635 -1.7695 -5.1845 -3.1385 -1.7565 -5.1645 0 -8.803 0 -5.693 0 -11.0905 0 -8.661 -1.756 -3.6085 0 
-6.564 -5.1845 -3.3715 -4.3215 -5.442 -7.214 -5.0775 -3.1695 -3.928 -14.2197 -14.4695 -4.2915 -12.16972 -12.16972 -4.157 -4.157 -3.9685 -7.639501 -4.2915 -1.756 -4.7195 -4.2045 -7.4505 -7.4095 -4.861 -6.994501 -5.1645 -8.803 -8.803 -5.693 -5.693 -11.0905 -11.0905 -8.661 -11.136 -5.505 -3.6085 
-6.564 -9.7295 -4.3215 -10.0475 -9.241501 -8.045 -5.8035 -5.6085 -15.585 -18.5112 -14.4695 -17.57102 -12.16972 -16.32672 -4.157 -8.7235 -7.639501 -7.639501 -5.448 -4.7195 -6.4985 -9.303501 -9.466001 -8.8085 -10.9696 -6.994501 -15.0639 -8.803 -14.732 -5.693 -17.8295 -11.0905 -19.7515 -11.136 -14.885 -5.505 
-10.2865 -10.445 -10.0475 -13.847 -10.127 -8.79 -8.026 -17.4239 -19.8765 -18.5112 -27.74902 -17.57102 -16.32672 -16.32672 -8.7235 -12.9277 -7.639501 -8.9455 -8.462501 -6.4985 -11.9317 -11.3086 -10.9334 -15.5581 -10.9696 -17.6847 -15.0639 -14.732 -14.732 -17.8295 -17.8295 -19.7515 -22.2265 -14.885 -14.885 
-11.002 -16.171 -13.847 -14.7325 -10.767 -11.1941 -20.2234 -21.7154 -19.8765 -31.79072 -27.74902 -21.72802 -16.32672 -20.89322 -12.9277 -12.9277 -8.9455 -12.1074 -10.396 -11.9317 -13.9368 -12.776 -17.683 -15.5581 -21.6598 -17.6847 -20.9929 -14.732 -26.8685 -17.8295 -26.4905 -22.2265 -25.9755 -14.885 
