-4.759 
n/a 
n/a 
n/a 
n/a 
-4.759 
n/a 
n/a 
n/a 
n/a 
-4.759 
n/a 
n/a 
n/a 
n/a 
-4.759 
n/a 
n/a 
n/a 
n/a 
-4.0105 -4.231 -3.115 -3.9555 -1.756 -3.7455 -1.934 -1.8085 -3.8175 -4.3755 -1.7565 -1.4985 -3.873 -1.934 -5.1845 -6.844 -3.8195 -2.4945 -3.325 -1.4985 -3.4985 -1.7565 -5.3745 -4.891 
-8.0315 -7.460501 -8.362501 -5.1795 -5.889 -5.3255 -3.2685 -4.55 -6.677 -4.5345 -2.4195 -4.7405 -5.468 -6.564 -6.9655 -10.841 -5.551 -5.3365 -3.898 -4.798 -4.622 -6.5 -7.061501 
-11.6136 -12.7896 -9.258501 -9.0045 -8.518001 -6.751 -6.0605 -6.897 -6.714 -4.799 -5.411 -6.374001 -9.739 -9.2075 -11.1319 -12.5725 -8.0155 -6.087 -5.8625 -5.425 -9.690001 -8.8485 
-16.9427 -13.6856 -13.1939 -11.6665 -9.715501 -8.529 -9.234 -6.9185 -6.999001 -7.4915 -6.852 -11.0756 -12.9349 -13.4545 -12.8634 -15.037 -8.876 -7.232501 -5.8915 -10.532 -12.7085 
-17.8387 -17.621 -15.8559 -12.864 -11.9881 -12.8683 -9.259501 -7.1965 -9.491501 -8.911 -11.6886 -14.2715 -17.1819 -15.186 -15.3279 -15.8975 -9.601001 -7.258501 -10.543 -13.5505 
-1.934 -3.17 -1.7565 -1.4985 -5.1845 -6.844 -4.088 0 -1.4985 -3.9555 0 -3.7455 -1.756 -4.058 -4.415 -2.4945 -4.196 -3.325 -1.4985 -3.4985 -1.7565 -6.144 0 
-4.8605 -4.179 -2.4195 -6.5205 -6.9655 -11.8706 -4.088 -1.4985 -4.988501 -3.9555 -3.7455 -5.392 -5.4065 -8.64 -6.329 -5.439 -7.502 -3.898 -4.798 -4.622 -7.7095 -6.144 
-5.8795 -4.497 -7.2335 -8.643001 -12.1615 -11.8706 -5.28 -4.988501 -4.988501 -7.882 -5.392 -8.540001 -9.5935 -10.4345 -8.9715 -8.880001 -8.0325 -5.8625 -5.425 -9.76 -7.7095 
-6.0885 -9.278501 -9.159 -13.9172 -12.1615 -13.0626 -9.545501 -4.988501 -9.4975 -9.882501 -8.540001 -13.2152 -11.2824 -13.077 -12.8445 -9.391001 -8.6785 -5.8915 -10.2175 -9.76 
-11.2214 -11.3026 -14.5422 -13.9172 -13.3535 -17.3281 -9.545501 -9.4975 -10.751 -13.1415 -13.2152 -14.9041 -13.9249 -16.95 -13.3555 -9.683001 -8.687 -10.316 -10.2175 
-1.934 -2.3615 -3.9035 -3.17 -3.873 -1.7695 -3.4985 -1.7565 -10.7545 
-3.539 -7.6165 -7.5295 -7.4515 -5.7395 -4.8425 -4.622 -13.4602 
-8.908501 -11.6133 -12.1892 -9.872001 -8.963 -7.244 -16.9957 
-13.2889 -16.273 -14.6097 -13.1477 -11.5359 -19.7423 
-17.9486 -18.6935 -17.8854 -15.7206 -24.0342 
-1.4985 -4.4285 -1.7565 -3.873 -3.9555 0 -4.5385 0 -1.756 -2.5685 -5.603 -1.934 -5.1845 -8.628 -3.892 -2.4945 -3.325 -1.4985 -3.4985 -1.7565 -5.3745 -4.891 0 
-4.759 -4.6405 -5.002 -6.872 -3.9555 -4.5385 -4.5385 -1.756 -4.2335 -8.58 -7.036 -6.564 -9.059501 -12.8126 -6.212501 -5.3365 -3.898 -4.798 -4.622 -6.5 -7.061501 -4.891 
-4.884 -8.06 -7.8405 -6.872 -8.3205 -4.5385 -5.647 -4.2335 -9.812501 -9.762501 -12.2874 -11.0512 -13.4691 -15.1331 -8.769501 -6.087 -5.8625 -5.425 -9.690001 -8.8485 -7.061501 
-8.233001 -11.1799 -7.8405 -11.8668 -8.3205 -5.647 -8.124001 -9.812501 -11.1512 -15.3349 -16.7746 -15.4608 -15.7896 -17.6901 -9.648001 -7.232501 -5.8915 -10.532 -12.7085 -8.8485 
-11.3577 -11.1799 -13.0513 -11.8668 -9.290001 -8.124001 -14.0536 -11.1512 -16.7236 -19.8221 -21.1842 -17.7813 -18.3466 -18.5686 -10.7605 -7.258501 -10.543 -13.5505 -12.7085 
