-4.759 
n/a 
n/a 
n/a 
n/a 
-4.759 
n/a 
n/a 
n/a 
n/a 
-4.759 
n/a 
n/a 
n/a 
n/a 
-4.759 
n/a 
n/a 
n/a 
n/a 
-2.9705 -3.874 -2.7295 -3.9335 -4.834 -2.3335 -2.186 -3.7435 -3.098 0 
-6.632 -6.3835 -5.461 -10.233 -7.1665 -3.7085 -7.069 -6.5755 -3.098 
-9.452001 -8.912001 -12.1703 -12.6681 -8.947001 -8.679501 -9.855 -6.5755 
-12.2099 -15.7939 -14.6054 -14.4486 -14.1678 -11.6743 -9.855 
-19.0918 -18.229 -16.3859 -19.6694 -17.1626 -11.6743 
-3.956 -3.098 -3.7435 
-7.2275 -7.26 
-11.8791 
n/a 
n/a 
-2.9325 -4.305 -3.115 -3.8255 -4.9345 -1.934 -3.098 -1.4985 -3.7435 
-6.0845 -7.083 -6.297501 -7.8655 -6.118 -5.595 -4.514 -4.5515 
-8.66 -10.8181 -10.6775 -8.957001 -9.5845 -6.941501 -7.648 
-12.6953 -15.1981 -11.769 -12.6077 -11.1336 -10.304 
-17.0753 -16.2896 -15.4197 -14.1568 -14.4961 
-2.9325 -4.3095 -1.7695 -4.452 -2.186 -3.098 -2.8705 -3.7435 
-7.2685 -4.519 -4.9815 -7.233 -4.5535 -6.2815 -6.1775 
-7.427501 -7.4475 -7.7005 -9.442 -7.7795 -9.432 
-11.6428 -10.134 -9.704 -13.1694 -10.7495 
-14.3293 -12.4641 -14.068 -16.1394 
