-4.759 
n/a 
n/a 
n/a 
n/a 
-4.759 
n/a 
n/a 
n/a 
n/a 
-4.759 
n/a 
n/a 
n/a 
n/a 
-4.759 
n/a 
n/a 
n/a 
n/a 
-12.16972 -8.909 -9.617001 -12.16972 -9.5085 
-21.07872 -18.9426 -21.89252 -21.67822 
-31.11232 -31.21812 -31.40102 
-43.38784 -40.72662 
-52.89634 
-3.034 -2.3085 -3.3165 -4.07 -1.934 -1.4985 -6.0165 0 
-4.1065 -5.0985 -6.006001 -6.0205 -2.6125 -6.7475 -6.0165 
-5.9635 -8.3205 -7.554 -6.7575 -7.908501 -6.7475 
-9.236 -9.684 -8.375501 -12.3875 -7.908501 
-10.8331 -10.9733 -14.2195 -12.3875 
-3.034 -2.7295 -4.0705 -1.4985 -3.7435 -2.5685 -4.07 -1.4985 -3.2875 -2.0935 -3.228 -5.759501 
-4.536 -8.292001 -5.212 -4.5515 -6.7885 -5.867 -5.3895 -4.127 -5.7435 -5.855 -9.6885 
-10.147 -9.396001 -8.342501 -7.6245 -9.992001 -7.0325 -7.844501 -6.2475 -9.4095 -12.6217 
-11.251 -12.7153 -11.8661 -11.0878 -11.1575 -9.219501 -9.692 -10.0185 -16.2356 
-14.5703 -16.2389 -15.3294 -12.2533 -13.3445 -11.1012 -13.5812 -16.9038 
-3.4765 -3.1405 -4.7535 -2.5045 -1.8085 -4.19 -3.7435 
-7.0635 -7.4955 -7.480501 -3.3625 -5.5475 -6.303 
-11.7379 -10.688 -8.673 -7.342501 -6.9595 
-14.9304 -11.8805 -10.7335 -8.7915 
-16.1229 -13.941 -12.1825 
