-4.759 
n/a 
n/a 
n/a 
n/a 
-4.759 
n/a 
n/a 
n/a 
n/a 
-4.759 
n/a 
n/a 
n/a 
n/a 
-4.759 
n/a 
n/a 
n/a 
n/a 
-2.872 -3.291 -1.7695 -5.1845 -3.6885 -7.661 -2.742 -2.489 -10.0235 -2.3345 -3.1385 
-6.7235 -4.6915 -7.4505 -7.323501 -9.948501 -10.8215 -3.301 -11.046 -12.5678 -5.443501 
-7.784501 -10.348 -9.437 -14.0849 -13.109 -11.3805 -12.3016 -13.5903 -15.6768 
-13.6536 -12.3345 -16.3644 -17.2454 -13.668 -20.3811 -14.8459 -16.6993 
-15.6401 -19.2619 -19.5249 -17.8044 -22.6686 -22.9254 -17.9549 
-2.872 -3.291 -1.7695 -5.1845 0 -2.925 -4.3845 -5.7865 -3.17 -1.934 -2.5685 -4.1865 -4.2915 0 
-6.7235 -4.6915 -7.4505 -5.1845 -2.925 -6.291 -9.029 -9.448001 -5.81 -4.244 -6.9915 -6.8595 -4.2915 
-7.784501 -10.348 -7.4505 -9.114 -6.291 -10.4265 -12.8887 -13.0056 -8.2915 -8.469501 -8.514501 -6.8595 
-13.6536 -10.348 -11.801 -10.6745 -10.4265 -14.2862 -16.4463 -15.4871 -13.0918 -9.004001 -8.514501 
-13.6536 -14.6985 -13.3615 -14.81 -14.2862 -17.8438 -18.9278 -20.2874 -13.6263 -9.004001 
-1.934 -4.1865 -3.6885 -4.685 -2.5195 -5.1845 -3.17 -1.7565 -1.4985 -3.1385 -4.3845 -5.7865 
-5.967 -7.112 -8.321501 -5.093 -7.594501 -9.3085 -4.179 -2.4195 -4.2575 -6.563001 -9.029 
-8.633 -12.2394 -8.366501 -9.959001 -12.2175 -9.853001 -4.497 -5.013 -6.956 -10.4345 
-13.9682 -12.2844 -13.3623 -14.3128 -12.762 -9.96 -6.2035 -8.351001 -11.1501 
-14.0132 -17.2802 -17.7161 -14.8573 -12.869 -11.9609 -9.316 -13.0053 
-2.872 -3.291 -1.7695 -5.1845 0 -2.925 -4.3845 -5.7865 -3.17 -1.934 -2.5685 -4.1865 -4.2915 
-6.7235 -4.6915 -7.4505 -5.1845 -2.925 -6.291 -9.029 -9.448001 -5.81 -4.244 -6.9915 -6.8595 
-7.784501 -10.348 -7.4505 -9.114 -6.291 -10.4265 -12.8887 -13.0056 -8.2915 -8.469501 -8.514501 
-13.6536 -10.348 -11.801 -10.6745 -10.4265 -14.2862 -16.4463 -15.4871 -13.0918 -9.004001 
-13.6536 -14.6985 -13.3615 -14.81 -14.2862 -17.8438 -18.9278 -20.2874 -13.6263 
