-4.759 
n/a 
n/a 
n/a 
n/a 
-4.759 
n/a 
n/a 
n/a 
n/a 
-4.759 
n/a 
n/a 
n/a 
n/a 
-4.759 
n/a 
n/a 
n/a 
n/a 
-4.278 -2.229 -3.0605 -4.5445 -1.7565 -4.96 0 -1.934 -4.1485 -4.802 -4.5445 -1.7695 -3.7515 -1.934 -3.6085 0 
-6.414001 -5.910501 -8.2465 -4.771 -6.784501 -4.96 -1.934 -7.3435 -9.193501 -8.8765 -6.3625 -5.999001 -5.6725 -4.739 -3.6085 
-11.0193 -11.2885 -8.828001 -11.0714 -6.784501 -6.758 -7.3435 -12.8758 -14.4825 -11.2725 -11.247 -7.6875 -8.187 -4.739 
-16.3973 -11.87 -15.3646 -11.0714 -8.366501 -12.8175 -12.8758 -18.1289 -16.8991 -16.3094 -12.9355 -10.5272 -8.187 
-16.9788 -18.4066 -15.3646 -12.6534 -14.6808 -18.3498 -18.1289 -20.3669 -21.902 -17.9979 -15.7752 -10.5272 
-4.278 -2.674 -8.135 -3.522 0 -3.6085 -4.802 -3.748 -1.756 -3.7515 0 0 -2.3615 -2.186 -3.881 -2.3345 -3.188 -3.8475 0 
-7.894501 -10.586 -12.0814 -3.522 -3.6085 -8.043501 -6.698501 -5.348 -5.2505 -3.7515 0 -2.3615 -3.5005 -5.3 -4.5275 -5.9645 -6.945001 -3.8475 
-16.1911 -14.5324 -12.0814 -7.4705 -8.198001 -10.5835 -7.902501 -8.051001 -5.2505 -3.7515 -2.3615 -3.5005 -7.1655 -6.2155 -8.168501 -9.612 -6.945001 
-20.1375 -14.5324 -16.0299 -12.091 -10.8491 -12.4316 -10.6295 -8.051001 -5.2505 -5.834 -3.5005 -7.1655 -8.236501 -9.8295 -12.5958 -9.612 
-20.1375 -18.4809 -20.6504 -14.7421 -12.4316 -15.2645 -10.7949 -8.051001 -7.334001 -6.7605 -7.1655 -8.236501 -12.1101 -14.4408 -12.5958 
-1.934 -7.6905 -10.37 -3.0605 -3.748 -1.7565 -4.96 0 -1.934 0 -3.6085 -4.802 -4.5445 0 
-10.6095 -18.5339 -13.5121 -6.1385 -5.459 -6.784501 -4.96 -1.934 -1.934 -3.6085 -8.043501 -8.8765 -4.5445 
-21.4529 -21.676 -16.5901 -7.969 -11.4714 -6.784501 -6.758 -1.934 -4.739 -8.198001 -13.2725 -9.068501 
-24.595 -24.754 -18.4206 -14.1764 -11.4714 -8.366501 -6.758 -4.739 -9.3915 -13.5381 -13.5381 
-27.673 -26.5845 -24.628 -14.1764 -13.0534 -8.366501 -9.42 -9.3915 -14.8558 -13.5381 
-1.934 -4.278 -3.0365 -2.4945 -3.0605 -3.748 -4.928 0 -1.934 -3.6085 -2.4265 -4.0935 -4.8325 -4.802 -3.748 -4.928 0 0 -2.4265 -2.8645 -3.1125 -4.354 -2.3345 -3.1385 -3.0695 -4.0555 -3.9175 -1.7695 -4.879 0 
-6.2645 -7.542001 -3.688 -6.4615 -6.1385 -9.767 -4.928 -1.934 -4.739 -6.52 -5.351 -9.061001 -9.905001 -6.698501 -9.767 -4.928 0 -2.4265 -4.1435 -3.5345 -5.804 -4.655 -5.443501 -4.286 -5.5715 -9.067 -6.099501 -5.382 -4.879 
-8.613 -7.789001 -6.875 -8.751501 -12.5335 -9.767 -6.160001 -4.739 -7.023 -8.599501 -9.908001 -14.134 -12.057 -12.091 -9.767 -4.928 -2.4265 -4.1435 -4.755 -5.8595 -5.8935 -8.768001 -5.9465 -6.860001 -11.227 -10.427 -10.3605 -5.382 
-9.495 -11.5636 -8.862 -15.2699 -12.5335 -11.0208 -8.340501 -7.023 -8.764501 -13.6439 -15.1676 -15.086 -16.7426 -12.4986 -9.767 -7.848001 -4.1435 -4.755 -8.021501 -5.906 -10.2645 -9.182501 -8.763 -12.7317 -12.587 -15.1038 -10.3605 
-13.3618 -13.5506 -15.442 -15.2699 -13.7873 -13.2013 -10.9515 -8.764501 -14.2275 -18.9035 -16.1196 -21.2051 -16.7426 -12.4986 -12.7088 -9.3915 -4.755 -8.021501 -8.864 -10.273 -10.5625 -12.2814 -14.7971 -14.0917 -17.2638 -15.1038 
