-4.759 
n/a 
n/a 
n/a 
n/a 
-4.759 
n/a 
n/a 
n/a 
n/a 
-4.759 
n/a 
n/a 
n/a 
n/a 
-4.759 
n/a 
n/a 
n/a 
n/a 
-4.278 -3.43 -3.3715 -3.9585 -4.86 
-8.48 -6.2845 -7.784 -8.997001 
-12.0443 -11.1784 -12.7575 
-16.9382 -16.1519 
-21.9117 
-4.278 -2.229 -3.17 -1.7565 -4.267 -4.1665 -1.7695 -3.737 0 
-6.414001 -4.5735 -4.179 -5.8735 -7.3035 -5.599 -5.321 -3.737 
-9.127501 -7.174 -9.923 -8.338 -8.477 -9.859 -5.321 
-11.9438 -13.0968 -12.3875 -9.6245 -12.955 -9.859 
-17.8666 -15.5613 -13.674 -14.1655 -12.955 
-4.278 -4.6205 -2.645 -1.756 -2.645 -3.9115 
-9.684501 -6.7345 -4.776 -3.898 -7.163 
-11.8607 -8.658501 -5.009 -8.2495 
-13.7847 -8.83 -9.241 
-13.9562 -13.1086 
-4.1145 -6.653 -2.356 -5.43 -3.074 -3.6705 
-8.133 -9.6125 -7.7615 -8.568001 -6.1185 
-11.6771 -15.2248 -11.1517 -11.8923 
-17.2894 -18.615 -14.476 
-20.6796 -21.9393 
