-4.759 
n/a 
n/a 
n/a 
n/a 
-4.759 
n/a 
n/a 
n/a 
n/a 
-4.759 
n/a 
n/a 
n/a 
n/a 
-4.759 
n/a 
n/a 
n/a 
n/a 
-6.923 -8.8015 -1.756 -11.0235 -4.1205 -2.3335 -2.3615 -6.2055 -2.7415 -3.8755 -2.3345 -4.6105 -4.4205 -3.158 0 
-16.4669 -10.884 -13.7881 -15.7634 -5.9915 -4.2805 -10.0545 -9.058001 -5.065001 -4.4955 -6.3745 -8.708 -7.408501 -3.158 
-18.5494 -22.9161 -18.528 -17.6344 -7.4305 -12.3193 -12.907 -11.5067 -5.7145 -9.047001 -11.6685 -12.5527 -7.408501 
-30.5815 -27.656 -20.399 -19.0734 -15.6685 -15.1718 -15.3557 -12.1562 -9.9245 -14.3285 -15.7217 -12.7597 
-35.3214 -29.527 -21.838 -27.3114 -18.521 -17.6205 -16.0052 -17.0752 -16.0753 -18.3115 -15.7217 
-9.237 -6.3345 0 -12.16972 -5.0475 -2.3335 -2.3615 -3.768 -2.489 -3.881 -1.934 -4.4205 -5.804 0 
-10.31 -6.3345 -12.16972 -17.21722 -6.0085 -4.2805 -5.3965 -4.333 -5.4125 -5.05 -7.366 -8.585501 -4.165 
-10.31 -19.50482 -17.21722 -18.17822 -7.449 -6.6235 -5.7595 -7.5745 -6.1895 -10.2865 -9.8255 -7.9325 
-23.48032 -24.55232 -18.17822 -19.61872 -10.047 -6.955501 -9.3075 -8.4205 -11.9648 -12.265 -9.344501 
-28.52782 -25.51332 -19.61872 -22.21672 -10.4995 -9.745501 -10.5135 -14.403 -13.9433 -12.265 
-1.934 -6.142 -4.4205 -3.5185 -1.4985 -3.452 -2.3345 -10.9935 -9.633 0 -12.16972 
-7.8755 -9.7675 -9.197001 -4.9765 -4.4485 -5.3825 -13.6586 -20.6265 -9.633 -12.16972 
-13.2955 -15.7278 -10.587 -8.1455 -6.509 -17.5288 -23.2916 -20.6265 -21.95712 
-18.706 -17.1178 -13.756 -10.543 -18.9743 -27.1618 -23.2916 -32.95062 
-20.096 -20.2868 -16.1535 -23.0083 -28.6073 -27.1618 -35.61572 
-3.9345 -1.7695 -9.237 -7.815001 -2.3615 -3.452 -2.7415 -3.881 -1.934 -4.4205 -4.4175 
-3.94 -11.9887 -17.245 -10.8215 -4.5465 -5.778 -5.344501 -5.05 -7.366 -7.7205 
-14.76 -19.9967 -20.2515 -13.0065 -6.311 -6.910501 -6.251 -10.2865 -9.177 
-22.768 -23.0032 -22.4365 -14.771 -7.2735 -7.7565 -11.8653 -12.0975 
-25.7745 -25.1882 -24.201 -15.7335 -8.1885 -13.6962 -13.6763 
