-4.759 
n/a 
n/a 
n/a 
n/a 
-4.759 
n/a 
n/a 
n/a 
n/a 
-4.759 
n/a 
n/a 
n/a 
n/a 
-4.759 
n/a 
n/a 
n/a 
n/a 
-3.2615 -5.3765 -6.899 -4.0085 -3.9665 -3.152 -3.557 
-8.5705 -12.9395 -10.622 -5.933 -7.1105 -5.1785 
-16.3981 -16.6625 -12.5465 -8.389501 -9.5375 
-20.1211 -18.587 -15.003 -10.9281 
-22.0456 -21.0435 -17.5416 
-3.2615 0 -6.899 -4.0085 -3.6215 -2.7415 -4.196 
-3.2615 -6.899 -10.622 -5.2395 -6.281 -5.228 
-10.7175 -10.622 -11.853 -7.408 -7.7625 
-14.4405 -11.853 -14.0215 -9.161 
-15.6715 -14.0215 -15.7745 
-3.2615 -1.934 -5.3765 0 -1.4985 -10.036 -2.229 -4.0085 -3.6215 -3.152 -3.8755 -2.5045 -1.8085 -3.918 -3.2795 0 
-6.456 -6.633 -5.3765 -1.4985 -11.1415 -12.265 -6.353 -5.2395 -7.021 -5.6875 -5.988501 -3.3625 -7.054501 -7.660501 -3.2795 
-10.66 -6.633 -7.172 -11.1415 -13.3705 -16.389 -7.499 -8.0495 -9.822001 -7.3435 -6.3615 -8.8725 -9.747001 -7.660501 
-10.66 -7.663501 -17.1258 -13.3705 -17.4945 -17.535 -10.1725 -11.0683 -11.5444 -7.844501 -12.5133 -11.7766 -9.747001 
-11.6905 -17.7239 -19.3548 -17.4945 -18.6405 -20.2085 -13.1913 -12.7907 -12.0454 -14.3499 -15.4174 -11.7766 
-3.882 -1.934 -5.3765 -6.1785 -4.0085 -3.6215 -2.7415 -4.196 0 
-5.1945 -6.633 -9.897 -9.793501 -5.2395 -6.281 -5.228 -4.196 
-9.348001 -11.7997 -14.109 -11.1381 -7.408 -7.7625 -5.228 
-14.5935 -16.0117 -15.4536 -13.3066 -9.161 -7.7625 
-18.8055 -17.3563 -17.6221 -15.0596 -9.161 
