-4.759 
n/a 
n/a 
n/a 
n/a 
-4.759 
n/a 
n/a 
n/a 
n/a 
-4.759 
n/a 
n/a 
n/a 
n/a 
-4.759 
n/a 
n/a 
n/a 
n/a 
-3.818 0 -3.5455 -1.4985 -3.676 -4.6225 -6.453 -6.403 -3.147 0 
-3.818 -3.5455 -3.91 -6.125 -8.311001 -9.484001 -11.046 -8.099501 -3.147 
-7.3655 -3.91 -8.8125 -9.252001 -13.5599 -14.2274 -12.7425 -8.099501 
-7.62 -8.8125 -10.4945 -14.3069 -18.3033 -15.9239 -12.7425 
-12.7087 -10.4945 -15.5494 -19.0503 -19.9998 -15.9239 
-3.074 0 -2.925 -5.7565 -2.5195 -4.088 -3.5455 -1.4985 -3.4975 -4.6225 0 
-3.074 -2.925 -7.5385 -6.703 -6.0615 -6.98 -3.91 -4.3125 -5.928 -4.6225 
-6.184 -7.5385 -8.3995 -9.102 -8.812 -7.1695 -6.7935 -6.0635 -5.928 
-11.0279 -8.3995 -10.9351 -12.3271 -9.023001 -9.151001 -7.29 -6.0635 
-11.8889 -10.9351 -14.1602 -12.5381 -10.661 -9.313001 -7.29 
-1.934 -3.994 -1.7695 -2.3615 -3.5455 -3.4975 -4.866 -1.4985 -4.8755 -1.7565 -4.088 -5.7565 -3.147 0 
-4.095 -4.3645 -3.736 -6.642 -7.699 -7.946501 -6.6255 -6.528501 -5.761 -5.0835 -9.477001 -8.086 -3.147 
-4.418 -5.9735 -8.209001 -10.6215 -12.9584 -9.653501 -10.647 -6.837501 -9.760501 -10.0815 -12.1409 -8.086 
-6.0085 -9.420501 -12.3423 -15.8809 -14.6654 -13.864 -10.755 -10.749 -14.8801 -13.2066 -12.1409 
-9.4215 -13.62 -17.6017 -17.5879 -18.8759 -13.972 -14.6665 -15.8686 -18.0052 -13.2066 
-1.756 -2.5045 -1.4985 -2.95 -1.7565 -3.4975 -4.1285 0 -3.1495 -4.065 -3.1385 -5.7565 -3.147 0 
-4.604 -3.1915 -3.9285 -4.3785 -4.91 -8.789001 -4.1285 -3.1495 -7.817 -6.6145 -7.9635 -8.086 -3.147 
-5.134 -4.5155 -4.676 -8.554001 -10.6215 -8.789001 -7.539 -7.817 -9.7775 -11.8525 -9.715501 -8.086 
-6.484 -4.837 -9.0795 -14.6071 -10.6215 -12.3669 -12.4995 -9.7775 -15.0893 -13.6045 -9.715501 
-6.847 -9.507501 -15.3028 -14.6071 -14.1994 -17.3274 -14.46 -15.0893 -16.8413 -13.6045 
