-4.759 
n/a 
n/a 
n/a 
n/a 
-4.759 
n/a 
n/a 
n/a 
n/a 
-4.759 
n/a 
n/a 
n/a 
n/a 
-4.759 
n/a 
n/a 
n/a 
n/a 
-3.3715 -3.1385 -4.3845 -4.3105 -3.6085 0 
-4.712501 -6.563001 -8.364 -7.291 -3.6085 
-8.054001 -10.8173 -9.885 -7.291 
-12.8139 -12.3383 -9.885 
-14.3349 -12.3383 
-3.17 -1.7565 -3.277 -4.3845 -3.8655 -3.6085 0 
-4.179 -4.25 -6.9915 -9.592501 -6.118 -3.6085 
-5.4445 -7.6045 -12.4461 -12.121 -6.118 
-8.3625 -13.6327 -14.9746 -12.121 
-14.5803 -16.1612 -14.9746 
-3.17 -1.7565 -1.4985 -4.9225 -4.4615 -4.3105 -3.6085 
-4.179 -2.4195 -6.040501 -8.665 -8.901001 -7.291 
-4.497 -6.704 -9.368501 -13.3619 -10.674 
-8.641 -9.522 -14.424 -15.1349 
-11.6574 -14.7133 -16.197 
-4.4715 -5.6025 -2.742 -4.3845 -3.6085 
-9.355 -7.454 -5.9635 -5.8455 
-11.3499 -11.1857 -8.447001 
-15.0816 -13.6692 
-17.5651 
