-4.759 
n/a 
n/a 
n/a 
n/a 
-4.759 
n/a 
n/a 
n/a 
n/a 
-4.759 
n/a 
n/a 
n/a 
n/a 
-4.759 
n/a 
n/a 
n/a 
n/a 
-1.934 -3.5195 -3.06 -1.4985 -9.385501 -4.091 -3.6825 -1.7565 -5.984 -7.151 -3.9955 -1.4985 -4.756 -4.698 -4.519 -2.356 -1.8085 -3.299 -4.4285 0 
-5.009 -5.551001 -5.47 -11.117 -11.117 -8.048 -5.4015 -7.971001 -14.1364 -12.3135 -5.0175 -6.743501 -8.6705 -7.1545 -6.9745 -3.4075 -4.4725 -8.381001 -4.4285 
-7.8765 -8.095501 -15.2805 -12.8485 -15.074 -9.299001 -12.5706 -16.4698 -19.2989 -13.3355 -10.494 -9.320001 -11.345 -8.574501 -7.9655 -5.5725 -8.650001 -8.381001 
-11.0128 -18.0454 -17.012 -16.8055 -16.325 -17.0767 -21.0694 -21.6323 -20.3209 -18.812 -13.0705 -12.0747 -12.765 -10.553 -9.878 -9.896501 -8.650001 
-20.9627 -19.7769 -20.969 -18.0565 -24.1027 -25.5755 -26.2319 -22.6543 -25.7974 -21.3885 -15.8252 -13.4947 -14.7435 -12.4655 -14.4812 -9.896501 
-3.5195 -3.06 -7.5005 -7.151 -11.0235 -4.091 -3.6825 -3.9955 -4.756 -4.519 -2.356 -4.4285 0 
-5.551001 -11.1753 -15.1345 -19.3415 -15.1145 -8.048 -7.0905 -10.259 -8.7745 -6.9745 -7.2705 -4.4285 
-14.9991 -18.8093 -27.325 -23.4325 -19.0715 -10.411 -13.621 -14.4361 -11.4642 -9.5385 -7.2705 
-22.6331 -30.9998 -31.416 -27.3895 -21.4345 -16.9415 -17.7981 -17.1258 -14.0282 -9.5385 
-34.8236 -35.0908 -35.373 -29.7525 -27.965 -21.1186 -20.4878 -19.6898 -14.0282 
-3.5195 -3.06 -9.862 -6.892 -1.756 -3.091 -3.6825 -4.091 -3.6825 -1.934 -4.756 -5.133 -4.219 -3.9955 -1.4985 -4.219 -2.356 -4.4285 
-5.551001 -13.5368 -17.0586 -8.1875 -4.2995 -6.0125 -8.517 -8.048 -5.357 -5.978 -8.639 -6.7745 -7.873501 -5.0175 -5.129 -6.673501 -7.2705 
-17.3606 -20.7334 -18.3541 -11.3206 -6.877 -11.7148 -13.2118 -9.609501 -8.995001 -9.3905 -10.0515 -10.1595 -9.536 -6.9585 -7.4495 -9.995501 
-24.5572 -22.0289 -21.4872 -13.8981 -12.7143 -16.4096 -14.7733 -13.5951 -12.6839 -11.9728 -13.6333 -12.0874 -11.477 -8.334001 -10.7495 
-25.8527 -25.162 -24.0647 -19.7354 -17.4091 -17.9711 -18.7589 -17.284 -15.2662 -15.5546 -15.5612 -14.0284 -12.8525 -10.7595 
-3.5195 -3.06 0 -1.934 -4.756 -6.2625 -7.151 -2.229 -9.385501 -4.091 -3.7555 -4.4285 -4.1855 -1.756 -3.9955 -1.4985 -4.219 0 
-5.551001 -3.06 -1.934 -5.978 -10.082 -11.046 -9.918001 -12.2095 -11.117 -8.1045 -9.0865 -7.7095 -6.14 -5.542 -5.0175 -5.129 -4.219 
-5.551001 -5.641 -5.978 -11.2912 -15.2637 -13.813 -19.8985 -13.941 -15.1305 -13.8465 -10.443 -9.252501 -8.7895 -6.404 -6.9585 -5.129 
-8.5825 -9.928 -11.2912 -16.4729 -18.0307 -23.7935 -21.63 -17.9545 -20.8725 -15.203 -11.986 -11.937 -9.452001 -8.585 -6.9585 
-13.0623 -15.306 -16.4729 -19.2399 -28.0112 -25.525 -25.6435 -23.6965 -22.229 -16.746 -14.6705 -12.5995 -10.14 -8.585 
