-4.759 
n/a 
n/a 
n/a 
n/a 
-4.759 
n/a 
n/a 
n/a 
n/a 
-4.759 
n/a 
n/a 
n/a 
n/a 
-4.759 
n/a 
n/a 
n/a 
n/a 
-3.524 0 -5.418 -3.3365 -4.4515 -3.193 
-3.524 -5.418 -9.259501 -5.861 -7.463 
-10.9075 -9.259501 -12.4134 -7.817 
-14.749 -12.4134 -14.3694 
-17.9029 -14.3694 
-3.524 -6.585001 -3.3365 -4.4515 -3.193 0 0 
-10.6345 -10.841 -5.861 -7.463 -3.193 0 
-15.7713 -13.3655 -7.817 -7.463 -3.193 
-18.2958 -15.3215 -7.817 -7.463 
-20.2518 -15.3215 -7.817 
-3.524 0 -6.3865 -10.5895 -3.193 
-3.524 -6.3865 -17.5704 -13.7825 
-10.9075 -17.5704 -20.7634 
-22.0914 -20.7634 
-25.2844 
-3.524 -6.3865 -3.3365 -4.4515 -3.193 0 0 
-10.9075 -9.675 -5.861 -7.463 -3.193 0 
-14.196 -9.7335 -7.817 -7.463 -3.193 
-14.2545 -12.8807 -7.817 -7.463 
-17.4017 -12.8807 -7.817 
