-4.759 
n/a 
n/a 
n/a 
n/a 
-4.759 
n/a 
n/a 
n/a 
n/a 
-4.759 
n/a 
n/a 
n/a 
n/a 
-4.759 
n/a 
n/a 
n/a 
n/a 
-3.524 -2.5645 0 -4.8345 -4.766 -5.407 -5.622 -3.518 -4.548 -1.934 -4.147 -3.892 -1.7565 -12.327 -4.1355 -4.493 -3.916 -3.1385 0 
-5.5775 -2.5645 -4.8345 -7.526501 -9.264501 -10.4825 -9.8655 -8.42 -5.3885 -6.249 -6.537001 -5.131001 -16.0155 -17.9015 -8.871 -8.616501 -7.1905 -3.1385 
-5.5775 -7.357 -7.526501 -9.738501 -14.5345 -14.3997 -14.9081 -9.078001 -9.758501 -9.0775 -7.5705 -20.038 -20.344 -23.0594 -13.4045 -9.249001 -7.1905 
-10.622 -10.361 -9.389001 -15.3335 -19.666 -19.6631 -15.5661 -13.4132 -12.5188 -9.5635 -23.0769 -24.3665 -25.5019 -27.5929 -14.037 -9.249001 
-13.626 -13.4309 -15.6991 -20.3666 -24.7086 -20.3211 -19.9013 -16.1735 -13.0048 -25.8069 -27.4054 -29.5244 -30.0354 -28.2254 -14.037 
-3.524 0 -2.5645 0 -3.916 -4.424 -1.934 -9.9495 -1.4985 -4.1355 -1.7565 -3.8005 -3.851 -1.7695 -5.407 -8.611501 -4.8345 
-3.524 -2.5645 -2.5645 -3.916 -8.1365 -5.195 -12.8899 -11.695 -5.2415 -6.009501 -5.0365 -7.556 -4.0015 -6.7445 -13.256 -13.7184 
-5.5775 -2.5645 -5.938 -8.1365 -9.012 -17.1281 -14.6354 -15.438 -6.321001 -8.523001 -8.219501 -7.6155 -10.289 -16.1754 -18.8393 
-5.5775 -5.938 -10.5507 -9.012 -21.1061 -18.8736 -18.3784 -16.5175 -8.736001 -11.9812 -8.229 -14.0663 -19.7238 -21.6957 
-10.451 -10.5507 -11.4262 -21.1061 -22.8516 -22.6166 -19.4579 -18.9325 -12.3006 -11.9907 -15.3096 -23.8676 -24.9587 
-3.524 -2.5645 0 -1.8085 -4.144 -1.7565 -3.916 -3.1385 -3.152 -4.493 -3.034 -1.8085 -5.407 -5.0495 -4.8345 -4.0865 -1.4985 -4.147 -5.9735 -3.8005 -1.934 -8.0085 0 
-5.5775 -2.5645 -1.8085 -4.7955 -5.067 -5.886001 -7.1905 -5.219 -5.593 -6.351 -4.4665 -6.6655 -9.454 -6.607 -6.996 -4.9425 -5.27 -9.114 -8.435 -5.8035 -10.1635 -8.0085 
-5.5775 -4.8325 -4.7955 -5.159 -8.0645 -7.806001 -8.738 -6.315001 -7.038001 -7.071 -10.1425 -10.805 -8.9355 -7.729501 -7.804 -8.5705 -9.803 -11.9371 -9.901001 -14.8348 -10.1635 
-8.385 -8.028 -5.159 -8.129001 -10.4913 -10.335 -9.166 -7.686 -7.605501 -12.385 -12.3005 -9.4165 -10.037 -8.550501 -12.1348 -13.3153 -13.2161 -13.4031 -19.3397 -14.8348 
-11.8307 -8.2075 -8.129001 -10.6126 -13.0203 -10.763 -10.543 -8.064 -13.0559 -13.083 -10.917 -9.943001 -10.334 -13.1991 -16.8796 -16.7284 -14.6821 -22.8418 -19.3397 
-3.524 -4.4985 -3.8005 -4.1355 -12.16972 -3.916 -4.9225 -4.493 -3.851 -1.7695 -3.995 -5.2425 -3.1435 -5.407 
-8.033001 -7.889501 -7.7025 -17.65142 -16.08572 -9.7605 -9.554001 -7.631001 -4.0015 -5.497 -7.2275 -9.1215 -8.7205 
-11.935 -13.3355 -21.65062 -21.56742 -21.93022 -14.601 -12.7998 -7.636 -8.1755 -9.387501 -10.7175 -15.0068 
-16.9949 -27.89362 -25.56662 -27.41192 -26.77072 -17.8468 -12.8048 -12.1406 -10.134 -12.9951 -16.6028 
-31.40622 -31.80962 -31.41112 -32.25242 -30.01652 -17.8518 -17.3094 -14.0991 -13.7416 -18.8804 
