-4.759 
n/a 
n/a 
n/a 
n/a 
-4.759 
n/a 
n/a 
n/a 
n/a 
-4.759 
n/a 
n/a 
n/a 
n/a 
-4.759 
n/a 
n/a 
n/a 
n/a 
-1.934 -1.4985 -3.8385 -1.7565 -5.667 -7.296 -5.3255 -1.756 -7.229001 0 -3.2825 -4.3665 -10.105 -3.3035 
-2.6125 -4.778501 -4.716001 -8.013 -13.9944 -13.4169 -6.976501 -8.8265 -7.229001 -3.2825 -8.491501 -15.8039 -13.6773 
-5.856501 -5.202 -11.7971 -16.6992 -20.1153 -15.0679 -14.5808 -8.8265 -11.1355 -8.491501 -20.2823 -19.3762 
-7.006001 -12.5257 -20.4833 -22.8201 -21.7663 -22.6722 -14.5808 -12.9526 -16.3445 -20.2823 -23.8546 
-14.7651 -21.2119 -26.6042 -24.4711 -29.3706 -22.6722 -18.7069 -18.1616 -28.1353 -23.8546 
-4.426 -1.7565 -1.4985 -3.0835 -4.7285 -4.1555 -11.1815 -8.305 -5.3255 -1.756 -7.229001 -3.8385 -4.267 -6.1275 -4.3665 -6.1275 -2.186 -4.972 
-5.47 -2.4195 -3.535 -6.042 -8.4455 -14.6527 -21.0145 -14.1071 -6.976501 -8.8265 -11.7877 -7.992001 -11.5921 -11.0145 -11.8264 -7.842 -5.988 
-5.9535 -4.6785 -6.335501 -9.523001 -18.5652 -23.7785 -26.8166 -15.7581 -14.5808 -13.6048 -15.9412 -15.6409 -16.4791 -18.4744 -13.5409 -11.9344 
-8.021 -7.476501 -10.0095 -19.7272 -27.55 -29.5806 -28.4676 -23.3624 -19.3591 -17.7583 -23.5901 -20.5279 -23.939 -20.1889 -17.6333 
-9.983001 -11.3061 -20.3237 -28.712 -33.3521 -31.2316 -36.0719 -28.1407 -23.5126 -25.4072 -28.4771 -27.9878 -25.6535 -24.2813 
-4.426 -1.7565 -1.4985 -3.0835 -4.7285 -4.1555 -3.147 0 
-5.47 -2.4195 -3.535 -6.042 -8.4455 -5.77 -3.147 
-5.9535 -4.6785 -6.335501 -9.523001 -9.541501 -5.77 
-8.021 -7.476501 -10.0095 -10.7035 -9.541501 
-9.983001 -11.3061 -11.3 -10.7035 
-4.8435 -8.1755 -5.3255 -1.756 -5.8865 -4.877 -5.0745 -4.53 -5.711 0 -3.9535 -3.0835 -3.4975 -5.294 -3.307 
-14.0182 -13.9886 -6.976501 -8.2495 -10.443 -11.0785 -9.2305 -10.884 -5.711 -3.9535 -6.910501 -5.910501 -6.7815 -9.2145 
-19.8313 -15.6396 -14.0038 -13.02 -16.8499 -15.2345 -16.2261 -10.884 -9.5915 -6.910501 -10.6095 -10.0265 -12.578 
-21.4823 -22.6669 -18.7743 -19.4269 -21.0059 -22.2301 -16.2261 -14.7645 -12.7811 -10.6095 -14.7255 -15.823 
-28.5096 -27.4374 -25.1812 -23.5829 -28.0015 -22.2301 -20.1066 -17.9541 -16.4801 -14.7255 -20.522 
