-4.759 
n/a 
n/a 
n/a 
n/a 
-4.759 
n/a 
n/a 
n/a 
n/a 
-4.759 
n/a 
n/a 
n/a 
n/a 
-4.759 
n/a 
n/a 
n/a 
n/a 
-2.688 -4.6065 -2.7415 -3.5795 -2.688 -5.029 -2.186 -4.09 
-7.281001 -7.142 -8.057 -6.2325 -7.462 -6.561 -5.6995 
-9.734501 -12.8619 -11.301 -11.3205 -9.4245 -10.4425 
-15.5458 -16.1059 -16.389 -13.283 -13.3876 
-18.7898 -21.1939 -18.3515 -17.2461 
-2.688 -5.154 -2.186 -4.881 -2.688 -5.029 
-7.8455 -7.061501 -6.005 -8.569 -7.462 
-9.989 -11.1643 -10.688 -13.6182 
-14.1692 -15.8473 -15.7372 
-18.8522 -20.8965 
-2.688 -4.579 -1.934 -4.245 -2.688 -5.029 -2.7415 -4.09 
-6.393001 -5.7395 -5.934 -7.034 -7.462 -6.987 -5.289001 
-7.034 -9.444 -8.9685 -12.754 -9.911 -10.4115 
-10.298 -12.5349 -15.0139 -15.203 -13.4217 
-13.3889 -18.5803 -17.4629 -18.7137 
-2.4265 -3.7555 -2.688 -4.606 -2.5045 -2.688 -5.029 
-5.6305 -6.409 -7.449501 -6.450001 -4.7545 -7.462 
-8.883501 -11.8663 -9.475 -9.4685 -10.3383 
-14.6438 -13.8918 -12.5937 -15.2781 
-16.6693 -17.0105 -18.4033 
