-4.759 
n/a 
n/a 
n/a 
n/a 
-4.759 
n/a 
n/a 
n/a 
n/a 
-4.759 
n/a 
n/a 
n/a 
n/a 
-4.759 
n/a 
n/a 
n/a 
n/a 
-3.5715 -3.13 0 -5.052 -7.4255 0 -3.757 -1.7565 -4.897 0 -3.002 0 
-5.561 -3.13 -5.052 -7.925 -7.4255 -3.757 -4.5665 -6.5365 -4.897 -3.002 -3.002 
-5.561 -8.745501 -7.925 -7.925 -9.3065 -4.5665 -8.210501 -6.5365 -8.856501 -3.002 
-12.2297 -11.7997 -7.925 -9.555 -9.481501 -8.210501 -8.210501 -9.636001 -8.856501 
-15.2839 -11.7997 -9.555 -9.742001 -9.650001 -8.210501 -11.735 -9.636001 
-3.5715 -8.484501 -12.16972 0 -9.947001 -3.757 0 -3.002 
-11.1845 -21.78202 -12.16972 -9.947001 -13.9034 -3.757 -3.002 
-25.37762 -21.89342 -22.11672 -13.9034 -13.9034 -7.236 
-25.37762 -31.84042 -26.07312 -13.9034 -17.3824 
-35.32462 -35.79682 -26.07312 -17.3824 
-3.5715 -3.13 -5.3545 -12.16972 0 -3.757 -1.7565 -4.897 0 -3.002 0 
-5.561 -8.7535 -18.38302 -12.16972 -3.757 -4.5665 -6.5365 -4.897 -3.002 -3.002 
-12.2377 -21.89342 -18.38302 -15.92672 -4.5665 -8.210501 -6.5365 -8.856501 -3.002 
-25.37762 -21.89342 -22.14002 -16.73622 -8.210501 -8.210501 -9.636001 -8.856501 
-25.37762 -25.65042 -22.94952 -20.38022 -8.210501 -11.735 -9.636001 
-3.5715 -8.484501 -12.16972 0 -4.897 -2.229 -3.757 0 -3.0015 0 
-11.1845 -21.78202 -12.16972 -4.897 -6.962 -5.521 -3.757 -3.0015 -3.0015 
-25.37762 -21.89342 -17.06672 -6.962 -8.427 -5.521 -7.259501 -3.0015 
-25.37762 -26.79042 -19.13172 -8.427 -8.427 -9.505 -7.259501 
-30.27462 -28.85542 -20.59672 -8.427 -13.3422 -9.505 
