-4.759 
n/a 
n/a 
n/a 
n/a 
-4.759 
n/a 
n/a 
n/a 
n/a 
-4.759 
n/a 
n/a 
n/a 
n/a 
-4.759 
n/a 
n/a 
n/a 
n/a 
-3.8245 -4.394 -3.013 -5.651501 -4.4885 -1.934 -2.985 -3.7435 0 -2.847 -2.871 -3.581 -5.651501 -4.4885 0 
-7.2105 -7.669 -8.529501 -8.212001 -6.7965 -4.111 -6.1415 -3.7435 -2.847 -4.4675 -7.4945 -8.243 -8.212001 -4.4885 
-10.292 -13.0219 -12.657 -12.4455 -8.948 -7.2135 -6.1415 -6.856 -4.4675 -9.4835 -10.969 -12.9995 -9.750501 
-15.7849 -18.1528 -15.6076 -15.052 -12.2297 -7.2135 -8.738001 -8.215 -9.4835 -11.4485 -15.2472 -13.0527 
-20.9158 -20.873 -18.1889 -18.3337 -12.2297 -9.132501 -9.443501 -13.4406 -11.4485 -16.6756 -15.5206 
-2.6165 -3.956 -2.264 -4.394 -3.098 -3.956 -2.264 -2.8705 -3.7435 
-7.245501 -6.048 -6.949 -7.8745 -7.3895 -6.048 -4.38 -6.1775 
-9.6055 -11.5428 -11.2005 -12.5486 -9.8765 -8.351 -7.8915 
-15.3151 -15.7943 -15.8746 -15.0356 -12.3509 -12.3215 
-19.5666 -20.4684 -18.3616 -17.51 -16.3214 
-4.5275 -1.4985 -4.394 -1.934 -2.985 -4.603 -2.7765 -4.4885 -3.9555 0 -4.3055 -2.7765 -3.9555 -4.4885 -1.4985 -4.394 
-5.456 -5.2805 -6.2575 -4.111 -5.863 -6.9715 -6.081 -6.9675 -3.9555 -4.3055 -5.973 -5.487 -8.548 -5.5175 -5.2805 
-9.434501 -7.048 -8.4835 -7.0005 -8.0325 -10.6512 -8.476501 -6.9675 -7.5425 -5.973 -8.148001 -9.453501 -9.725 -8.0915 
-11.6572 -9.429 -11.5548 -8.9975 -12.0426 -13.0467 -8.476501 -9.669001 -9.3325 -8.148001 -12.3641 -10.3295 -12.3644 
-14.0382 -12.5003 -13.5518 -13.5292 -14.4381 -13.0467 -11.4476 -11.5832 -10.4955 -12.3641 -13.2401 -12.9689 
-4.394 -5.2275 -4.4885 -3.9555 0 -2.847 -2.871 -4.9045 -4.4885 -1.4985 -4.394 0 
-9.948 -8.038 -6.9675 -3.9555 -2.847 -4.4675 -7.79 -7.8775 -5.5175 -5.2805 -4.394 
-12.8827 -9.5935 -6.9675 -7.011 -4.4675 -9.124001 -11.0256 -8.8135 -8.0915 -5.2805 
-14.4382 -9.5935 -9.328501 -8.031 -9.124001 -12.483 -11.9616 -11.6635 -8.0915 
-14.4382 -12.1025 -10.61 -12.8645 -12.483 -13.419 -14.8116 -11.6635 
