-4.759 
n/a 
n/a 
n/a 
n/a 
-4.759 
n/a 
n/a 
n/a 
n/a 
-4.759 
n/a 
n/a 
n/a 
n/a 
-4.759 
n/a 
n/a 
n/a 
n/a 
-4.426 -1.7565 -1.4985 -3.6115 -4.7285 -4.1555 -6.815001 -1.7565 -5.675 -3.5025 -2.186 -12.16972 0 -12.16972 -1.756 -3.5025 -5.7035 0 
-5.47 -2.4195 -4.081 -6.5495 -8.4455 -10.0435 -8.413 -7.690501 -10.7495 -5.481 -15.56612 -12.16972 -12.16972 -13.92572 -5.1565 -10.451 -5.7035 
-5.9535 -5.180501 -6.670501 -9.978001 -12.846 -10.4455 -15.2489 -13.1424 -12.728 -19.68272 -15.56612 -24.33944 -13.92572 -17.32622 -12.7836 -10.451 
-8.462501 -7.797 -10.054 -14.3569 -14.5806 -17.1771 -20.6114 -15.1209 -26.92972 -19.68272 -27.73584 -26.09544 -17.32622 -24.95332 -12.7836 
-10.2375 -11.2985 -14.4693 -16.0915 -20.9486 -22.629 -22.5899 -29.32262 -26.92972 -31.85244 -29.49184 -29.49594 -24.95332 -24.95332 
-4.1145 -2.9825 -4.224 -4.278 0 -12.16972 0 -2.5045 -2.925 -2.4945 -3.699 -3.609 0 
-6.861 -7.3735 -9.056 -4.278 -12.16972 -12.16972 -2.5045 -4.3205 -3.7675 -5.304 -7.074 -3.609 
-11.873 -12.6951 -9.056 -17.71032 -12.16972 -14.67422 -4.3205 -5.143 -6.744501 -8.731501 -7.074 
-17.1946 -12.6951 -22.58772 -17.71032 -14.67422 -16.49022 -5.143 -8.3595 -10.107 -8.731501 
-17.1946 -26.22682 -22.58772 -20.21482 -16.49022 -17.31272 -8.3595 -11.9078 -10.107 
-4.1145 -3.5025 -3.64 -3.668 -4.278 0 -8.356 -3.5025 0 
-8.087 -6.98 -7.6085 -8.2985 -4.278 -8.356 -12.5441 -3.5025 
-12.0469 -11.5917 -12.6886 -8.2985 -13.8966 -12.5441 -12.5441 
-16.6586 -16.6718 -12.6886 -18.1305 -18.0847 -12.5441 
-21.7387 -16.6718 -22.5206 -22.3186 -18.0847 
-2.7295 -2.7765 -4.603 -1.4985 -4.278 -1.756 -8.356 -2.5045 -3.668 -2.0935 -3.4605 -4.1145 0 
-4.065 -7.176001 -5.4685 -6.1565 -6.202001 -10.907 -11.5461 -6.705 -5.612 -6.143 -7.4165 -4.1145 
-7.7305 -7.948501 -10.123 -8.336 -16.5168 -14.0971 -15.7466 -8.094501 -9.854501 -10.123 -7.4165 
-8.317 -12.7154 -12.3025 -18.5016 -19.7069 -18.2976 -17.1361 -12.623 -14.0425 -10.123 
-13.1293 -14.8949 -22.4681 -21.6917 -23.9074 -19.6871 -21.6646 -16.811 -14.0425 
