-4.759 
n/a 
n/a 
n/a 
n/a 
-4.759 
n/a 
n/a 
n/a 
n/a 
-4.759 
n/a 
n/a 
n/a 
n/a 
-4.759 
n/a 
n/a 
n/a 
n/a 
-2.5685 -1.7565 -3.1385 -1.756 -4.584 -3.326 -1.7695 -4.0545 
-3.887 -4.388 -4.6325 -5.9115 -7.954 -5.483 -4.4685 
-8.183001 -5.6715 -10.564 -9.214001 -10.6215 -7.063 
-10.0815 -12.0854 -13.8665 -12.1185 -12.2015 
-16.4954 -15.3879 -16.771 -13.6985 
-2.3345 -2.3615 -2.7295 -2.7765 -3.6845 -1.4985 -4.225 0 -8.593 -3.4095 -3.2615 -5.463 -1.4985 -4.928 -3.2615 -3.4735 -2.3345 -1.4985 -4.4965 
-4.499 -5.3895 -4.065 -5.2495 -4.8155 -4.7995 -4.225 -8.593 -12.4121 -7.237 -7.137 -6.106 -6.494 -8.4575 -8.35 -5.649 -3.233 -5.4095 
-7.136 -6.649 -6.3195 -6.594501 -7.373 -4.7995 -13.793 -12.4121 -16.2396 -11.6169 -7.6365 -11.9765 -9.660501 -13.8242 -9.653 -7.1695 -6.504 
-8.6 -8.9755 -7.672 -9.113001 -7.373 -15.0087 -17.6121 -16.2396 -20.6195 -12.1164 -13.7512 -15.143 -15.1104 -15.1272 -10.021 -9.387001 
-11.1283 -9.992001 -10.3885 -9.113001 -17.8802 -18.8278 -21.4396 -20.6195 -21.119 -18.2311 -16.9177 -20.5929 -16.4134 -15.4952 -12.2385 
-1.934 -3.345 -4.468 0 -3.2345 -1.4985 -3.326 -2.4265 -1.7695 -2.489 -4.0545 -4.7055 -4.346 -4.3465 -1.4985 -3.4095 
-4.618 -8.869 -4.468 -3.2345 -4.328 -4.841001 -5.732 -4.11 -3.1405 -8.035001 -8.322001 -8.9195 -9.185 -5.372001 -5.0055 
-10.6524 -8.869 -7.744 -4.328 -8.037001 -7.4425 -8.781501 -5.19 -8.6085 -12.6325 -12.8148 -14.0331 -10.1435 -9.4875 
-10.6524 -12.246 -8.897501 -8.037001 -10.9511 -10.765 -10.1595 -10.553 -13.2366 -17.1253 -17.9284 -14.9916 -14.259 
-14.0294 -13.3995 -12.8597 -10.9511 -14.2736 -12.143 -15.9727 -15.1811 -17.7294 -22.2389 -18.8869 -19.1071 
-2.4265 -2.186 -1.4985 -3.4165 -4.77 -3.1385 0 -3.326 -1.4985 -4.867 -1.756 -4.09 -2.3335 -1.756 -4.3065 -1.7565 -1.4985 -3.4715 -1.756 -3.6845 -1.4985 -3.991 0 
-3.292 -3.339 -5.281 -10.068 -8.705501 -3.1385 -3.326 -5.3015 -6.097 -6.517 -5.5625 -6.3585 -5.031 -5.8825 -6.163001 -2.4195 -5.325 -5.553 -5.0105 -4.8155 -5.0305 -3.991 
-4.5995 -6.438 -13.0151 -14.0035 -8.705501 -6.249001 -5.3015 -9.265 -7.551001 -11.1241 -8.5225 -9.572001 -9.793501 -7.6245 -6.6745 -6.7215 -7.1455 -8.3205 -6.147 -8.798 -5.0305 
-8.676001 -15.2093 -16.9506 -14.0035 -12.0684 -8.8465 -9.265 -11.0022 -12.2585 -14.0841 -11.7916 -14.3471 -11.6123 -8.127 -11.7021 -8.634001 -10.3405 -9.601501 -9.715 -8.798 
-17.5889 -19.1448 -16.9506 -17.3664 -14.6659 -13.0862 -11.0022 -15.7097 -15.2185 -17.3532 -16.5667 -16.1659 -12.1148 -13.324 -13.6146 -12.1898 -11.6215 -13.3305 -9.715 
