-4.759 
n/a 
n/a 
n/a 
n/a 
-4.759 
n/a 
n/a 
n/a 
n/a 
-4.759 
n/a 
n/a 
n/a 
n/a 
-4.759 
n/a 
n/a 
n/a 
n/a 
-1.934 -2.3615 -3.32 -3.0365 -2.4945 -3.6065 -4.0135 -1.7565 -4.0925 -3.074 -1.934 -2.3335 0 
-3.539 -4.3375 -6.5815 -3.688 -5.343 -5.943 -4.201 -6.3585 -7.639 -4.93 -4.359 -2.3335 
-4.8865 -7.239 -7.0445 -6.0505 -8.6035 -5.9995 -8.4195 -9.52 -9.157001 -7.2275 -4.359 
-7.7345 -7.556 -9.117001 -8.795001 -8.628501 -10.057 -11.6256 -11.2182 -11.6761 -7.2275 
-8.071 -9.304501 -12.2069 -8.815001 -12.8038 -13.3331 -13.3238 -13.7373 -11.6761 
-2.3615 -3.999 -1.7565 -3.383 -5.636 -1.7695 -3.6845 -4.0925 0 
-5.725 -4.5785 -5.5535 -8.059 -7.6705 -4.2695 -9.306001 -4.0925 
-7.258 -9.5915 -10.733 -9.201 -10.513 -10.01 -9.306001 
-12.8984 -15.3748 -11.875 -12.3855 -16.2535 -10.01 
-18.6817 -16.5168 -15.0595 -18.126 -16.2535 
-3.0365 -2.4945 -2.5685 -3.4635 -1.7695 -2.871 -3.571 0 
-3.688 -4.6335 -5.425 -4.2045 -4.5615 -5.0305 -3.571 
-6.390501 -7.26 -6.775 -6.748001 -5.7685 -5.0305 
-10.3885 -7.503 -8.745501 -7.2675 -5.7685 
-10.6315 -9.108001 -8.9785 -7.2675 
-1.934 -2.3615 -3.355 -3.0365 -4.2665 -1.8085 -4.2055 -1.7565 -3.8255 -5.3235 
-3.539 -5.107 -6.778 -8.124001 -5.306 -4.713 -4.859 -5.2035 -8.168 
-5.884 -7.9185 -12.5335 -8.599501 -10.2805 -5.7035 -6.3395 -9.310501 
-8.756001 -14.5264 -13.009 -13.539 -11.2644 -7.342 -10.1805 
-15.6873 -15.0019 -17.9485 -14.5229 -12.9029 -11.385 
