-4.759 
n/a 
n/a 
n/a 
n/a 
-4.759 
n/a 
n/a 
n/a 
n/a 
-4.759 
n/a 
n/a 
n/a 
n/a 
-4.759 
n/a 
n/a 
n/a 
n/a 
-4.725 -7.3885 -3.819 -1.756 -4.157 -3.589 -10.069 -1.756 -3.2495 -3.42 0 
-11.136 -11.8921 -5.438 -6.074 -8.7395 -13.9984 -10.784 -4.7865 -6.588 -3.42 
-15.6396 -13.5111 -10.2325 -10.5745 -19.3599 -14.7134 -13.8145 -8.080501 -6.588 
-17.2586 -18.3056 -14.733 -21.6193 -20.0749 -17.7439 -17.1085 -8.080501 
-22.0531 -22.8061 -25.7778 -22.3343 -23.1054 -21.0379 -17.1085 
-4.725 -4.3615 -2.871 -1.756 -2.871 -3.571 -2.356 -3.589 -4.082 -4.201 -1.756 -4.0825 -2.543 -8.888 -4.25 -2.4945 -3.9005 0 
-10.1305 -7.396501 -4.864 -4.514 -5.0305 -6.2175 -6.557501 -6.4185 -7.397501 -5.758 -5.59 -7.04 -11.702 -13.5968 -5.9105 -6.542 -3.9005 
-13.1655 -9.0635 -6.398 -7.066 -6.690001 -10.382 -8.305 -10.398 -10.2185 -9.521501 -8.882 -16.501 -16.4108 -15.2573 -10.523 -6.542 
-14.8325 -11.2439 -10.2805 -8.883 -11.1109 -12.3847 -12.4039 -13.219 -13.982 -13.0207 -18.4388 -21.2098 -18.0713 -19.8698 -10.523 
-17.0129 -15.1264 -12.4199 -13.5341 -13.1136 -16.4836 -15.2249 -16.9825 -17.4812 -22.5775 -23.1476 -22.8703 -22.6838 -19.8698 
-1.934 -3.6055 -4.725 -4.3615 -3.0365 -2.186 -3.589 -4.644 -3.6185 0 -2.543 -4.0275 -3.6185 -3.333 
-4.8595 -9.0135 -10.1305 -7.854501 -3.66 -6.478001 -8.710001 -7.933001 -3.6185 -2.543 -6.546 -7.635 -7.227 
-10.6875 -14.731 -13.6235 -8.394001 -8.966001 -12.1912 -12.4936 -7.933001 -6.2475 -6.546 -10.7595 -11.7813 
-16.405 -18.224 -14.163 -13.911 -14.7446 -15.9748 -12.4936 -11.0548 -9.275001 -10.7595 -14.9058 
-19.898 -18.7635 -19.68 -19.6896 -18.5282 -15.9748 -15.6154 -14.0823 -14.8413 -14.9058 
-4.725 -4.3505 -2.871 -2.3345 -2.871 -4.0825 -3.589 -4.082 -4.6545 -1.756 -2.543 -4.5905 -3.6185 -2.4945 -3.9005 
-8.934501 -7.476501 -5.35 -4.9425 -7.214001 -8.18 -6.4185 -6.5245 -6.1195 -4.855 -7.392001 -6.561 -5.6595 -6.542 
-12.1753 -9.986501 -5.8075 -9.386 -11.6789 -9.393001 -6.936501 -7.6765 -9.3555 -9.420501 -8.901501 -8.262001 -9.830001 
-14.6853 -10.0625 -9.6525 -13.9685 -12.8919 -10.4605 -8.041 -11.2041 -14.076 -10.9878 -10.9327 -12.7915 
-14.7613 -13.9075 -14.3346 -15.1815 -13.9594 -11.565 -11.6368 -15.9246 -15.6433 -13.019 -15.4622 
