-4.759 
n/a 
n/a 
n/a 
n/a 
-4.759 
n/a 
n/a 
n/a 
n/a 
-4.759 
n/a 
n/a 
n/a 
n/a 
-4.759 
n/a 
n/a 
n/a 
n/a 
-1.934 -4.71 -1.8085 -3.995 -5.2425 -2.7415 -4.4825 -1.934 -7.206 -3.433 -1.7565 -2.3335 -5.343 -4.828 -2.7415 -5.198 -9.069 
-5.951 -6.975 -7.314 -7.2275 -7.2355 -8.028501 -5.5625 -9.2495 -11.1856 -4.1845 -4.314 -7.955501 -10.1765 -7.7375 -6.292 -15.2312 
-7.7865 -12.8089 -9.436501 -9.3315 -13.3289 -8.9495 -13.5526 -13.4159 -11.9371 -6.014 -9.093 -12.9208 -13.086 -11.4454 -17.0818 
-13.8076 -14.9314 -11.6095 -15.5123 -14.2499 -16.9156 -17.719 -14.1674 -13.7666 -11.0988 -14.1161 -15.8303 -16.7939 -22.2352 
-15.9301 -17.1044 -17.7903 -16.4333 -22.216 -21.082 -18.4705 -15.9969 -18.8514 -16.1219 -17.0256 -19.5382 -27.5837 
-1.934 -4.71 -3.0365 -2.7415 -1.8085 -3.995 -6.293 -1.934 -5.0535 -1.4985 -3.995 -6.293 -3.43 -3.6135 -4.828 -1.4985 -3.6135 -4.828 -2.4945 -4.299 -12.16972 
-5.951 -7.7725 -4.2225 -3.891 -7.314 -9.123501 -8.462 -7.6125 -7.0865 -4.712 -9.123501 -9.872001 -7.0315 -7.1235 -6.4925 -4.4525 -7.1235 -6.453 -8.2755 -17.39492 
-8.184501 -8.5165 -4.725 -9.792001 -12.8407 -10.27 -14.3569 -10.485 -10.586 -10.071 -12.8957 -13.7887 -8.875501 -8.6295 -9.426001 -8.021001 -8.9495 -12.8254 -21.57962 
-8.906501 -8.916 -10.4335 -15.3739 -13.9872 -16.1649 -17.2294 -13.9845 -15.945 -14.0556 -16.8124 -15.6327 -10.9627 -11.8644 -13.1209 -9.595501 -15.5555 -26.12952 
-9.298 -14.7069 -16.0154 -16.5204 -19.8821 -19.0374 -20.7289 -19.3435 -19.9296 -17.9723 -18.6564 -17.7199 -14.1976 -15.5593 -14.6954 -16.2997 -28.85962 

n/a 
n/a 
n/a 
n/a 
-6.021 -4.828 -4.2785 -2.3345 -1.4985 -4.71 -5.674 -5.2425 -5.622 -4.38 0 
-8.75 -7.459 -4.849 -3.233 -6.097 -8.9545 -8.0585 -10.7335 -11.0632 -4.38 
-11.6444 -7.6195 -5.408 -8.036 -9.147501 -10.3965 -14.1975 -16.1747 -11.0632 
-11.8049 -8.2405 -10.5635 -10.586 -10.4685 -16.7723 -19.6387 -16.1747 
-12.4259 -13.6028 -13.1135 -11.907 -16.9027 -22.2135 -19.6387 
