-4.759 
n/a 
n/a 
n/a 
n/a 
-4.759 
n/a 
n/a 
n/a 
n/a 
-4.759 
n/a 
n/a 
n/a 
n/a 
-4.759 
n/a 
n/a 
n/a 
n/a 
-8.243501 -12.16972 0 -4.602 -4.153 -8.698501 0 -3.0695 -2.186 -1.7565 -3.486 -3.7515 -1.756 -4.8465 -1.934 -3.091 -3.284 0 -4.493 -1.934 -2.341 -3.93 -4.061 -3.1575 -3.595 
-20.87042 -12.16972 -4.602 -5.112 -13.7341 -8.698501 -3.0695 -4.2675 -4.858 -5.9455 -6.215 -5.1345 -6.245 -5.823 -4.2105 -6.365 -3.284 -4.493 -5.8265 -4.9255 -6.7695 -7.5965 -7.534501 -6.552501 
-20.87042 -16.77172 -5.112 -15.1961 -13.7341 -12.4146 -4.2675 -7.054501 -8.601001 -8.147 -7.2275 -8.910001 -7.307 -8.476001 -7.359001 -6.365 -8.135 -5.8265 -9.0435 -9.594501 -10.766 -9.932501 -11.4193 
-25.47242 -17.28172 -15.1961 -15.1961 -17.4502 -13.6126 -7.054501 -10.2985 -10.6215 -9.196501 -11.4434 -10.4036 -9.632501 -10.4595 -7.359001 -10.4185 -9.910501 -9.0435 -14.1289 -13.7314 -13.102 -13.8173 
-25.98242 -27.36582 -15.1961 -18.9122 -18.6482 -16.3996 -10.2985 -12.5078 -11.671 -13.5992 -12.937 -12.7291 -11.7238 -10.4595 -11.6571 -12.194 -13.4339 -14.1289 -18.2658 -16.0674 -16.9868 
-1.934 -3.091 -3.284 -3.091 -4.7045 0 -4.602 -4.153 -2.229 -3.4155 -5.59 0 -12.16972 -12.16972 -4.8465 -2.341 -4.061 -2.645 -3.1575 -3.595 
-4.2105 -6.365 -6.84 -7.680501 -4.7045 -4.602 -5.112 -6.408501 -5.1365 -7.5765 -5.59 -12.16972 -24.33944 -17.01622 -7.8065 -6.7685 -6.7945 -3.72 -6.552501 
-7.359001 -8.594501 -11.8865 -7.680501 -10.7175 -5.112 -7.180501 -8.120001 -9.776 -7.5765 -18.72592 -24.33944 -29.18594 -19.97622 -12.3808 -10.368 -8.183001 -7.660001 
-9.601501 -13.7832 -11.8865 -14.4117 -11.2275 -7.180501 -8.578501 -13.0583 -9.776 -20.95402 -30.89564 -29.18594 -32.14594 -24.55052 -15.9803 -11.7565 -12.275 
-14.8424 -13.7832 -18.6177 -14.9217 -13.296 -8.578501 -13.5996 -13.0583 -23.23612 -33.12374 -35.74214 -32.14594 -36.72024 -28.15002 -17.3688 -15.8485 
-1.934 -3.091 -3.833 0 -4.602 -4.153 -3.4155 -5.59 0 -6.7975 -12.16972 -2.8645 -4.8465 -3.2495 -3.277 -4.0225 -1.7565 -3.486 -3.391 
-4.2105 -6.321 -3.833 -4.602 -5.112 -7.430501 -7.5765 -5.59 -6.7975 -19.73422 -15.03422 -6.3325 -7.656501 -4.6515 -7.4195 -7.3865 -5.9455 -6.2645 
-7.471001 -6.321 -8.5665 -5.112 -7.952001 -12.3655 -7.5765 -13.3537 -19.73422 -22.59872 -18.50222 -9.324 -8.805501 -8.8335 -10.3675 -10.4765 -8.459001 
-7.471001 -11.9757 -8.685 -7.952001 -13.5364 -12.3655 -15.5818 -26.29042 -22.59872 -26.06672 -21.49372 -10.5335 -13.6087 -11.9809 -13.5253 -13.2926 
-13.1507 -12.0942 -11.9298 -13.5364 -13.5364 -20.3708 -28.51852 -29.15492 -26.06672 -29.05822 -22.70322 -15.3367 -16.7561 -15.1387 -16.3414 
-1.934 -3.091 -3.284 -2.5045 -3.091 -3.486 -3.7515 -9.965501 -12.16972 0 -4.602 -4.153 -3.6135 -8.6875 0 -4.8465 -3.2495 -4.061 -4.056 -3.1575 -3.595 0 
-4.2105 -6.365 -5.638 -5.0075 -7.5055 -6.215 -14.833 -22.39142 -12.16972 -4.602 -5.112 -8.366501 -13.6304 -8.6875 -4.8465 -7.656501 -6.192 -8.966501 -7.4905 -6.552501 -3.595 
-7.359001 -8.5045 -8.5155 -9.338501 -8.96 -17.8007 -27.25892 -22.39142 -16.77172 -5.112 -9.177501 -18.6804 -13.6304 -13.8202 -7.656501 -9.593 -11.7339 -12.6706 -11.3471 -6.552501 
-9.56 -10.3675 -13.1473 -10.6605 -20.6493 -30.22662 -27.25892 -26.99342 -17.28172 -9.177501 -19.629 -18.6804 -18.7631 -16.6302 -9.593 -16.2175 -15.438 -16.5272 -11.3471 
-11.3874 -14.9993 -14.4693 -22.3498 -33.07522 -30.22662 -31.86092 -27.50342 -21.34722 -19.629 -19.629 -23.8131 -21.5731 -18.5667 -16.2175 -19.9216 -19.2946 -16.5272 
