-4.759 
n/a 
n/a 
n/a 
n/a 
-4.759 
n/a 
n/a 
n/a 
n/a 
-4.759 
n/a 
n/a 
n/a 
n/a 
-4.759 
n/a 
n/a 
n/a 
n/a 
-3.091 -3.956 -1.7695 -10.033 -3.4815 -3.757 0 
-8.248501 -4.324 -12.7847 -13.6593 -6.2755 -3.757 
-9.714001 -16.6884 -16.411 -16.4533 -6.2755 
-22.119 -20.3147 -19.205 -16.4533 
-25.7453 -23.1087 -19.205 
-4.0995 -3.757 -6.6395 -6.246 -2.4265 -4.3195 -1.4985 -3.757 
-9.5835 -9.531501 -13.6433 -9.578001 -5.45 -5.1515 -4.5435 
-15.5874 -16.5697 -16.9753 -12.7531 -6.508 -7.483 
-22.6256 -19.9017 -20.1504 -13.8111 -10.2375 
-25.9576 -23.0768 -21.2084 -17.5406 
-3.4635 -3.595 0 -8.085 -5.098 -6.246 -4.3195 -1.4985 -3.757 
-6.7845 -3.595 -4.529 -7.7935 -12.2674 -11.3051 -5.1515 -4.5435 
-6.7845 -8.705001 -8.2025 -16.5517 -17.3265 -12.1371 -7.483 
-12.1693 -12.5137 -16.3917 -21.4508 -18.1585 -14.4686 
-15.978 -20.7029 -21.4508 -22.2828 -20.49 
-6.2195 -2.4285 -2.6165 0 -6.496 -4.443 -5.448 -2.3345 -1.4985 -2.688 -3.7455 -1.8085 -5.6385 -6.1555 -2.356 -4.15 -5.905 -3.091 -3.912 -2.5045 -1.8085 -4.3625 -1.7565 -3.7455 -6.8935 0 -4.013 -2.9805 -4.289 -1.7695 -5.4995 -1.4985 -3.7455 -2.264 -2.664 -5.3745 -4.1175 
-8.2665 -4.3195 -2.6165 -6.496 -10.051 -8.322001 -6.864 -3.233 -3.702 -6.942501 -6.0715 -6.278501 -10.9315 -6.775001 -7.109501 -11.117 -8.2945 -5.292 -5.647 -3.3625 -5.4895 -6.024 -5.5385 -8.769501 -6.8935 -4.013 -5.614 -5.8505 -5.0125 -5.9205 -6.459001 -4.4155 -5.827 -4.4375 -6.486 -7.6285 
-8.979 -4.3195 -9.840501 -10.051 -14.501 -8.951 -7.436501 -5.6065 -7.5955 -9.588001 -10.674 -12.3291 -11.551 -9.918 -14.5871 -13.5065 -9.715501 -6.3275 -5.839 -6.206 -6.912 -10.3475 -9.618 -8.769501 -10.634 -5.614 -7.9525 -6.304501 -8.6025 -6.7955 -9.608001 -6.572001 -7.685 -7.576 -7.7615 
-8.979 -11.6361 -13.9455 -14.501 -15.13 -9.505501 -9.712001 -9.370501 -10.0995 -14.2907 -16.7246 -12.9486 -14.694 -18.1126 -16.9766 -14.9275 -10.8428 -6.528501 -7.523 -7.5065 -10.759 -14.427 -9.618 -12.7482 -12.235 -7.9525 -8.056 -9.565001 -9.452001 -9.804501 -11.9215 -8.0625 -11.7619 -7.770501 
-16.4622 -15.7411 -18.3955 -15.13 -15.6845 -11.7994 -13.4192 -11.9439 -14.8022 -20.3413 -17.3441 -16.0916 -22.8886 -20.5021 -18.3976 -16.0548 -11.0438 -8.248501 -8.807501 -11.4453 -14.8385 -14.427 -13.8479 -14.3492 -14.5735 -8.056 -11.6657 -10.317 -12.5398 -12.1606 -13.412 -12.6108 -11.9564 
