-4.759 
n/a 
n/a 
n/a 
n/a 
-4.759 
n/a 
n/a 
n/a 
n/a 
-4.759 
n/a 
n/a 
n/a 
n/a 
-4.759 
n/a 
n/a 
n/a 
n/a 
-3.6645 -3.543 -4.5385 -1.7565 -3.1495 -6.315001 -4.9395 -1.7695 -4.5085 -1.756 -3.1435 -4.589 -3.6445 0 
-5.9305 -4.669 -5.173 -3.914 -8.467 -10.31 -5.127501 -6.4065 -5.6715 -4.1365 -7.559 -8.236501 -3.6445 
-6.3915 -5.1795 -7.363 -9.002001 -12.611 -10.9088 -9.935 -7.6315 -9.755001 -8.0115 -11.6359 -8.236501 
-6.6965 -7.366 -12.8612 -13.1638 -13.2098 -15.7163 -11.16 -11.6926 -13.63 -12.3024 -11.6359 
-8.786 -12.866 -17.023 -13.7626 -18.0173 -16.9413 -15.2211 -15.5676 -17.9209 -12.3024 
-5.2015 -5.3045 -1.7565 -3.1385 -2.4945 -3.937 -4.921 -3.213 -2.4285 -3.4635 -3.213 -2.5195 -3.277 0 
-11.7988 -6.011 -4.388 -4.588 -4.9975 -9.122001 -8.3405 -5.3005 -5.5325 -5.9835 -5.2955 -5.3095 -3.277 
-12.5053 -7.9215 -5.892 -6.6225 -10.4185 -10.368 -9.7885 -8.1105 -7.785 -8.488501 -8.2215 -5.3095 
-14.4158 -9.992001 -7.795501 -12.2801 -11.6645 -12.0616 -13.0871 -9.9425 -10.9778 -11.2905 -8.2215 
-16.4863 -11.8955 -13.7485 -13.5261 -13.3581 -15.3602 -14.9191 -13.1353 -13.7798 -11.2905 
-1.934 -3.17 -3.6645 0 -1.7565 -3.1385 -2.8645 -3.013 -1.4985 -4.5085 -1.756 -2.985 -3.8125 
-4.8605 -7.7865 -3.6645 -1.7565 -4.388 -6.3865 -7.6665 -4.488 -5.723001 -5.6715 -4.2025 -6.245501 
-10.054 -7.7865 -5.5015 -4.388 -7.5305 -10.76 -9.3105 -9.4405 -6.922501 -9.943001 -7.2825 
-10.054 -9.081 -7.715 -7.5305 -12.0434 -12.404 -14.4552 -10.524 -11.2952 -13.023 
-11.4423 -11.6401 -11.3171 -12.0434 -13.6874 -17.5487 -15.5387 -14.8967 -14.3752 
-3.6645 -3.868 -1.7565 -2.3615 -8.339001 -2.186 -2.5195 -4.388 -1.756 -4.388 -3.402 -3.8125 0 
-5.6735 -4.3875 -3.523 -11.9887 -10.265 -4.863 -6.739 -5.273 -5.712501 -7.482 -7.668 -3.8125 
-6.04 -6.9455 -13.5944 -13.9147 -12.942 -8.955 -7.5145 -8.25 -8.679501 -12.2732 -7.668 
-8.384001 -17.6525 -15.5204 -16.5917 -17.034 -9.6975 -10.304 -9.88 -13.5711 -12.2732 
-19.2018 -19.5785 -18.1974 -20.6837 -17.7765 -12.6288 -12.1414 -14.9298 -13.5711 
