-4.759 
n/a 
n/a 
n/a 
n/a 
-4.759 
n/a 
n/a 
n/a 
n/a 
-4.759 
n/a 
n/a 
n/a 
n/a 
-4.759 
n/a 
n/a 
n/a 
n/a 
-4.649 -1.756 -12.16972 -3.5155 -2.4945 -1.934 -4.8185 -3.793 0 -2.5045 -2.7295 -2.882 -3.5095 0 0 0 -2.5045 -2.7295 -2.882 -3.5095 0 0 -1.934 -2.3615 -5.029 -4.6505 -2.7455 -10.094 -6.0345 -6.886 -3.402 -2.3345 0 -7.2695 0 0 -4.254 
-6.243 -14.93432 -15.68522 -5.4445 -4.2645 -6.139 -7.8935 -3.793 -2.5045 -4.4295 -4.7675 -5.910501 -3.5095 0 0 -2.5045 -4.4295 -4.7675 -5.910501 -3.5095 0 -1.934 -3.539 -6.3025 -10.0285 -7.1545 -13.7981 -16.1881 -13.6787 -11.1415 -7.214001 -2.3345 -7.2695 -7.2695 0 -4.254 
-20.10412 -18.44982 -17.61422 -7.1045 -10.586 -9.779501 -7.8935 -5.9275 -4.4295 -6.557 -7.0835 -5.910501 -3.5095 0 -2.5045 -4.4295 -6.557 -7.0835 -5.910501 -3.5095 -1.934 -3.539 -7.4245 -11.9004 -12.5325 -18.6697 -19.8922 -23.8323 -17.9342 -14.9535 -7.214001 -9.0445 -7.2695 -7.2695 -4.254 
-23.61962 -20.37882 -19.27422 -13.6418 -14.2265 -9.779501 -10.0785 -8.719501 -6.557 -7.772501 -7.0835 -5.910501 -3.5095 -2.5045 -4.4295 -6.557 -7.772501 -7.0835 -5.910501 -5.784 -3.539 -7.4245 -13.094 -14.4044 -24.0477 -24.7638 -27.5364 -28.0878 -21.7462 -14.9535 -14.1848 -9.0445 -7.2695 -11.1355 
-25.54862 -22.03882 -25.81152 -17.2823 -14.2265 -12.1217 -12.9707 -10.019 -7.772501 -7.772501 -7.0835 -5.910501 -6.2475 -4.4295 -6.557 -7.772501 -7.772501 -7.0835 -8.1575 -7.113501 -7.4245 -13.094 -15.598 -25.9196 -30.1418 -32.408 -31.7919 -31.8998 -21.7462 -21.9243 -14.1848 -9.0445 -11.1355 
-4.649 -1.756 -3.809 -3.355 -2.4945 -1.934 -1.4985 -3.158 -4.8185 -4.0925 0 -2.5045 -2.7295 -2.882 -3.5095 0 0 -4.221 -4.6505 -10.883 -4.2905 -1.934 -4.5335 -3.8195 -3.402 0 -6.1105 0 0 -2.4945 -5.2695 -3.1495 -3.213 -4.532 0 
-6.243 -5.218 -8.123 -6.529 -4.2645 -2.6125 -4.178 -7.5565 -9.0825 -4.0925 -2.5045 -4.4295 -4.7675 -5.910501 -3.5095 0 -4.221 -8.283001 -14.9495 -14.88 -6.186 -6.592 -7.9325 -6.573 -3.402 -6.1105 -6.1105 0 -2.4945 -6.4065 -8.492001 -6.684 -7.3475 -4.532 
-9.783001 -9.880501 -11.6452 -8.138 -4.935 -5.265 -8.3465 -12.3089 -9.0825 -6.0465 -4.4295 -6.557 -7.0835 -5.910501 -3.5095 -4.221 -8.283001 -19.2004 -19.7739 -16.9229 -11.645 -10.185 -10.9944 -6.573 -9.824 -6.1105 -6.1105 -2.4945 -6.4065 -10.304 -12.2967 -11.4081 -7.3475 
-14.5255 -13.5543 -13.2542 -8.781501 -8.396501 -8.8605 -13.3267 -12.3089 -11.2201 -8.469001 -6.557 -7.772501 -7.0835 -5.910501 -8.0985 -8.283001 -19.2004 -24.0248 -21.6824 -22.3819 -15.238 -13.2469 -10.9944 -13.948 -9.824 -6.1105 -7.769001 -6.4065 -10.304 -14.1087 -17.0208 -11.4081 
-18.1993 -15.1633 -13.8977 -12.7358 -12.3168 -13.9563 -13.3267 -14.4465 -13.6426 -10.8751 -7.772501 -7.772501 -7.0835 -10.8883 -12.9937 -19.2004 -24.0248 -25.9333 -27.1414 -25.9749 -18.2999 -13.2469 -18.3694 -13.948 -9.824 -7.769001 -12.0194 -10.304 -14.1087 -18.8328 -17.0208 
-4.649 -1.756 -12.16972 -3.1495 -3.2495 -3.6765 -1.934 -4.8185 -2.5045 -2.7295 -2.882 -4.661 -1.4985 -3.793 -1.4985 -4.867 -1.7695 -4.6505 -4.712 -1.934 -4.2905 -5.8655 -4.7715 -7.2695 
-6.243 -14.93432 -15.31922 -4.8975 -6.3115 -5.201 -6.139 -7.321 -4.4295 -4.7675 -8.4405 -6.676001 -5.143001 -5.771 -6.097 -6.9255 -8.246 -9.094 -7.137501 -6.726 -11.3016 -11.4436 -13.0174 
-20.10412 -18.08382 -17.06722 -9.422001 -8.7675 -10.533 -7.867001 -8.7825 -6.557 -10.3345 -9.087001 -10.6731 -9.113001 -8.967501 -7.9195 -13.8318 -12.7241 -11.5323 -12.8729 -14.3207 -16.8797 -19.6895 
-23.25362 -19.83182 -21.59172 -10.7505 -14.4279 -12.261 -10.238 -8.865 -12.8634 -10.981 -13.4877 -14.6431 -12.5981 -10.9158 -15.0202 -18.3099 -15.1624 -17.2677 -20.4676 -19.8988 -25.1256 
-25.00162 -24.35632 -22.92022 -17.2995 -16.1559 -14.632 -10.7415 -17.46 -13.5099 -15.3817 -17.4577 -18.1282 -14.5464 -18.0165 -19.4983 -20.7482 -20.8978 -24.8624 -26.0457 -28.1447 
-4.649 -1.756 -9.847501 -2.186 -5.057 -1.4985 -3.452 -2.5045 -2.5045 -2.7295 -2.882 -3.5095 -2.5045 -4.8185 
-6.243 -12.6121 -12.4667 -6.93 -6.6495 -4.4485 -5.956 -6.124001 -4.4295 -4.7675 -5.910501 -6.357 -8.331 
-17.7819 -15.2313 -17.2107 -8.9545 -9.370001 -6.5275 -9.650001 -8.287001 -6.557 -7.0835 -8.598001 -13.0103 
-20.4011 -19.9753 -19.2352 -11.7558 -11.7168 -9.950001 -12.0424 -10.6137 -7.772501 -9.755001 -15.7023 
-25.1451 -21.9998 -22.0365 -14.1026 -15.1393 -12.5244 -14.3691 -11.8292 -10.316 -16.9363 
