-4.759 
n/a 
n/a 
n/a 
n/a 
-4.759 
n/a 
n/a 
n/a 
n/a 
-4.759 
n/a 
n/a 
n/a 
n/a 
-4.759 
n/a 
n/a 
n/a 
n/a 
-5.1845 -4.8775 -2.8645 -4.7925 -1.4985 -6.1945 -1.7565 -5.1845 -3.222 -3.54 -6.1945 0 -4.0155 -6.1945 -1.756 -4.2405 -6.1945 0 
-9.0415 -7.4695 -7.012 -6.315 -7.9375 -8.5775 -6.580501 -9.5485 -5.6115 -11.046 -6.1945 -4.0155 -11.3238 -7.5315 -5.7805 -11.4968 -6.1945 
-11.7333 -11.8742 -7.4445 -13.1358 -9.13 -13.6047 -11.7875 -12.0784 -13.9379 -11.046 -11.124 -11.3238 -12.6608 -12.0956 -13.3208 -11.4968 
-16.138 -12.3067 -14.6089 -14.3283 -14.28 -18.8117 -14.3174 -20.4048 -13.9379 -15.9755 -18.4323 -12.6608 -17.2249 -19.6359 -13.3208 
-16.5705 -19.4711 -15.8014 -19.4783 -19.487 -21.3416 -22.6438 -20.4048 -18.8674 -23.2838 -19.7693 -17.2249 -24.7652 -19.6359 
-3.54 -4.953 0 -4.0155 -4.953 -1.756 -4.2405 -4.953 -3.0365 -2.4945 -4.794 -2.3345 -4.525 0 
-8.911 -4.953 -4.0155 -8.1765 -5.9905 -5.7805 -9.852501 -7.962 -3.688 -5.9735 -5.291 -6.671 -4.525 
-8.911 -9.9725 -8.1765 -8.1905 -11.1102 -11.6765 -12.9999 -8.388 -9.172501 -6.3055 -11.0729 -6.671 
-14.1717 -14.1335 -8.1905 -15.7018 -17.0062 -14.8239 -13.4259 -14.1067 -10.1555 -12.0456 -11.0729 
-18.3327 -14.1475 -15.7018 -21.5978 -20.1536 -15.2499 -19.1446 -15.0897 -16.0204 -12.0456 
-4.525 -2.4945 -4.7925 -4.953 -3.222 -3.54 0 -4.0155 -1.756 -4.2405 -3.9755 0 
-8.6455 -5.941501 -10.5535 -8.114 -5.6115 -3.54 -4.0155 -6.0375 -5.7805 -7.356 -3.9755 
-12.2567 -12.6901 -14.1197 -10.7929 -5.6115 -7.035501 -6.0375 -7.0955 -9.112 -7.356 
-19.0053 -16.2563 -16.7986 -10.7929 -9.545501 -7.886 -7.0955 -11.003 -9.112 
-22.5715 -18.9352 -16.7986 -14.7269 -10.6292 -9.478001 -11.003 -11.003 
-5.3255 -3.999 -1.7565 -4.245 -3.54 -4.245 -4.0155 -4.245 -1.756 -4.2405 -4.245 -4.346 0 
-10.6095 -4.5785 -5.743001 -8.035501 -8.6855 -8.8295 -9.304501 -5.425 -5.7805 -9.631001 -9.4895 -4.346 
-11.189 -9.089001 -9.598001 -13.5378 -13.6746 -14.2189 -10.648 -9.869501 -11.455 -15.1749 -9.4895 
-15.6995 -13.4654 -15.1483 -18.5269 -19.064 -15.5624 -15.0925 -15.652 -16.9989 -15.1749 
-20.0759 -19.0157 -20.1374 -23.9163 -20.4075 -20.0069 -20.875 -21.1959 -16.9989 
