-4.759 
n/a 
n/a 
n/a 
n/a 
-4.759 
n/a 
n/a 
n/a 
n/a 
-4.759 
n/a 
n/a 
n/a 
n/a 
-4.759 
n/a 
n/a 
n/a 
n/a 
-2.9505 -3.3635 0 -3.672 -3.674 -4.1 -2.0935 -3.627 0 -1.7565 -3.5935 -3.189 -4.882 0 -3.672 -9.290501 -4.328 -4.282 -2.998 0 0 -1.756 -3.8265 0 -3.1715 0 -1.756 -3.352 -4.6555 -4.1 -2.0935 -3.6595 0 0 
-6.860001 -3.3635 -3.672 -6.0865 -6.952001 -5.066 -6.354001 -3.627 -1.7565 -5.1085 -5.7475 -6.6165 -4.882 -3.672 -12.598 -10.6335 -8.3745 -7.969 -2.998 0 -1.756 -5.209 -3.8265 -3.1715 -3.1715 -1.756 -4.7135 -5.415501 -8.657001 -5.066 -6.671 -3.6595 0 
-6.860001 -7.4465 -6.0865 -9.057 -8.0185 -9.2895 -6.354001 -5.9415 -5.1085 -7.0315 -8.804501 -6.6165 -8.635 -10.2685 -12.0625 -10.065 -10.1465 -7.969 -2.998 -1.756 -5.209 -5.209 -5.416 -3.1715 -4.562 -4.7135 -5.858 -9.293001 -9.423 -9.677501 -6.671 -3.6595 
-10.3675 -9.687 -9.057 -9.314 -9.953001 -9.2895 -7.902 -9.892 -7.0315 -9.387001 -8.804501 -9.595501 -10.602 -10.503 -12.9715 -10.153 -10.1465 -7.969 -5.365 -5.209 -5.209 -7.3085 -5.416 -4.562 -5.137 -5.858 -9.562 -9.7945 -10.144 -9.677501 -6.671 
-12.8556 -9.988501 -9.314 -9.984501 -9.953001 -10.005 -10.0675 -10.0545 -9.387001 -9.387001 -10.119 -10.295 -10.885 -11.98 -12.1065 -10.1515 -10.1465 -10.025 -9.612501 -5.209 -7.3085 -7.3085 -5.7345 -5.137 -6.001 -9.562 -9.9215 -10.1465 -10.144 -9.677501 
-1.934 -3.3635 0 -3.5935 -3.674 -3.7495 -12.16972 0 -2.264 -3.237 -3.189 0 -3.672 -4.404 -2.998 0 0 -3.8265 -1.756 -3.1715 -3.5435 -4.404 -3.6595 0 0 
-4.921 -3.3635 -3.5935 -6.558001 -5.2365 -17.00742 -12.16972 -2.264 -5.39 -4.615 -3.189 -3.672 -9.742001 -7.066501 -2.998 0 -3.8265 -5.377 -4.88 -5.3835 -7.323 -8.3605 -3.6595 0 
-4.921 -7.449 -6.558001 -9.345501 -19.01262 -17.00742 -14.43372 -5.39 -6.548501 -4.615 -7.561501 -9.742001 -12.7045 -7.066501 -2.998 -3.8265 -5.377 -5.5455 -6.6365 -9.184 -10.564 -8.3605 -3.6595 
-8.7615 -10.8157 -9.345501 -23.40402 -19.01262 -19.27142 -17.55972 -6.548501 -6.548501 -8.3935 -14.4055 -12.7045 -12.7045 -7.066501 -7.351501 -5.377 -5.5455 -7.08 -10.6875 -12.573 -10.564 -8.3605 
-12.3238 -13.6032 -23.40402 -23.40402 -21.27662 -22.39742 -18.71822 -6.548501 -10.879 -15.7671 -17.368 -12.7045 -12.7045 -12.6346 -9.0775 -5.5455 -7.08 -11.4778 -14.0765 -12.573 -10.564 
-1.934 -3.3635 -3.672 -3.674 -3.7495 -4.419 -3.627 0 -1.7565 -2.985 -3.5895 -1.934 -3.8755 -4.269 -3.189 0 -2.998 0 -1.7565 -3.5895 -1.934 -3.672 -4.179 -2.7415 -3.2955 -1.934 -2.3615 0 -4.1735 0 -3.1715 -1.756 -3.7745 -3.5435 -4.419 -3.6595 0 -2.264 -2.3615 0 
-4.921 -7.4465 -6.0865 -5.2365 -7.196501 -8.427 -3.627 -1.7565 -3.9355 -5.613501 -5.211 -5.88 -7.259501 -7.613 -3.189 -2.998 -2.998 -1.7565 -4.8595 -5.211 -5.443501 -6.382501 -7.237 -4.978 -4.2285 -3.539 -2.3615 -4.1735 -4.1735 -3.1715 -4.562 -5.3805 -5.717 -7.647 -8.6845 -3.6595 -2.264 -3.8255 -2.3615 
-8.871 -9.687 -6.9865 -8.682501 -10.3885 -8.427 -5.9415 -3.9355 -6.603 -6.883 -9.180501 -9.434501 -10.7335 -7.613 -7.0265 -2.998 -5.2585 -4.8595 -6.2095 -8.476001 -9.415001 -9.2705 -9.080501 -5.908 -5.3765 -3.539 -7.2875 -4.1735 -8.5225 -4.562 -7.769001 -7.154 -9.754001 -12.2233 -8.6845 -6.667 -3.8255 -3.8255 
-9.901001 -10.8868 -9.755 -12.0035 -10.3885 -9.984 -8.3905 -6.603 -7.9045 -10.4185 -13.0366 -13.0201 -10.7335 -9.637 -7.0265 -5.2585 -9.529501 -6.2095 -9.494 -12.8151 -12.3146 -11.163 -10.082 -7.0855 -5.3765 -8.585501 -7.2875 -8.5225 -10.31 -7.769001 -8.429001 -11.3946 -14.3525 -12.2233 -10.7025 -8.8205 -3.8255 
-11.507 -13.6553 -13.0794 -12.0035 -12.2763 -10.2485 -10.7335 -7.9045 -11.6046 -14.2746 -16.6222 -13.0201 -12.7575 -9.637 -9.5485 -9.529501 -11.0117 -9.494 -13.9995 -15.7147 -14.2071 -12.1645 -11.3861 -7.0855 -11.1556 -8.585501 -11.9733 -10.31 -13.517 -8.429001 -12.802 -15.9931 -14.3525 -14.2413 -12.856 -8.8205 
-2.3615 -3.4515 -1.934 -4.089 -5.6535 -2.7835 -1.4985 -3.6035 -2.186 -4.3665 -3.5455 -1.4985 -3.383 -3.8315 -4.763 -1.7565 -4.477 -6.12 -6.438 -2.882 -3.074 -2.489 -3.2955 -1.7695 -4.8525 -4.477 -6.12 -6.438 -2.7415 -3.0835 -5.487 -1.934 -1.4985 -5.235 
-5.9225 -4.7655 -6.8155 -6.811501 -8 -3.7575 -4.7865 -5.475 -5.3395 -6.429 -3.91 -4.554501 -5.824 -5.806 -5.1985 -5.778 -7.136001 -8.887501 -8.613501 -4.559 -4.381 -3.979 -3.9425 -5.178 -8.396001 -7.136001 -8.887501 -8.361 -5.276 -8.2015 -6.328001 -2.6125 -5.5435 
-5.9845 -8.5485 -8.774501 -8.814501 -9.067 -6.622 -6.172 -6.705501 -7.522 -6.7555 -7.4575 -6.744 -7.1685 -5.9815 -7.2545 -7.1425 -11.9803 -11.3328 -9.801001 -5.061 -5.411 -4.5435 -6.3235 -8.734501 -11.4946 -11.9803 -11.0803 -10.6605 -8.755 -8.858 -6.893001 -5.870501 
-9.612 -9.788 -10.4345 -9.52 -12.0157 -7.2715 -6.9945 -9.0485 -7.964 -10.361 -8.304001 -7.350501 -7.401 -7.944 -8.9944 -13.0778 -14.4256 -12.5203 -9.948501 -6.047 -5.8245 -6.816 -9.788 -11.9097 -16.3389 -14.1731 -13.3798 -14.1395 -9.217 -9.452001 -10.155 
-10.8611 -11.613 -11.14 -12.4941 -12.6652 -8.8155 -9.4495 -9.4285 -11.6815 -10.621 -8.802501 -7.497001 -9.234 -9.9441 -14.9297 -15.5231 -15.6131 -12.6678 -10.426 -6.4985 -7.940001 -10.2075 -13.0492 -16.754 -18.5317 -16.4726 -16.8588 -14.6015 -9.694 -12.7314 
