-4.759 
n/a 
n/a 
n/a 
n/a 
-4.759 
n/a 
n/a 
n/a 
n/a 
-4.759 
n/a 
n/a 
n/a 
n/a 
-4.759 
n/a 
n/a 
n/a 
n/a 
-2.872 -1.934 -3.3785 -1.4985 -3.8235 0 -4.3615 0 -2.186 -4.4715 -4.641 -2.0935 -4.3615 -4.723 -1.934 -3.9175 -1.7565 -3.545 -2.3345 -3.3425 -4.536 -5.1965 -2.4285 -2.8965 -5.803 0 
-4.659 -4.5895 -5.409 -4.53 -3.8235 -4.3615 -4.3615 -2.186 -5.7085 -8.210501 -5.784 -6.256001 -8.833 -6.077 -4.681 -4.64 -5.6535 -5.9705 -4.554 -7.985001 -6.789001 -7.068501 -4.1405 -8.347 -5.803 
-6.41 -5.5825 -8.697001 -4.53 -8.251 -4.3615 -6.573 -5.7085 -8.764 -8.717501 -9.9455 -11.1625 -9.931001 -8.802 -4.7425 -6.703001 -8.484 -8.418501 -9.4235 -9.1295 -8.545501 -8.550501 -9.621 -8.347 
-7.2005 -8.816501 -8.697001 -9.139 -8.251 -6.573 -10.111 -8.764 -9.0225 -13.023 -14.9234 -12.2605 -12.92 -8.849 -7.58 -9.552001 -11.066 -13.2816 -10.317 -10.7605 -9.885 -14.536 -9.621 
-10.5035 -8.816501 -13.3632 -9.139 -10.2645 -10.111 -13.1665 -9.0225 -13.4754 -18.0009 -16.0214 -15.2495 -12.967 -11.7701 -9.834001 -12.2688 -15.9291 -14.1751 -11.948 -12.1 -16.0897 -14.536 
-2.872 0 -1.4985 -3.8235 -7.6445 -4.5875 -2.4285 -2.7295 -3.998 -2.8705 -4.0335 0 -1.8085 -4.4385 -4.3615 -3.9175 -1.7565 -1.4985 -3.545 -3.3425 -4.536 -4.7975 -2.4285 -3.135 -4.7975 0 
-2.872 -1.4985 -4.53 -10.884 -12.7772 -7.634 -5.539001 -5.557 -6.906 -6.363501 -4.0335 -1.8085 -6.185 -8.154501 -8.48 -4.64 -2.4195 -4.401 -7.1585 -7.985001 -7.654 -6.7405 -5.264501 -7.8355 -4.7975 
-4.035 -4.53 -11.7433 -16.0167 -15.8237 -11.6215 -8.8345 -7.7225 -10.0475 -6.363501 -6.0135 -6.185 -9.7755 -12.7464 -10.575 -5.0595 -5.1065 -7.901 -10.1725 -10.1725 -9.755501 -8.927 -10.016 -7.8355 
-6.941501 -11.7433 -16.876 -19.0632 -19.8112 -14.917 -11.2268 -11.0252 -10.0475 -8.4965 -10.322 -9.7755 -14.5514 -14.8414 -10.9945 -6.687 -8.67 -11.1422 -13.2816 -12.274 -12.0246 -14.0581 -10.016 
-14.4392 -16.876 -19.9225 -23.0507 -23.1067 -17.3093 -14.5295 -11.0252 -12.1805 -12.8886 -13.9125 -14.5514 -16.6464 -15.2609 -12.622 -10.15 -12.062 -14.2513 -15.3831 -14.5431 -17.1557 -14.0581 
-3.6705 0 -3.034 -2.7295 -3.6785 -7.6445 0 -2.9325 -2.7295 -3.9375 -2.186 -1.4985 -4.3615 -2.9705 -2.7295 -4.503 -1.934 -1.4985 -6.982501 -1.7565 -2.8705 -3.545 -3.3425 -1.4985 -4.7975 -3.43 -2.9905 -1.7565 -4.536 -1.756 -2.8965 -5.803 0 
-3.6705 -3.034 -4.536 -5.462 -12.2858 -7.6445 -2.9325 -4.3825 -6.2085 -6.3215 -3.339 -5.6615 -7.408501 -4.8125 -6.4245 -6.28 -2.6125 -7.6035 -7.709001 -3.8505 -5.7655 -7.1585 -4.0125 -6.196501 -7.8425 -5.758 -3.6185 -5.9405 -5.822001 -3.751 -8.347 -5.803 
-5.541 -4.536 -6.496 -14.2591 -12.2858 -11.1415 -4.3825 -7.8935 -8.707001 -7.4125 -7.975 -8.1695 -9.307501 -7.996 -8.4635 -6.972 -10.1595 -7.7475 -9.184501 -6.858 -9.3015 -7.898 -8.598001 -9.326 -10.2085 -5.9745 -8.271 -6.924 -7.395 -9.1885 -8.347 
-6.919001 -6.496 -15.4345 -14.2591 -15.7828 -12.5915 -7.8935 -9.211 -9.506001 -12.1421 -10.185 -10.586 -12.8778 -9.556001 -9 -14.818 -10.2665 -9.222501 -12.479 -10.228 -9.936001 -12.7447 -11.9593 -11.5726 -10.231 -8.958 -9.283501 -8.323501 -13.6447 -9.1885 
-9.272501 -15.4345 -15.4345 -17.7561 -17.2328 -16.1025 -9.211 -9.969501 -14.2798 -14.3521 -12.6015 -14.1563 -14.4378 -10.5245 -17.1044 -14.925 -11.7415 -12.5428 -15.849 -10.8625 -14.8869 -16.106 -14.2059 -11.5951 -13.2145 -10.044 -10.7238 -14.885 -13.6447 
-2.872 0 -4.98 -2.186 -3.8235 -3.9375 -1.934 -4.0335 -3.9175 -1.7565 -3.545 -4.98 -3.3425 -4.536 -4.7975 -2.4285 -3.135 -2.8965 -5.803 0 
-2.872 -4.98 -6.5335 -6.995501 -7.828001 -6.332 -4.76 -8.7045 -4.64 -5.6535 -9.0165 -8.7005 -7.985001 -7.654 -6.7405 -5.264501 -4.9085 -8.347 -5.803 
-9.076 -6.5335 -12.0642 -11.5892 -9.649 -10.0645 -9.737 -10.5225 -6.703001 -11.7954 -13.273 -13.4978 -10.1725 -9.755501 -8.927 -5.688 -10.375 -8.347 
-10.427 -12.0642 -16.6579 -13.4102 -13.4603 -15.0415 -11.6204 -12.5855 -13.3625 -16.0519 -18.0703 -15.6853 -12.274 -12.0246 -9.0575 -11.5805 -10.375 
-15.9577 -16.6579 -18.4789 -17.2215 -18.4373 -16.9249 -13.6834 -19.245 -17.619 -20.8492 -20.2578 -17.7868 -14.5431 -12.1551 -15.7128 -11.5805 
