-4.759 
n/a 
n/a 
n/a 
n/a 
-4.759 
n/a 
n/a 
n/a 
n/a 
-4.759 
n/a 
n/a 
n/a 
n/a 
-4.759 
n/a 
n/a 
n/a 
n/a 
-3.115 -2.8965 -4.2655 0 -3.0365 -2.186 -2.847 -5.3075 -3.6765 -2.0935 -2.3615 -5.1875 -5.2835 
-5.740001 -6.7665 -4.2655 -3.0365 -3.66 -4.1045 -8.949 -9.684501 -5.538 -3.854 -8.156 -8.741001 
-10.3675 -6.7665 -7.1455 -3.66 -4.256001 -10.1855 -13.806 -11.7504 -7.2155 -10.186 -12.1251 
-10.3675 -9.3435 -7.572 -4.256001 -10.4072 -15.3311 -15.8719 -13.4279 -14.0963 -14.1551 
-12.9445 -9.8555 -7.97 -10.4072 -15.5528 -17.397 -17.5494 -20.3087 -18.0654 
-3.115 -2.8965 -4.2655 -5.8965 -2.8645 -2.847 -4.693 
-5.740001 -6.7665 -7.6195 -8.0365 -4.6285 -8.66 
-10.3675 -10.341 -9.928 -9.0065 -9.335501 
-13.942 -12.6495 -10.898 -9.8485 
-16.2505 -13.6195 -11.74 
-5.8965 -2.186 -4.5485 -1.7565 -4.688 -5.031 -1.756 -2.8645 -2.847 -3.7285 -4.693 0 
-7.3885 -5.5785 -6.185 -6 -7.944 -5.9705 -4.3855 -4.6285 -5.9195 -8.295 -4.693 
-10.467 -6.7735 -9.378 -8.8575 -8.477 -8.611 -5.904 -7.8925 -8.857 -8.295 
-10.5565 -9.495001 -9.513 -9.2985 -10.532 -10.419 -8.9975 -9.299001 -8.857 
-10.5735 -9.513 -9.514501 -10.5545 -10.559 -10.556 -9.491501 -9.299001 
-2.847 -4.693 -2.0935 -1.4985 -5.1875 -4.2655 -4.0745 -2.356 -2.8965 -5.2835 0 
-8.66 -7.776501 -2.9725 -5.496 -7.408 -9.192 -5.622 -4.4085 -6.344501 -5.2835 
-11.8439 -8.5845 -8.011001 -7.738501 -12.7351 -10.375 -6.1575 -7.792 -6.344501 
-12.6519 -13.7564 -9.699 -13.1792 -13.9181 -10.9105 -10.403 -7.792 
-17.8238 -15.4444 -15.1821 -14.3622 -14.4536 -15.156 -10.403 
