-4.759 
n/a 
n/a 
n/a 
n/a 
-4.759 
n/a 
n/a 
n/a 
n/a 
-4.759 
n/a 
n/a 
n/a 
n/a 
-4.759 
n/a 
n/a 
n/a 
n/a 
-1.934 -3.8735 -1.4985 -3.6835 -3.564 -3.2895 -2.186 -2.6165 -4.221 0 
-4.885 -5.752 -4.7155 -6.584001 -6.6765 -6.002 -3.5105 -5.908 -4.221 
-6.319 -9.265 -7.992001 -9.922501 -8.686501 -7.265 -6.5305 -5.908 
-9.690001 -12.7251 -10.5425 -12.0091 -10.054 -10.459 -6.5305 
-13.2011 -15.2756 -13.2197 -13.3766 -13.248 -10.459 
-3.5485 -3.564 -3.618 -2.186 -2.6165 -5.36 -4.47 -2.5045 -2.5685 -2.95 -1.934 -3.8735 0 
-7.216001 -6.1335 -6.1005 -3.5105 -6.593 -9.9725 -6.073501 -4.275 -4.8085 -4.54 -4.885 -3.8735 
-8.3225 -8.8435 -7.291 -7.9545 -12.2789 -11.3546 -7.198501 -6.685 -6.6935 -7.3895 -4.885 
-11.3903 -9.889501 -12.2712 -13.6386 -13.661 -12.4796 -9.359 -8.338 -9.9985 -7.3895 
-12.4363 -15.0451 -17.9553 -15.0207 -14.786 -14.6401 -10.5045 -12.3538 -9.9985 
-1.4985 -3.564 -3.7095 -1.7565 -3.5485 -3.152 -2.6165 -3.0415 -4.221 -1.934 -3.8735 0 
-4.7165 -6.364 -4.7465 -4.837 -5.807 -4.6295 -4.822001 -8.073 -6.1575 -4.885 -3.8735 
-7.452001 -7.3395 -6.241 -7.292 -7.1465 -6.5825 -8.7405 -9.2615 -10.1855 -4.885 
-7.6255 -8.314501 -9.3685 -8.8365 -9.279 -10.648 -10.348 -13.4683 -10.1855 
-8.7535 -11.736 -10.7585 -11.0842 -13.4133 -12.2555 -14.766 -13.4683 
-1.934 -3.8735 0 -1.4985 -3.7095 -1.7565 -3.5485 -2.8645 -3.7285 -3.1125 -4.221 -1.934 -3.8475 0 
-4.885 -3.8735 -1.4985 -4.89 -4.7465 -4.837 -6.6845 -5.096 -5.009 -7.666501 -6.1575 -5.531 -3.8475 
-4.885 -5.752 -4.89 -5.0975 -6.241 -7.531001 -8.77 -5.375 -9.211 -8.8555 -9.2235 -5.531 
-6.319 -9.35 -5.0975 -6.4125 -8.495501 -9.605 -8.923 -9.4855 -10.419 -12.2187 -9.2235 
-9.772 -9.408001 -6.4125 -8.5895 -10.647 -9.8085 -13.2667 -10.719 -13.7822 -12.2187 
