-4.759 
n/a 
n/a 
n/a 
n/a 
-4.759 
n/a 
n/a 
n/a 
n/a 
-4.759 
n/a 
n/a 
n/a 
n/a 
-4.759 
n/a 
n/a 
n/a 
n/a 
-8.703 -1.7565 -8.2205 -2.229 -3.9725 
-10.181 -10.259 -10.575 -6.082 
-18.6835 -12.7815 -14.428 
-21.206 -16.6345 
-25.059 
-6.3215 -2.8645 -3.1125 -4.164 -2.5045 -1.4985 -4.43 -1.7565 -1.4985 -8.194 0 
-9.126 -3.5345 -5.771501 -5.2235 -3.583 -5.545 -5.785 -2.4195 -8.819 -8.194 
-9.9785 -6.06 -6.241 -6.1765 -7.332 -6.1315 -6.3215 -9.427 -8.819 
-12.5776 -6.4125 -6.961 -10.0775 -7.4465 -6.598001 -13.9866 -9.427 
-12.9301 -7.0695 -11.1606 -10.1125 -7.9235 -14.4231 -13.9866 
-2.4265 -2.7415 -8.013 -4.6805 -3.9515 -3.074 0 
-3.681 -12.1203 -10.6215 -9.2895 -7.435 -3.074 
-13.2624 -14.7288 -15.2305 -13.3584 -7.435 
-15.8709 -19.3378 -19.2994 -13.3584 
-20.4799 -23.4067 -19.2994 
-2.4265 -2.7415 -1.4985 -3.9515 -1.7565 -3.9725 -1.7565 -7.45 
-3.681 -4.063 -5.059 -5.368 -5.669 -4.9685 -10.038 
-4.946 -7.179 -5.839 -9.051001 -7.284 -14.3526 
-7.8855 -7.29 -9.262 -10.7146 -16.9983 
-7.9645 -10.0065 -10.9508 -20.4289 
