-4.759 
n/a 
n/a 
n/a 
n/a 
-4.759 
n/a 
n/a 
n/a 
n/a 
-4.759 
n/a 
n/a 
n/a 
n/a 
-4.759 
n/a 
n/a 
n/a 
n/a 
-3.818 -9.2685 -4.523 -4.285 -4.7885 -3.7345 
-14.3163 -14.0427 -9.764 -7.819 -5.866 
-19.0905 -19.2837 -13.5356 -9.532301 
-24.3315 -23.0553 -15.2489 
-28.1031 -24.7686 
-4.8315 0 -2.4265 -4.523 -1.4985 -4.654 -1.7565 -5.135 0 -1.8085 -3.519 -1.7565 -4.8095 -5.31 0 -5.4545 0 0 -4.35 -1.934 -1.4985 -4.285 -4.6985 0 
-4.8315 -2.4265 -6.096 -5.856 -5.268001 -5.178 -6.278501 -5.135 -1.8085 -5.0315 -4.4175 -5.881001 -7.754001 -5.31 -5.4545 -5.4545 0 -4.35 -6.133501 -2.6125 -4.774 -6.761001 -4.6985 
-6.097 -6.096 -7.593 -9.4405 -5.348001 -8.016001 -6.278501 -7.582 -5.0315 -5.4145 -8.1105 -9.3435 -7.754001 -9.8365 -5.4545 -5.4545 -4.35 -6.133501 -6.632 -5.297 -6.943 -6.761001 
-9.6805 -7.593 -11.3045 -9.4735 -8.103001 -8.016001 -8.6155 -9.1695 -5.4145 -8.706 -10.7175 -9.3435 -10.6335 -9.8365 -5.4545 -9.501501 -6.133501 -6.632 -8.580001 -7.314001 -6.943 
-11.2015 -11.3045 -11.3375 -12.3105 -8.103001 -9.5515 -10.016 -9.171 -8.706 -11.5548 -10.7175 -12.4154 -10.6335 -9.8365 -9.501501 -10.7585 -6.632 -8.580001 -8.854 -7.314001 
-3.818 -4.3355 -4.8095 -3.866 -2.871 -4.4385 -3.2335 
-9.288501 -8.829 -9.980501 -7.126 -7.4825 -8.604 
-13.917 -14.4452 -13.4347 -12.1865 -12.0804 
-19.5332 -17.8994 -18.4952 -16.7844 
-22.9874 -22.9599 -23.0931 
-3.074 -5.135 0 -2.871 -7.0735 -1.7565 -4.8095 0 -4.35 -2.7415 -4.5485 -1.934 -8.758 
-8.886001 -5.135 -2.871 -11.1425 -8.014 -5.881001 -4.8095 -4.35 -6.6035 -5.5565 -5.4015 -11.6984 
-8.886001 -8.512 -11.1425 -12.083 -12.7551 -5.881001 -9.029501 -6.6035 -8.147 -5.9845 -16.1523 
-12.391 -17.2513 -12.083 -16.8241 -12.7551 -10.688 -11.4244 -8.147 -9.226001 -17.4073 
-21.1303 -18.1918 -16.8241 -16.8241 -17.5621 -13.0829 -12.9679 -9.226001 -21.265 
