-4.759 
n/a 
n/a 
n/a 
n/a 
-4.759 
n/a 
n/a 
n/a 
n/a 
-4.759 
n/a 
n/a 
n/a 
n/a 
-4.759 
n/a 
n/a 
n/a 
n/a 
-4.251 -1.4985 -4.1145 -3.64 -2.186 -4.0835 -2.3345 -1.8085 -3.77 -5.1085 -3.6885 0 -5.2515 -2.4265 -2.186 -3.849 -2.5045 0 -4.1145 -3.3425 0 0 -2.0935 -3.668 -1.4985 -4.3435 -1.7565 -1.8085 -3.7285 -3.757 0 0 0 0 0 -2.186 -3.2955 -2.5045 -1.4985 -5.2585 -2.0935 -1.4985 -3.968 0 
-5.6885 -5.3525 -5.99 -6.0335 -5.3675 -5.376501 -3.8605 -6.588 -9.256001 -5.832001 -3.6885 -5.2515 -7.203 -3.292 -4.8565 -6.305 -2.5045 -4.1145 -7.0715 -3.3425 0 -2.0935 -3.995 -4.834 -5.6925 -5.325 -3.2595 -4.2045 -7.3205 -3.757 0 0 0 0 -2.186 -4.348001 -4.6545 -3.583 -7.3315 -6.9585 -2.9725 -5.888 -3.968 
-9.936701 -7.3005 -8.3175 -9.507 -7.073501 -6.838 -9.3605 -12.4084 -10.376 -5.832001 -9.259501 -7.203 -8.0125 -5.872 -7.104 -6.305 -7.450001 -7.0715 -7.0715 -3.3425 -2.0935 -3.995 -4.9465 -8.608001 -5.9175 -6.819 -5.396 -7.606 -7.3205 -3.757 0 0 0 -2.186 -4.348001 -5.574 -5.581 -9.3685 -8.7325 -8.0745 -7.826001 -5.888 
-11.8847 -9.910501 -12.5826 -10.6485 -8.255 -12.9606 -15.2551 -13.5284 -10.376 -12.4378 -11.3646 -8.0125 -10.259 -8.048 -7.104 -10.048 -8.514501 -7.0715 -7.0715 -5.306 -3.995 -4.9465 -8.7095 -8.844501 -7.3655 -8.26 -8.306001 -7.606 -7.3205 -3.757 0 0 -2.186 -4.348001 -5.574 -6.171 -12.1337 -11.1795 -9.5765 -13.32 -7.826001 
-14.4947 -14.2352 -13.7241 -12.6984 -14.5676 -18.8552 -16.3751 -13.5284 -16.9818 -14.5429 -12.1741 -10.259 -12.435 -8.048 -10.9768 -12.2975 -8.514501 -7.0715 -9.189 -7.016 -4.9465 -8.7095 -8.9175 -9.461 -9.13 -11.79 -8.306001 -7.606 -7.3205 -3.757 0 -2.186 -4.348001 -5.574 -6.171 -12.9501 -13.9447 -12.0235 -14.9112 -13.32 
-4.0955 -1.4985 -3.64 -1.934 -4.278 -2.8645 -2.664 -4.091 -3.866 -2.356 -2.664 -3.8015 -2.925 -6.115 -2.7415 -3.074 -3.9205 -2.5045 -4.1145 -5.6155 -3.668 0 -2.664 -3.522 -4.4665 -2.356 -2.664 0 0 0 -6.027 -3.3725 -4.2705 -2.791 -1.7695 -4.742 -2.3335 -1.934 -2.664 -8.217501 -3.673 
-5.571 -5.3715 -5.4425 -6.2645 -6.751 -4.7155 -7.965 -7.985001 -6.089 -4.135 -8.1855 -6.1155 -9.4355 -7.426 -4.727 -5.09 -4.449 -7.450001 -9.089001 -7.6735 -3.668 -2.664 -4.9235 -5.674 -5.207 -4.135 -2.664 0 0 -6.027 -9.762001 -8.830001 -5.721 -4.3355 -5.180501 -7.348001 -4.468 -4.0475 -12.0999 -12.4725 
-9.885 -6.7665 -8.953501 -9.2065 -7.1545 -10.264 -12.1382 -9.852 -7.3395 -9.376501 -10.476 -9.212001 -10.3435 -9.418 -6.877501 -5.1285 -9.3595 -12.8885 -10.57 -7.587 -5.6575 -4.9235 -9.489 -5.6765 -6.7045 -4.135 -2.664 0 -6.027 -9.762001 -15.6861 -10.5335 -6.2915 -7.427 -7.643001 -9.4475 -6.5755 -13.9674 -16.3549 
-11.4666 -9.5425 -12.1715 -10.61 -14.5264 -14.4372 -14.0052 -11.1053 -13.5084 -11.9794 -13.647 -10.6775 -12.0265 -11.3155 -7.0415 -9.8715 -14.9186 -13.682 -9.5485 -9.2565 -7.974 -9.489 -10.173 -9.248501 -6.7045 -4.135 -2.664 -6.027 -9.762001 -15.6861 -17.3896 -11.104 -9.249001 -9.674001 -10.0245 -12.01 -16.7856 -18.2224 
-14.2426 -13.3783 -13.575 -17.9819 -18.6996 -16.3042 -15.2585 -17.2742 -16.1113 -15.1504 -15.0945 -12.318 -14.4147 -11.7227 -12.0397 -15.6604 -15.7121 -13.682 -12.5402 -9.4925 -13.1573 -10.173 -13.931 -9.248501 -6.7045 -4.135 -7.4825 -9.762001 -15.6861 -17.3896 -17.9601 -14.0615 -11.473 -12.5379 -12.6332 -22.2201 -21.0406 
-2.871 -3.6765 -4.778 -1.7695 -3.7765 -1.4985 -3.802 0 -2.872 -3.893 -4.0955 -1.7695 -3.619 -1.4985 -2.688 -3.4715 0 -3.571 -3.6765 -2.8645 -3.788 -4.037 -1.4985 -3.802 -1.934 -1.4985 -5.8715 -2.95 -3.8405 0 -4.138 -4.768 -1.8085 -4.1755 -3.458 -1.4985 -4.9885 -3.7765 -1.756 -1.4985 -7.218 -3.7765 -2.3335 -3.3875 -2.489 -4.657 -4.933 0 
-5.168 -8.04 -5.0175 -5.128 -5.333 -4.846 -3.802 -2.872 -6.5245 -7.787001 -4.1555 -4.5275 -4.707 -3.702 -5.1755 -3.4715 -3.571 -5.3125 -5.5085 -4.979 -7.741 -6.005 -4.846 -5.623 -2.6125 -6.379001 -7.6415 -5.133 -3.8405 -4.138 -6.8765 -5.83 -4.882 -4.717 -4.063 -6.502501 -9.479 -5.777 -3.0405 -8.028001 -10.545 -6.737 -5.2735 -3.7975 -5.574 -8.5325 -4.933 
-9.311001 -8.094 -8.499001 -5.9315 -7.7375 -4.846 -6.426001 -6.5245 -9.0395 -7.880001 -6.277 -5.3675 -7.0575 -5.7565 -5.1755 -7.534 -5.3125 -7.5905 -7.7755 -8.9375 -8.476 -8.7605 -6.4345 -6.381001 -6.798501 -7.698 -8.821501 -5.133 -7.2 -6.8765 -7.7505 -9.1005 -5.9915 -5.304501 -9.4195 -11.285 -11.6547 -7.6825 -10.212 -13.096 -13.023 -9.978001 -5.405 -6.838 -8.634001 -8.5325 
-9.35 -10.66 -9.035001 -8.0635 -7.7375 -7.2995 -10.3045 -9.0395 -9.168 -9.867001 -7.1105 -7.3785 -9.085001 -5.7565 -9.349501 -10.396 -7.5905 -9.1035 -12.0716 -9.436501 -11.4689 -10.403 -7.1705 -10.76 -7.973001 -8.924001 -8.821501 -8.309 -9.887501 -7.7505 -10.586 -9.780001 -6.629 -10.6735 -14.3218 -13.4607 -13.5602 -15.3158 -14.9779 -15.7074 -16.6354 -10.0935 -7.599501 -9.389 -8.634001 
-10.6895 -11.8334 -10.6475 -8.0635 -9.354501 -11.6576 -12.8195 -9.168 -11.33 -10.4625 -9.871 -9.806001 -9.085001 -9.7005 -12.3381 -12.674 -9.1035 -13.8252 -12.5706 -12.4426 -13.1114 -11.139 -11.8925 -11.9345 -9.231001 -8.924001 -12.1499 -11.1207 -10.7635 -10.586 -11.3285 -10.0315 -12.1574 -15.5758 -16.4975 -15.3662 -21.1935 -20.0297 -17.4579 -19.3198 -16.7509 -10.7605 -10.3885 -9.389 
-4.62 0 -1.4985 -4.7535 -2.9905 -1.756 -4.0395 -1.7565 -4.1145 -3.64 -2.4945 -4.127 -2.3345 -1.8085 -4.957 -3.8015 -2.925 -3.6885 0 -2.3615 -2.186 -4.2125 -3.849 -2.5045 -4.1145 -3.397 -2.0935 -3.668 0 -3.034 -2.7295 -3.584 -1.8085 -4.7285 -1.7565 -1.8085 -3.397 -2.356 -3.757 -4.4525 -2.4265 -3.757 -2.3335 -2.7765 -2.489 -3.2955 -1.934 -1.8085 -6.4855 -3.254 0 
-4.62 -1.4985 -6.3175 -6.023001 -4.565001 -5.6685 -4.862 -6.695001 -5.99 -5.508 -5.790501 -5.081 -3.8605 -6.004001 -9.310501 -6.1155 -6.9525 -3.6885 -2.3615 -3.5005 -5.507 -5.943 -6.305 -7.450001 -7.131001 -5.5525 -3.995 -3.668 -3.034 -4.536 -5.649 -4.729 -5.717 -5.8525 -3.2595 -5.0865 -5.849 -6.491501 -7.6005 -7.064501 -5.0425 -4.6275 -4.267 -3.495 -3.979 -4.2285 -3.2685 -7.3055 -6.9985 -3.254 
-6.094 -6.3175 -7.5195 -7.415501 -9.562 -6.219 -9.6815 -7.364501 -8.0205 -9.1905 -6.726501 -6.678 -8.2165 -9.781 -9.666 -7.113 -6.9525 -6.3245 -3.5005 -6.8215 -6.535 -8.5825 -10.048 -9.064001 -9.1265 -7.086 -3.995 -5.746 -4.536 -6.794001 -7.171 -7.896 -6.5695 -7.375501 -6.357 -7.48 -10.8777 -10.209 -10.1765 -8.613501 -5.655 -7.941 -4.616 -4.532001 -4.8875 -5.518 -8.123 -7.415 -6.9985 
-11.2264 -7.5195 -8.384001 -10.0505 -10.2655 -11.3317 -10.1055 -10.0005 -10.533 -10.229 -7.901501 -11.758 -12.1243 -9.908501 -9.752001 -7.113 -9.348001 -7.0715 -6.8215 -7.4475 -8.962 -12.4287 -12.847 -11.6133 -11.3022 -7.086 -5.805501 -7.226501 -6.794001 -8.215 -10.2035 -10.564 -8.1905 -9.746501 -8.792001 -12.9521 -14.5952 -12.785 -11.7693 -9.226501 -9.848001 -8.262 -5.339 -5.53 -6.006 -10.574 -8.327001 -7.415 
-12.4284 -8.384001 -10.418 -10.3335 -15.4774 -11.7557 -12.8483 -10.5475 -12.9527 -11.43 -13.3597 -15.6658 -12.2518 -9.939001 -9.752001 -9.406 -9.8135 -9.986001 -7.4475 -10.476 -13.082 -15.2277 -15.3963 -13.789 -11.3022 -8.6765 -7.2925 -9.6955 -8.215 -10.7575 -12.8253 -12.185 -10.9939 -12.1815 -14.4313 -16.6696 -17.1712 -14.3778 -12.3823 -13.8301 -10.392 -8.7145 -6.2845 -6.4685 -11.2938 -10.767 -8.327001 
