-4.759 
n/a 
n/a 
n/a 
n/a 
-4.759 
n/a 
n/a 
n/a 
n/a 
-4.759 
n/a 
n/a 
n/a 
n/a 
-4.759 
n/a 
n/a 
n/a 
n/a 
-3.929 -2.4265 -2.7415 -2.6165 -2.9645 -3.4045 -1.756 -4.1195 -10.6925 -3.0695 -4.4895 -1.4985 -4.3005 -5.276 -3.074 -4.168 -4.278 
-5.029 -3.681 -4.266 -4.853 -7.1545 -5.058001 -5.74 -15.7284 -13.9906 -6.653 -5.623 -5.5975 -6.896001 -8.2755 -6.1765 -10.096 
-5.9705 -5.1275 -8.751 -8.969501 -9.509501 -9.781 -17.6289 -19.0265 -17.5741 -7.231 -9.2845 -8.0505 -9.805 -11.5464 -12.4785 
-7.14 -9.8155 -13.3107 -11.5827 -14.6353 -21.7419 -20.927 -22.61 -18.1521 -11.1709 -12.1773 -10.6875 -13.2327 -17.8484 
-12.004 -14.3752 -15.9239 -16.7085 -26.5962 -25.04 -24.5105 -23.188 -22.092 -14.0637 -14.8143 -14.1152 -19.5347 
-3.1495 -3.4765 -3.737 -1.7695 -3.046 -3.331 -8.486 -6.599 -3.711 -4.3845 -1.7695 -4.278 0 
-7.332001 -6.953001 -6.3935 -5.247 -4.9545 -13.02 -15.3158 -11.136 -9.108001 -5.0905 -5.35 -4.278 
-11.1587 -9.935 -10.1305 -7.06 -15.7523 -19.8498 -19.8528 -16.533 -9.7115 -5.388 -5.35 
-14.1407 -14.1662 -11.9435 -18.2722 -22.5821 -24.3868 -25.2498 -17.1365 -10.297 -5.388 
-18.3719 -15.9792 -23.1557 -25.102 -27.1191 -29.7838 -25.8533 -17.722 -10.297 
-2.872 0 -2.3335 -2.186 -4.368 -1.756 -3.074 -9.542001 -5.0915 -3.331 -1.7695 -5.579 -5.5165 -3.874 -4.38 -4.278 
-2.872 -2.3335 -3.7085 -5.577001 -5.852 -4.566 -13.6164 -14.8447 -6.961 -5.181 -7.678501 -12.0513 -9.772501 -8.872 -9.136 
-4.5445 -3.7085 -7.528 -6.6 -8.7355 -15.2944 -18.9191 -16.7142 -8.632501 -12.1338 -14.4786 -16.3073 -14.9287 -13.7938 
-5.501 -7.528 -8.716001 -9.544001 -19.7043 -20.5971 -20.7886 -18.3857 -16.0581 -18.9339 -18.7346 -21.4635 -19.8505 
-9.097501 -8.716001 -11.783 -20.6404 -25.007 -22.4666 -22.4601 -25.8113 -22.8582 -23.1899 -23.8908 -26.3853 
-4.2855 0 -3.046 -5.827 -3.074 -3.8255 -3.147 
-4.2855 -3.046 -7.476501 -8.915501 -6.526 -5.932 
-8.402 -7.476501 -11.121 -12.5425 -10.038 
-13.0355 -11.121 -14.748 -16.0545 
-16.68 -14.748 -18.26 
