-4.759 
n/a 
n/a 
n/a 
n/a 
-4.759 
n/a 
n/a 
n/a 
n/a 
-4.759 
n/a 
n/a 
n/a 
n/a 
-4.759 
n/a 
n/a 
n/a 
n/a 
-2.5045 -1.4985 -4.313 -4.179 -3.0365 -2.186 -3.845 -1.7565 -4.8565 -2.5195 -1.4985 -3.1385 -1.756 -1.4985 -3.9655 -4.231 0 
-3.1915 -4.758 -8.4785 -6.578501 -3.66 -7.268001 -4.13 -6.2885 -6.387 -3.1695 -4.2575 -4.6325 -3.0405 -4.9875 -6.0605 -4.231 
-5.0265 -8.679501 -10.523 -7.0695 -7.586 -7.64 -7.985001 -7.522 -6.982 -5.958 -5.7255 -5.789001 -6.3475 -7.344501 -6.0605 
-9.975 -10.688 -11.014 -11.2605 -7.731 -11.657 -8.765 -8.054501 -9.091001 -7.2565 -6.463 -8.540501 -8.595 -7.344501 
-11.9835 -11.179 -15.205 -11.4055 -11.7792 -12.437 -9.286501 -10.233 -10.2705 -8.4455 -8.884 -10.2485 -8.595 
-3.3715 -1.7565 -1.4985 -3.1385 -4.809 -1.7695 -2.664 -5.1645 -3.6885 0 
-4.3215 -2.4195 -4.2575 -8.659 -6.198 -4.185 -9.339001 -7.2655 -3.6885 
-4.7025 -5.013 -9.154 -9.906501 -8.557 -11.2606 -10.6225 -7.2655 
-6.522501 -9.972 -10.533 -12.2249 -15.8404 -12.5441 -10.6225 
-12.0061 -11.351 -12.8514 -19.5083 -17.1239 -12.5441 
-2.5195 -2.3335 -5.648 -2.4265 -2.7415 -4.896 -2.3345 -3.849 -3.1385 -1.756 -4.9725 0 
-4.9535 -9.176001 -7.4875 -3.681 -6.74 -6.413001 -5.658 -5.9635 -4.6325 -6.195 -4.9725 
-9.838 -11.2421 -8.309501 -7.9775 -7.2405 -8.737 -7.3295 -7.6145 -8.094501 -6.195 
-11.9691 -12.0641 -12.7304 -8.257 -9.2325 -10.5671 -8.618501 -11.4019 -8.094501 
-12.7911 -16.485 -13.0099 -10.2915 -11.1204 -11.8561 -12.5581 -11.4019 
-2.5195 -2.3335 -3.193 -1.934 -5.1845 -5.74 -3.6065 -3.1385 -1.756 -4.231 -3.335 -2.985 -6.0635 0 
-4.9535 -5.214 -4.837 -6.564 -5.7465 -10.7665 -5.8815 -4.6325 -6.032 -7.727 -5.911 -7.985 -6.0635 
-6.7545 -6.737 -9.899 -6.819 -10.757 -13.0415 -6.934 -8.104501 -10.061 -9.219501 -10.5225 -7.985 
-8.6095 -12.0896 -10.0105 -12.0681 -13.032 -14.094 -10.937 -12.3905 -11.5535 -14.016 -10.5225 
-14.0605 -12.2011 -15.2596 -14.3431 -14.0845 -18.097 -15.223 -13.883 -16.35 -14.016 
