-4.759 
n/a 
n/a 
n/a 
n/a 
-4.759 
n/a 
n/a 
n/a 
n/a 
-4.759 
n/a 
n/a 
n/a 
n/a 
-4.759 
n/a 
n/a 
n/a 
n/a 
-4.3955 -4.1395 -2.7765 -2.489 -3.4295 -3.254 0 -4.2775 -3.64 -2.4285 -3.8935 -5.759 0 
-9.453001 -6.689 -3.495 -5.469 -7.1635 -3.254 -4.2775 -7.1085 -5.851 -6.469501 -8.562 -5.759 
-12.0039 -7.323 -7.1845 -10.151 -7.1635 -8.0975 -7.1085 -8.9175 -9.887501 -11.2684 -8.562 
-12.6379 -11.3405 -12.1923 -10.151 -12.576 -11.3463 -8.9175 -13.1538 -14.771 -11.2684 
-16.6554 -16.3483 -12.1923 -15.5635 -15.8248 -13.1553 -13.1538 -18.0373 -14.771 
-4.299 -2.7765 -2.489 -1.8085 -8.0555 -2.9775 -2.4285 -2.664 -3.8755 -2.9775 -2.4285 -1.8085 -3.254 
-7.1045 -3.495 -3.799 -10.3624 -11.932 -5.093 -4.6775 -4.763 -7.0585 -5.093 -4.126 -4.394 
-7.5645 -4.987 -13.2135 -14.2389 -14.0475 -7.658501 -6.531 -7.904 -8.5325 -6.740001 -6.692 
-9.394501 -15.0007 -17.09 -16.3544 -16.613 -9.804501 -9.799001 -9.287001 -10.168 -9.287001 
-19.5612 -18.8772 -19.2055 -18.9199 -18.759 -13.1243 -11.2232 -10.271 -12.8388 
-3.881 -3.673 -2.882 -2.489 -3.741 -4.0535 -2.4285 -3.672 0 
-6.48 -6.9525 -3.631 -7.6565 -8.779 -6.2445 -5.0105 -3.672 
-9.656501 -7.418 -8.997001 -13.4155 -11.1698 -9.901001 -5.0105 
-10.0835 -13.3132 -14.8834 -15.8063 -14.8263 -9.901001 
-16.1235 -19.1996 -17.2742 -19.4628 -14.8263 
-4.3955 -3.355 -2.186 -1.934 -7.431 -3.8135 -2.4285 -3.7285 -2.9775 -2.4285 -3.7285 -3.8135 
-8.269 -5.3935 -4.0835 -10.1305 -11.9109 -6.075 -6.114 -5.624 -5.093 -6.114 -7.0015 
-9.901 -7.278501 -12.9066 -14.6104 -14.1724 -9.9585 -8.581501 -7.7405 -9.052 -9.633 
-11.9254 -16.3964 -17.3865 -16.8719 -18.0559 -12.5154 -11.0306 -10.259 -13.1828 
-21.0433 -20.8763 -19.648 -20.7554 -20.6128 -14.9645 -13.5491 -14.3898 
