-4.759 
n/a 
n/a 
n/a 
n/a 
-4.759 
n/a 
n/a 
n/a 
n/a 
-4.759 
n/a 
n/a 
n/a 
n/a 
-4.759 
n/a 
n/a 
n/a 
n/a 
-3.9415 -7.211 -3.939 0 -5.7865 0 0 -7.8 -4.116 0 
-11.6149 -11.7316 -3.939 -5.7865 -5.7865 0 -7.8 -12.6008 -4.116 
-16.1355 -11.7316 -10.2925 -5.7865 -5.7865 -7.8 -12.6008 -12.6008 
-16.1355 -18.0851 -10.2925 -5.7865 -14.7581 -12.6008 -12.6008 
-22.489 -18.0851 -10.2925 -14.7581 -19.5589 -12.6008 
-1.934 -3.9415 0 -12.16972 0 -5.7865 0 0 -4.0275 -3.685 0 
-5.2535 -3.9415 -12.16972 -12.16972 -5.7865 -5.7865 0 -4.0275 -7.307 -3.685 
-5.2535 -16.57362 -12.16972 -17.95622 -5.7865 -5.7865 -4.0275 -7.307 -7.307 
-18.39422 -16.57362 -17.95622 -17.95622 -5.7865 -10.9856 -7.307 -7.307 
-18.39422 -22.36012 -17.95622 -17.95622 -10.9856 -14.2651 -7.307 
-3.9415 0 -11.0905 0 -5.7865 0 0 -4.0275 -3.6505 0 
-3.9415 -11.0905 -11.0905 -5.7865 -5.7865 0 -4.0275 -6.8435 -3.6505 
-15.4944 -11.0905 -16.877 -5.7865 -5.7865 -4.0275 -6.8435 -6.8435 
-15.4944 -16.877 -16.877 -5.7865 -10.9856 -6.8435 -6.8435 
-21.2809 -16.877 -16.877 -10.9856 -13.8016 -6.8435 
-3.9415 0 -12.16972 0 -5.7865 0 0 -4.0275 -3.9825 0 
-3.9415 -12.16972 -12.16972 -5.7865 -5.7865 0 -4.0275 -7.633 -3.9825 
-16.57362 -12.16972 -17.95622 -5.7865 -5.7865 -4.0275 -7.633 -7.633 
-16.57362 -17.95622 -17.95622 -5.7865 -10.9856 -7.633 -7.633 
-22.36012 -17.95622 -17.95622 -10.9856 -14.5911 -7.633 
