-4.759 
n/a 
n/a 
n/a 
n/a 
-4.759 
n/a 
n/a 
n/a 
n/a 
-4.759 
n/a 
n/a 
n/a 
n/a 
-4.759 
n/a 
n/a 
n/a 
n/a 
-3.433 -1.7565 -3.1495 -4.2895 0 -6.946 -5.4695 -3.091 -4.8875 -1.7695 -3.429 -1.4985 -4.1865 -4.712 -3.193 -3.5715 -2.998 0 -4.9175 -2.5045 -3.616 -3.193 0 
-4.1845 -3.914 -5.9525 -4.2895 -6.946 -13.4531 -7.2945 -6.152 -6.570001 -4.032 -4.4635 -5.177 -7.3815 -5.7735 -6.7895 -5.4885 -2.998 -4.9175 -7.349 -6.2165 -7.1475 -3.193 
-6.337 -6.858 -5.9525 -11.1355 -13.4531 -15.2781 -8.57 -7.062 -8.432 -5.0395 -8.696 -8.053 -8.408 -8.215501 -8.134501 -5.4885 -7.427001 -7.349 -11.4344 -8.973001 -7.1475 
-8.061001 -6.858 -12.7793 -17.6426 -15.2781 -16.5536 -8.737 -8.696 -9.4175 -9.191 -11.7684 -9.255 -10.107 -8.545001 -8.134501 -8.4205 -9.649 -11.4344 -14.1909 -8.973001 
-8.061001 -13.907 -19.2864 -19.4676 -16.5536 -16.7206 -10.468 -9.658 -13.6422 -12.3434 -12.9704 -11.2258 -10.316 -8.545001 -10.223 -10.4035 -13.9164 -14.1909 -14.1909 
-4.8215 -3.1495 -4.2895 0 -6.946 -4.673 -3.091 -4.8875 -1.7695 -4.558 -1.4985 -4.712 -3.193 -1.7565 -3.8735 -3.5715 -7.9155 -2.5045 -1.8085 -3.616 -3.193 0 
-6.750501 -5.9525 -4.2895 -6.946 -12.6566 -7.416 -6.152 -6.570001 -5.03 -5.6595 -5.918 -5.7735 -4.5615 -5.112 -7.603001 -9.9175 -9.8585 -3.3625 -5.1065 -7.1475 -3.193 
-9.672001 -5.9525 -11.1355 -12.6566 -15.3996 -9.455 -7.062 -9.558001 -6.058001 -10.5535 -7.354001 -7.9735 -8.401501 -8.630501 -12.2225 -10.6425 -10.294 -6.597 -7.829 -7.1475 
-9.672001 -12.7793 -16.8461 -15.3996 -17.4386 -9.5165 -9.7775 -10.277 -11.1228 -12.0601 -8.352 -8.941001 -10.513 -10.8185 -12.035 -10.7345 -13.5027 -8.967501 -7.829 
-16.5616 -18.4899 -19.5891 -17.4386 -17.5001 -12.333 -10.3845 -15.3418 -12.6294 -13.0581 -9.800501 -10.543 -11.1375 -12.7934 -12.6074 -14.7808 -16.3968 -8.967501 
-1.934 -2.9635 -1.7565 -3.264 -4.2895 -6.946 -2.8645 -4.673 -3.091 -4.8875 -1.7695 -5.0675 -4.751 -3.5715 -4.9175 -2.5045 -3.616 -3.193 0 
-5.3075 -4.6005 -4.594 -8.383 -11.1355 -9.8225 -6.6045 -7.416 -6.152 -6.570001 -5.656 -10.8169 -6.914001 -7.5225 -7.349 -6.2165 -7.1475 -3.193 
-5.5885 -7.736 -9.889501 -15.4652 -14.012 -13.6355 -8.603001 -9.455 -7.062 -10.2925 -11.9966 -12.9799 -9.012001 -9.452001 -11.4344 -8.973001 -7.1475 
-8.7995 -13.5741 -16.9717 -18.3417 -17.825 -15.634 -10.7956 -9.5165 -10.7175 -16.6331 -14.1596 -15.0779 -11.0499 -13.607 -14.1909 -8.973001 
-14.8768 -20.6563 -19.8482 -22.1547 -19.8235 -17.8266 -10.8571 -13.273 -17.0581 -18.7961 -16.2576 -17.1158 -15.2049 -16.3635 -14.1909 
-4.9355 -3.1495 -4.2895 -3.098 0 -6.946 -3.849 -3.893 -3.091 -4.8875 -1.7695 -3.429 -12.16972 -4.712 -3.193 -1.7565 -3.5715 -2.998 0 -4.9175 -2.5045 -1.8085 -3.616 -3.193 0 
-7.553 -5.9525 -7.1565 -3.098 -6.946 -10.688 -5.8485 -5.718 -6.152 -6.570001 -4.032 -17.03492 -16.88172 -5.7735 -4.5615 -5.548 -5.4885 -2.998 -4.9175 -7.349 -3.3625 -5.1065 -7.1475 -3.193 
-9.820001 -8.8265 -7.1565 -11.0882 -10.688 -12.6875 -7.84 -8.7185 -7.062 -8.432 -17.91932 -21.74692 -17.94322 -7.9735 -6.8915 -7.547 -5.4885 -7.427001 -7.349 -7.994 -6.597 -7.829 -7.1475 
-12.694 -8.8265 -15.5461 -14.8302 -12.6875 -14.679 -9.439501 -9.232 -8.696 -22.65512 -22.63132 -22.80842 -20.14322 -10.9569 -10.1185 -7.547 -8.4205 -9.649 -7.994 -11.5167 -8.967501 -7.829 
-12.694 -17.3455 -19.2881 -16.8297 -14.679 -16.2785 -9.502501 -10.907 -23.08452 -27.36712 -23.69282 -25.00842 -23.12662 -14.1839 -10.1185 -10.057 -10.4035 -9.98 -11.5167 -13.8872 -8.967501 
