-4.759 
n/a 
n/a 
n/a 
n/a 
-4.759 
n/a 
n/a 
n/a 
n/a 
-4.759 
n/a 
n/a 
n/a 
n/a 
-4.759 
n/a 
n/a 
n/a 
n/a 
-5.9555 -4.7595 -1.4985 -4.1385 -5.043 -4.1865 -2.356 -4.2965 -6.6355 
-9.3795 -5.4655 -5.0575 -7.4725 -7.1615 -6.72 -7.071501 -12.3604 
-10.9191 -10.396 -8.5515 -7.5085 -9.889501 -11.8923 -15.3784 
-15.8496 -13.89 -8.575001 -10.0375 -15.164 -20.1992 
-19.3436 -13.9135 -10.6875 -15.343 -23.4709 
-4.7475 0 -1.4985 -3.891 -4.4605 -3.013 -2.674 -3.689 -4.0145 -1.7565 -4.9285 -1.7695 -4.644 0 
-4.7475 -1.4985 -5.2725 -7.613 -7.927501 -5.192 -5.776 -8.22 -5.004 -6.786 -6.0495 -5.409 -4.644 
-5.361001 -5.2725 -9.2845 -10.2035 -9.415001 -8.6055 -9.675501 -8.993 -10.218 -7.1935 -8.873 -5.409 
-9.399501 -9.2845 -12.0746 -12.5708 -12.7461 -12.5428 -10.4285 -14.211 -10.6255 -10.298 -8.873 
-13.5005 -12.0746 -14.4419 -15.9019 -16.6834 -13.2958 -15.6465 -14.6185 -13.73 -10.298 
-3.0415 -2.3335 -1.4985 -4.1975 -4.4605 -2.4945 -5.558 -2.5195 -4.0995 -5.3815 -4.299 -4.9285 -2.4945 -3.383 -3.689 0 
-4.132 -3.3515 -5.6635 -8.083 -6.583 -9.0345 -6.722 -6.823501 -8.752501 -8.7875 -9.234001 -5.601 -4.732 -7.358 -3.689 
-4.91 -7.5825 -9.1055 -10.028 -13.5478 -9.592001 -11.6646 -11.9869 -12.3743 -14.0583 -9.522 -7.565001 -8.540001 -7.358 
-9.415 -10.7025 -11.1497 -16.9928 -14.1053 -14.6192 -16.828 -15.6087 -17.6451 -14.3463 -11.6196 -9.908001 -8.540001 
-12.5944 -12.7467 -18.1145 -17.5503 -19.1325 -19.7826 -20.4498 -20.8795 -17.9331 -16.4439 -13.9626 -9.908001 
-2.6165 -4.1335 -2.5195 -2.3615 -4.335 -1.7695 -3.8565 -4.335 
-6.4515 -6.8385 -4.4095 -6.587 -5.5565 -5.800001 -8.573 
-8.755501 -9.153 -8.6745 -8.278501 -10.4398 -11.0581 
-10.7495 -13.6584 -10.1185 -13.4548 -15.6979 
-15.2549 -15.1024 -15.2948 -18.7129 
