-4.759 
n/a 
n/a 
n/a 
n/a 
-4.759 
n/a 
n/a 
n/a 
n/a 
-4.759 
n/a 
n/a 
n/a 
n/a 
-4.759 
n/a 
n/a 
n/a 
n/a 
-2.664 -2.915 -3.644 -2.3335 -1.4985 -3.915 -2.7415 -4.215 -3.2615 -1.8085 -3.849 -4.6945 -6.116 -4.8565 0 
-5.4045 -7.322001 -4.989501 -3.3515 -4.9745 -6.441501 -6.238501 -7.467 -4.417 -6.416 -6.0925 -9.2465 -8.436501 -4.8565 
-11.1433 -8.591001 -5.794001 -6.846 -6.81 -7.920001 -8.873 -8.566501 -8.0555 -8.258 -11.1507 -10.7185 -8.436501 
-12.4123 -9.377501 -9.248001 -8.06 -8.965501 -10.494 -9.9835 -12.431 -10.5975 -13.858 -12.6227 -10.7185 
-13.1988 -12.8315 -10.705 -9.8605 -11.6839 -11.6045 -13.848 -14.973 -16.1975 -15.33 -12.6227 
-1.4985 -3.8135 -3.644 -2.3335 -3.915 -2.7415 -4.215 -2.0935 -3.849 -4.6945 -5.6025 -3.9135 -2.5195 -2.3335 -3.5015 0 
-4.828 -7.5375 -4.989501 -6.0565 -6.441501 -6.238501 -6.754 -5.0605 -6.0925 -7.739501 -8.6035 -5.0745 -4.9535 -5.909 -3.5015 
-8.276001 -8.6715 -9.290001 -8.239 -7.920001 -8.274 -8.811001 -7.563001 -8.749001 -11.2739 -8.706 -7.2745 -7.314 -5.909 
-9.246501 -13.1164 -11.5097 -10.3475 -9.862501 -9.943001 -11.9841 -10.199 -12.5444 -11.3764 -11.1358 -9.261001 -7.314 
-13.6852 -15.3361 -13.6182 -12.29 -11.6203 -13.1677 -14.6201 -13.9944 -12.6469 -13.8062 -13.1223 -9.261001 
-1.4985 -3.915 -2.7415 -7.884 -1.7695 -4.6945 -2.229 -1.7565 -5.513 0 
-4.9745 -6.441501 -9.3655 -9.533501 -7.6545 -7.716001 -4.9155 -7.022 -5.513 
-6.81 -13.5717 -11.5012 -15.5665 -9.366 -7.978001 -9.055 -7.022 
-14.178 -15.7074 -17.5342 -17.278 -9.585501 -12.5563 -9.055 
-16.3137 -21.7404 -19.2457 -17.4975 -14.3038 -12.5563 
-3.3715 -1.7565 -6.116 -4.8565 -2.3335 -2.95 -3.383 -5.096 0 
-4.3215 -8.014501 -8.436501 -7.211 -4.8245 -6.7095 -10.1075 -5.096 
-12.0879 -10.085 -11.0512 -10.368 -8.079 -13.6754 -10.1075 
-14.1584 -12.6997 -14.2082 -13.6225 -15.2955 -13.6754 
-16.7731 -15.8567 -17.4627 -20.839 -15.2955 
