-4.759 
n/a 
n/a 
n/a 
n/a 
-4.759 
n/a 
n/a 
n/a 
n/a 
-4.759 
n/a 
n/a 
n/a 
n/a 
-4.759 
n/a 
n/a 
n/a 
n/a 
-1.934 -9.8535 0 -3.2615 -1.4985 -3.956 -1.7565 -12.16972 0 -12.16972 0 -3.0695 -2.186 -1.4985 -4.2245 -1.7565 -12.16972 0 
-10.061 -9.8535 -3.2615 -4.032 -4.8985 -4.932 -14.87542 -12.16972 -12.16972 -12.16972 -3.0695 -4.2675 -3.339 -5.219 -4.942 -14.87542 -12.16972 
-10.061 -13.6596 -4.032 -6.1535 -5.16 -18.91912 -14.87542 -24.33944 -12.16972 -15.23922 -4.2675 -5.455 -6.3155 -5.361001 -18.88252 -14.87542 
-14.1347 -14.4301 -6.1535 -6.1865 -19.37352 -18.91912 -27.04514 -24.33944 -15.23922 -16.43722 -5.455 -7.704 -6.3425 -19.61912 -18.88252 
-14.9052 -16.5516 -6.1865 -20.73582 -19.37352 -31.08884 -27.04514 -27.40894 -16.43722 -17.62472 -7.704 -7.7665 -20.92162 -19.61912 
-3.2615 -1.4985 -3.956 -1.7565 -7.359 -8.164001 -1.934 -11.4415 0 -8.8575 -8.164001 -4.2245 -1.7565 -12.16972 -4.3195 -1.4985 -3.9725 0 
-4.032 -4.8985 -4.932 -8.974501 -16.1518 -10.382 -14.5855 -11.6451 -8.8575 -17.6675 -12.9121 -4.942 -14.87542 -16.48922 -5.1515 -4.88 -3.9725 
-6.1535 -5.16 -13.0182 -18.1279 -18.3698 -23.3037 -14.5855 -20.6282 -17.6675 -22.4156 -13.6296 -18.88252 -19.19492 -17.32122 -7.9445 -4.88 
-6.1865 -13.4726 -22.1716 -20.3459 -31.2915 -23.3037 -23.5686 -29.4382 -22.4156 -23.1331 -27.57012 -23.20202 -20.02692 -20.11422 -7.9445 
-14.8349 -22.626 -24.3896 -33.2676 -31.2915 -32.2868 -32.3786 -34.1863 -23.1331 -37.07362 -31.88962 -24.03402 -22.81992 -20.11422 
-3.2615 -7.359 -6.864 -2.7415 -4.424 -1.934 -11.4415 0 -9.682501 -8.164001 0 -4.2245 -1.7565 -12.16972 -4.0555 -3.222 -3.9665 0 
-11.1165 -9.5745 -9.5625 -8.262 -5.195 -14.5855 -11.6451 -9.682501 -18.1137 -8.164001 -4.2245 -4.942 -14.87542 -16.22522 -5.5095 -5.515 -3.9665 
-13.332 -12.394 -15.1176 -9.086 -18.8237 -14.5855 -21.4532 -18.1137 -18.1137 -12.9121 -4.942 -18.88252 -18.93092 -17.67922 -6.4545 -5.515 
-16.1515 -17.9491 -15.9416 -22.8365 -18.8237 -24.3936 -29.8844 -18.1137 -22.8618 -13.6296 -18.88252 -22.93802 -20.38492 -18.62422 -6.4545 
-21.7066 -18.7731 -29.6921 -22.8365 -28.6318 -32.8248 -29.8844 -22.8618 -23.5793 -27.57012 -22.93802 -24.39202 -21.32992 -18.62422 
-6.28 -5.1185 -1.934 -8.7635 -8.164001 -3.2615 -3.956 -3.0465 -3.5435 -3.275 -1.7565 -12.16972 -4.2245 -1.7565 -8.8575 -8.164001 0 
-9.8835 -8.077001 -11.7039 -17.3321 -11.9491 -6.0445 -7.6055 -7.114501 -7.481501 -5.893 -14.87542 -16.39422 -4.942 -11.117 -17.6675 -8.164001 
-13.1395 -18.0851 -20.2725 -21.1172 -14.7321 -9.856501 -12.3979 -12.0507 -9.118 -19.65772 -19.09992 -17.11172 -15.1241 -19.927 -17.6675 
-23.1476 -26.6537 -24.0576 -23.9002 -18.5441 -14.6489 -17.3341 -13.6872 -23.42912 -23.88222 -19.81742 -27.29382 -23.9341 -19.927 
-31.7162 -30.4388 -26.8406 -27.7122 -23.3365 -19.5851 -18.9706 -27.99832 -27.65362 -24.59972 -29.99952 -36.10382 -23.9341 
