-4.759 
n/a 
n/a 
n/a 
n/a 
-4.759 
n/a 
n/a 
n/a 
n/a 
-4.759 
n/a 
n/a 
n/a 
n/a 
-4.759 
n/a 
n/a 
n/a 
n/a 
-2.872 -12.16972 -4.1 -2.7415 -4.2215 -3.098 -3.815 -3.8405 0 
-16.33872 -16.26972 -6.363 -7.882 -7.464001 -6.831 -5.7745 -3.8405 
-20.43872 -18.53272 -12.0949 -11.7453 -11.6496 -9.373 -5.7745 
-22.70172 -24.26462 -15.9582 -15.9309 -14.1916 -9.373 
-28.43362 -28.12792 -20.1438 -18.4729 -14.1916 
-2.872 -3.091 -5.362 -3.074 -4.948 -2.0935 -3.135 -3.8405 -3.098 
-5.351 -6.61 -8.707001 -7.434 -6.301001 -4.4665 -6.777 -6.6335 
-8.7325 -9.447001 -13.2578 -8.58 -8.173 -7.111501 -10.575 
-12.0925 -14.1416 -14.4038 -10.6674 -11.6036 -10.674 
-16.7871 -15.2876 -16.4912 -14.098 -15.1661 
-2.872 -3.1495 -3.5435 -3.8405 -6.920001 -1.7695 -3.383 -3.815 -4.763 0 
-5.392 -7.068 -7.9315 -11.7629 -10.155 -5.849 -5.583 -8.6555 -4.763 
-9.2825 -12.0938 -16.3939 -14.9979 -14.2345 -7.9995 -9.953501 -8.6555 
-14.5585 -20.5562 -19.6289 -19.0774 -16.385 -12.5438 -9.953501 
-23.0209 -23.7912 -23.7084 -21.2279 -20.9293 -12.5438 
-3.0365 -2.186 -2.847 -5.975 -3.458 -3.948 -6.864 -5.9885 -2.5045 -3.9135 -2.5045 -2.985 -5.2445 -2.186 -4.517 0 
-3.66 -4.1045 -8.561001 -7.412001 -6.358 -11.8424 -9.828001 -8.119 -4.7835 -4.7585 -5.065001 -7.3295 -7.4745 -5.439 -4.517 
-4.256001 -9.723001 -9.621 -10.396 -14.557 -14.8064 -11.9585 -10.27 -4.848 -7.135 -9.558001 -9.014 -10.0375 -5.439 
-9.7285 -10.3005 -12.6136 -18.595 -17.521 -16.9369 -14.1095 -10.413 -7.226501 -11.8666 -11.3089 -11.647 -10.0375 
-10.3 -13.3861 -20.8126 -21.559 -19.6515 -19.0879 -14.2525 -12.7915 -11.9889 -13.6175 -13.9419 -11.647 
