-4.759 
n/a 
n/a 
n/a 
n/a 
-4.759 
n/a 
n/a 
n/a 
n/a 
-4.759 
n/a 
n/a 
n/a 
n/a 
-4.759 
n/a 
n/a 
n/a 
n/a 
-2.3615 -4.6985 -2.186 -3.8755 -1.4985 -5.135 -4.35 0 -2.0935 -3.8245 -3.681 0 
-7.226 -6.187 -5.2415 -5.275 -6.139501 -6.176 -4.35 -2.0935 -5.878 -6.1385 -3.681 
-8.363501 -8.286501 -6.6415 -9.834001 -6.534 -6.176 -6.2755 -5.878 -8.017 -6.1385 
-9.84 -9.9125 -11.6459 -10.526 -6.534 -8.6215 -10.6666 -8.017 -8.017 
-11.6208 -14.9169 -12.3379 -10.526 -8.722501 -13.4188 -12.8056 -8.017 
-2.3615 -3.4625 -4.413 -3.898 -1.7565 -5.3625 -1.756 -3.074 -5.231 -2.5195 -1.4985 -5.0065 -1.7565 -1.4985 -3.7345 0 -4.816 -4.7195 -1.756 -4.491 -1.934 -1.4985 -3.3435 -1.7565 -2.8965 -5.3625 0 
-5.4775 -7.338 -8.654501 -4.9795 -7.2135 -6.8205 -4.566 -7.3625 -5.933001 -3.1695 -6.2015 -6.2445 -2.4195 -4.9965 -3.7345 -4.816 -6.535001 -6.0635 -6.2755 -5 -2.6125 -4.6745 -4.7005 -4.5345 -7.6225 -5.3625 
-8.6695 -12.0231 -9.824501 -9.636001 -8.409 -9.236 -8.665501 -8.3295 -8.448001 -8.037001 -6.576 -6.5535 -5.9725 -4.9965 -9.224501 -6.535001 -7.579 -9.9355 -6.9725 -5.9585 -5.4705 -5.03 -8.026501 -8.5965 -7.6225 
-13.1872 -13.1931 -14.4688 -10.9821 -10.757 -13.3965 -10.2135 -10.8107 -13.5753 -8.748501 -6.787 -9.972 -5.9725 -10.553 -10.587 -7.579 -11.798 -10.7615 -7.8815 -9.953 -5.757 -8.379001 -12.4775 -8.5965 
-14.3572 -17.8374 -15.8149 -13.3301 -14.9175 -14.9445 -12.6947 -15.938 -14.2868 -9.037001 -10.6749 -9.972 -11.6296 -11.9155 -11.631 -11.798 -12.624 -11.6705 -11.9916 -10.651 -9.4525 -12.9744 -12.4775 
-2.3615 -3.4625 -2.6165 -3.098 -3.8755 -1.4985 -3.599 -3.402 -5.1755 -4.454 -1.756 -5.135 -4.35 0 -2.872 -3.074 -1.4985 -3.995 -2.229 -5.7565 -3.9665 -4.554 -1.4985 -3.7075 -2.229 -5.634 -4.983 -1.756 -4.2705 -1.4985 -4.69 -1.7565 -3.8245 -5.1755 -2.264 -3.995 0 
-5.4775 -6.4865 -4.283 -7.032001 -5.275 -4.6155 -7.3905 -8.523001 -8.745001 -5.712 -6.6915 -6.176 -4.35 -2.872 -4.5415 -4.6505 -4.712 -5.324 -7.3285 -6.969501 -9.196501 -6.4325 -4.6235 -5.5255 -7.582 -6.988 -6.256001 -5.6125 -5.7555 -5.831 -5.6575 -5.058 -6.3815 -7.258501 -4.972 -3.995 
-8.4795 -7.409 -7.6285 -8.161 -8.835 -8.5775 -12.9365 -12.2305 -9.3745 -11.5889 -8.3195 -6.176 -7.099 -4.5415 -5.607 -8.467501 -5.586 -7.7215 -8.455501 -12.9115 -11.7334 -9.201501 -5.9985 -7.696 -7.928 -8.087001 -9.3935 -6.915 -9.7405 -6.066 -8.851501 -7.028 -8.250501 -7.989001 -4.972 
-8.901501 -11.2671 -8.4235 -11.9208 -13.0378 -14.5429 -16.644 -12.86 -15.7804 -13.2169 -8.3195 -8.438001 -8.439 -5.607 -9.279501 -9.3 -7.8815 -8.812 -14.6601 -15.4484 -14.5024 -9.527 -7.703501 -7.936 -9.153 -10.5745 -10.9506 -11.1568 -9.821 -9.085501 -9.5755 -8.863501 -8.6025 -7.989001 
-12.9264 -12.0621 -12.2625 -16.1236 -19.0032 -18.2504 -17.2735 -19.2659 -17.4084 -13.2169 -11.0761 -9.596001 -9.354 -9.279501 -10.013 -11.7399 -9.0325 -15.0016 -17.197 -18.2174 -14.8279 -9.997001 -7.9455 -9.1695 -11.7621 -12.1316 -15.1924 -11.2373 -12.8245 -9.773001 -11.5372 -9.335501 -8.6025 
-2.3615 -3.6615 -1.7565 -1.4985 -3.898 -1.7565 -5.3625 -1.934 -1.4985 -3.3755 -1.7565 -3.7805 -4.6205 -1.4985 -5.135 -4.35 0 -1.4985 -4.692 -3.519 -1.7565 -1.4985 -3.995 -1.756 -1.4985 -3.845 -4.983 -4.69 -1.4985 -4.816 -5.35 -4.983 -2.5195 -1.4985 -5.34 -1.756 -5.197 -1.4985 -3.3435 -1.7565 -1.4985 -5.1755 0 
-6.610001 -5.606 -2.4195 -5.0465 -4.9795 -7.2135 -6.9585 -2.6125 -4.057 -4.5295 -5.09 -8.004001 -5.723 -6.139501 -6.176 -4.35 -1.4985 -5.687 -7.446501 -4.6225 -2.4195 -4.712 -5.3025 -3.0405 -4.987 -8.022 -9.6945 -6.032 -6.3195 -8.336 -9.559 -6.811501 -3.1695 -6.2865 -6.3935 -6.21 -5.8515 -4.6745 -4.7005 -2.4195 -6.662001 -5.1755 
-9.5185 -6.3745 -6.246 -5.3325 -9.636001 -8.795 -7.6185 -5.1455 -5.3375 -8.237 -9.121 -8.742001 -9.953501 -6.534 -6.176 -6.095 -5.687 -8.323501 -8.682501 -5.315 -5.2205 -5.7925 -6.282 -6.4585 -8.9265 -13.0777 -11.4175 -11.1874 -9.01 -12.7954 -11.5859 -7.275001 -7.9625 -7.442 -10.1425 -6.754 -8.6315 -5.03 -5.3325 -7.236501 -6.662001 
-10.505 -9.848001 -6.834001 -10.3955 -11.3681 -9.408001 -10.3095 -5.606501 -8.3955 -12.5102 -10.348 -13.5677 -10.602 -6.534 -7.655 -9.1455 -8.323501 -8.773001 -9.227501 -8.29 -6.3135 -6.587501 -9.1675 -10.503 -14.17 -14.8007 -16.5729 -13.8779 -13.714 -14.8223 -12.0494 -10.0605 -8.976001 -11.355 -10.433 -9.7415 -9.070001 -5.548 -10.081 -7.236501 
-13.9785 -10.582 -11.9968 -12.1276 -11.9811 -12.2016 -10.7705 -9.231501 -12.8067 -13.7372 -15.1737 -14.2162 -10.602 -7.757 -11.0923 -11.9474 -8.773001 -9.336501 -10.6885 -9.351001 -7.080501 -10 -13.9216 -15.7465 -15.893 -19.9561 -19.2634 -18.5819 -15.7409 -15.2858 -14.8349 -11.1676 -12.9682 -11.6455 -13.4205 -10.206 -9.544001 -10.2535 -10.081 
