-4.759 
n/a 
n/a 
n/a 
n/a 
-4.759 
n/a 
n/a 
n/a 
n/a 
-4.759 
n/a 
n/a 
n/a 
n/a 
-4.759 
n/a 
n/a 
n/a 
n/a 
-3.17 -1.7565 -8.27 -3.1385 -3.8245 -1.934 -4.235 0 -7.101 -1.934 -6.557 -3.8045 0 0 -5.5825 -4.5875 -3.074 -4.235 -3.3435 -2.229 
-4.179 -9.440001 -11.8353 -5.577001 -4.7245 -6.7545 -4.235 -8.184 -10.576 -7.536 -10.703 -3.8045 0 -5.5825 -9.43 -8.467 -8.43 -6.8285 -5.37 
-13.1867 -13.0639 -14.2738 -5.9835 -9.006001 -6.7545 -13.3326 -10.8922 -16.9628 -11.9298 -10.703 -3.8045 -5.5825 -9.43 -13.4653 -14.2734 -10.76 -9.899 
-16.8106 -15.5024 -14.6803 -9.769001 -9.006001 -16.1791 -16.0408 -16.9628 -21.3566 -11.9298 -10.703 -10.038 -9.43 -13.4653 -19.2717 -16.6034 -13.8305 
-19.2491 -15.9089 -18.4658 -9.769001 -18.5502 -18.8873 -22.1114 -21.3566 -21.3566 -11.9298 -16.9365 -13.8855 -13.4653 -19.2717 -21.6017 -19.6739 
-2.5045 -3.17 -1.7565 -1.4985 -5.1845 -3.1385 -3.511 -1.934 -4.235 0 -7.639 0 -5.1845 -5.74 -3.786 0 0 -3.59 -4.0815 -3.914 -4.849 -1.4985 -3.598 -1.7565 -4.235 0 
-5.6 -4.179 -2.4195 -6.5205 -7.4095 -5.979 -4.582 -6.7545 -4.235 -8.5895 -8.5895 -5.1845 -5.7465 -9.781 -3.786 0 -3.59 -8.269001 -8.6455 -8.856001 -5.3535 -5.213 -4.922 -6.502501 -4.235 
-6.159 -4.497 -7.2335 -7.6315 -9.967001 -6.5055 -9.0515 -6.7545 -13.5855 -8.5895 -13.9992 -5.7465 -9.797001 -9.781 -3.786 -3.59 -8.269001 -13.176 -14.2265 -9.491501 -8.4855 -5.729 -9.8065 -6.502501 
-6.555501 -9.278501 -8.087501 -10.5745 -10.4155 -10.459 -9.0515 -16.432 -13.5855 -13.9992 -14.2307 -9.797001 -9.797001 -9.781 -8.035501 -8.269001 -13.176 -18.757 -14.862 -12.6235 -8.903001 -10.9307 -9.8065 
-11.403 -10.355 -11.0841 -11.023 -14.369 -10.459 -18.7536 -16.432 -18.9952 -14.2307 -19.1288 -9.797001 -9.797001 -14.0305 -13.1325 -13.176 -18.757 -19.3925 -17.994 -13.041 -14.7099 -10.9307 
-3.433 -1.7565 -3.17 -1.7565 -1.4985 -8.27 -3.511 -1.934 -5.0575 0 -14.196 -3.786 0 0 -3.59 -3.914 -4.4615 -5.0405 -1.4985 -4.235 -2.229 -3.9035 0 
-4.1845 -5.268 -4.179 -2.4195 -9.271501 -11.1355 -4.582 -6.7185 -5.0575 -15.4025 -19.3785 -3.786 0 -3.59 -8.2165 -8.481001 -10.8924 -6.627501 -5.058001 -6.5435 -6.8015 -3.9035 
-8.798 -6.02 -4.497 -10.016 -12.1192 -12.2065 -8.078 -6.7185 -20.6047 -19.5897 -19.5897 -3.786 -3.59 -8.2165 -12.8329 -15.1785 -12.4794 -10.7175 -6.768001 -11.5792 -6.8015 
-9.214001 -6.2395 -12.6295 -12.8637 -13.1902 -15.7025 -8.078 -22.7789 -24.5807 -19.5897 -19.5897 -8.035501 -8.2165 -12.8329 -19.5304 -16.7655 -16.5694 -12.4275 -12.0043 -11.5792 
-9.4905 -14.4024 -15.4772 -13.9347 -16.6862 -15.7025 -24.293 -26.7549 -24.5807 -19.5897 -23.8392 -13.08 -12.8329 -19.5304 -21.1174 -20.8555 -18.2794 -17.6638 -12.0043 
-3.17 -1.7565 -1.4985 -8.27 -3.511 -1.934 -4.235 0 -3.668 -13.2275 0 0 -12.16972 -5.147 -4.8845 -2.7455 -4.235 
-4.179 -2.4195 -9.271501 -11.1355 -4.582 -6.7545 -4.235 -3.668 -18.763 -13.6735 0 -12.16972 -17.31672 -10.4035 -6.2255 -7.757 
-4.497 -10.016 -12.1192 -12.2065 -9.0515 -6.7545 -8.7305 -19.2674 -19.2674 -13.6735 -12.16972 -17.31672 -22.57322 -11.7445 -11.7452 
-12.6295 -12.8637 -13.1902 -16.676 -9.0515 -11.577 -24.6377 -19.2674 -19.2674 -26.18062 -17.31672 -22.57322 -23.91422 -17.2642 
-15.4772 -13.9347 -17.6597 -16.676 -13.8986 -27.4842 -24.6377 -19.2674 -31.77452 -31.32762 -22.57322 -23.91422 -29.43392 
