-4.759 
n/a 
n/a 
n/a 
n/a 
-4.759 
n/a 
n/a 
n/a 
n/a 
-4.759 
n/a 
n/a 
n/a 
n/a 
-4.759 
n/a 
n/a 
n/a 
n/a 
-6.899 -4.257 -3.9535 -12.16972 -4.0715 -1.934 -3.333 -1.7695 -4.544 -1.4985 -6.885 -3.59 -2.5195 -1.4985 -4.891 -1.934 -4.393 
-9.082001 -8.0555 -17.31102 -16.24122 -5.563 -3.9835 -4.022 -5.208 -5.429 -8.642501 -9.4045 -6.056 -3.1695 -5.891001 -6.693501 -5.6055 
-12.9717 -21.73022 -21.38252 -17.73272 -7.354001 -4.0425 -6.946 -5.7495 -13.2108 -11.4976 -13.6487 -6.6315 -7.964 -7.420501 -10.022 
-26.64642 -25.80172 -22.87402 -19.52372 -7.388 -6.95 -7.3615 -13.5837 -16.0659 -15.7418 -14.2242 -11.97 -9.146501 -10.2975 
-30.71792 -27.29322 -24.66502 -19.55772 -10.2925 -7.365 -15.3327 -16.4388 -20.3101 -16.3173 -19.5627 -13.1525 -12.2457 
-1.934 -4.393 -1.4985 -6.6585 -4.257 -3.251 -1.4985 -10.5065 -2.5195 -4.891 -3.0415 -2.925 -3.8755 -4.0715 -9.377001 -3.9535 0 
-5.6055 -5.9595 -9.0305 -9.5415 -7.3545 -5.0745 -13.0988 -13.4918 -8.022 -8.385 -4.8045 -6.298 -8.6705 -14.3527 -13.7487 -3.9535 
-6.6455 -13.7387 -10.75 -12.8048 -10.054 -17.0318 -16.0841 -18.9943 -11.9214 -9.7705 -7.843 -11.3262 -18.9995 -18.7244 -13.7487 
-14.6895 -15.4582 -14.0133 -15.5043 -22.0113 -20.0171 -21.5866 -22.8937 -13.3069 -12.8088 -13.2086 -21.6552 -23.3712 -18.7244 
-16.409 -18.7215 -16.7128 -27.4616 -24.9966 -25.5196 -25.486 -24.2792 -16.3452 -18.1744 -23.5376 -26.0269 -23.3712 
-1.934 -4.393 -4.1865 -4.257 -3.9485 -2.356 -6.899 -4.257 -4.4175 0 -4.0715 -5.3745 0 -1.7695 -3.429 -3.251 -1.4985 -12.16972 -2.5195 -4.5845 
-5.6055 -8.679501 -6.7985 -7.9955 -4.311 -8.918501 -9.082001 -8.6415 -4.4175 -4.0715 -9.1805 -5.3745 -1.7695 -4.032 -5.863 -5.0745 -14.76202 -14.68922 -6.9255 
-9.948001 -9.872 -9.964001 -8.2325 -11.2945 -11.2845 -13.5577 -8.6415 -9.253 -9.1805 -9.1805 -7.734 -4.032 -6.399 -6.4125 -18.69502 -17.28152 -19.09522 
-11.2315 -14.2331 -10.199 -15.4014 -13.6605 -15.7602 -13.5577 -13.9026 -14.4654 -9.1805 -10.7605 -10.01 -6.399 -7.0745 -20.87982 -21.21452 -21.68752 
-15.5926 -14.4681 -17.3679 -17.7674 -18.1362 -15.7602 -18.8188 -19.115 -14.4654 -10.7605 -13.0365 -12.495 -7.0745 -21.46382 -23.39932 -25.62052 
-1.934 -4.393 -1.934 -2.9635 -1.7565 -10.7545 -8.461 -10.9655 -2.5195 -6.144 0 -6.899 -4.0415 -3.9535 -1.8085 -4.0695 -3.849 -8.1995 -5.3745 
-5.6055 -6.4575 -5.3075 -4.6005 -13.4602 -19.2155 -19.6015 -13.485 -8.4255 -6.144 -6.899 -9.7065 -8.547501 -5.581 -5.5775 -7.8625 -11.1415 -13.892 
-7.1455 -9.507501 -5.5885 -16.8352 -21.9212 -30.356 -22.121 -19.391 -8.4255 -10.6095 -9.7065 -14.2125 -9.9755 -8.959001 -8.6575 -15.4102 -16.834 
-10.208 -9.5155 -18.6462 -25.2962 -33.0617 -32.8755 -28.027 -19.391 -13.1494 -13.417 -14.2125 -15.6405 -13.3535 -12.226 -16.2508 -21.1027 
-10.216 -22.7424 -27.1072 -36.4367 -35.5812 -38.7815 -28.027 -24.1149 -15.9569 -17.923 -15.6405 -19.0185 -16.6205 -19.8193 -21.9433 
