-4.759 
n/a 
n/a 
n/a 
n/a 
-4.759 
n/a 
n/a 
n/a 
n/a 
-4.759 
n/a 
n/a 
n/a 
n/a 
-4.759 
n/a 
n/a 
n/a 
n/a 
-1.4985 -4.703 -3.599 -4.5485 -3.7515 -1.4985 -3.873 -4.993 -1.4985 -4.238 -1.934 -1.8085 -5.005 -4.412 0 
-5.891001 -7.6415 -8.734 -7.7325 -4.6795 -4.7405 -9.0755 -5.7885 -5.068501 -6.1435 -3.2685 -5.9755 -8.289001 -4.412 
-8.796501 -13.3511 -12.0622 -8.0045 -8.061501 -9.696 -9.984 -10.0885 -6.6555 -7.726501 -6.7575 -8.406501 -8.289001 
-14.3875 -16.6793 -12.3342 -11.6757 -13.2374 -10.705 -14.3994 -11.6755 -8.0695 -11.5169 -8.410501 -8.406501 
-17.7157 -16.9513 -16.0054 -16.8516 -14.2464 -15.1204 -15.9864 -13.0895 -12.0319 -13.1699 -8.410501 
-5.254 -4.5485 -1.934 -1.4985 -4.285 -3.892 -1.7565 -3.995 -4.2615 -4.6985 -1.934 -5.598 -3.7075 
-8.946501 -5.4015 -2.6125 -4.774 -7.581 -5.131001 -5.423 -8.8315 -10.051 -6.1835 -7.4615 -8.785501 
-9.796 -6.093 -5.297 -7.8065 -7.916 -8.571 -10.543 -15.0474 -11.7596 -12.3496 -11.0906 
-9.998501 -8.109 -8.164001 -8.0715 -12.017 -14.119 -16.7589 -16.756 -17.9257 -15.9787 
-12.1147 -10.1985 -8.4095 -12.2263 -17.565 -20.3349 -18.4675 -22.9221 -21.5548 
-3.4715 -5.9505 -3.8755 -1.934 -1.4985 -4.285 -4.35 -1.7565 -3.995 -4.101 -1.7695 -4.6985 -1.934 -5.598 -3.333 0 
-6.5855 -9.818501 -5.2035 -2.6125 -4.774 -6.4325 -5.3865 -5.423 -8.259501 -4.6905 -7.1675 -6.1835 -7.4615 -8.0895 -3.333 
-10.298 -11.3733 -5.851 -5.297 -6.806 -7.509501 -8.080001 -9.856501 -9.395 -10.7175 -8.723001 -12.3496 -8.775001 -8.0895 
-11.833 -12.0208 -8.910001 -7.766001 -7.666 -9.429501 -13.0323 -11.0282 -15.459 -12.273 -15.0905 -13.6631 -8.775001 
-12.4805 -15.0798 -10.354 -8.356501 -9.485001 -14.9006 -14.204 -17.0922 -17.0145 -18.6405 -16.404 -13.6631 
-3.4715 -5.254 -4.2785 -3.3255 -4.1455 -5.7545 -2.186 -5.4035 -2.3345 -6.0005 -4.4605 -1.934 -1.4985 -4.6985 0 
-5.9495 -8.501 -6.566 -7.639501 -7.9755 -7.43 -6.5225 -6.4415 -8.373501 -9.23 -5.673 -2.6125 -5.1995 -4.6985 
-9.099501 -10.468 -10.1995 -9.8085 -9.3205 -10.396 -7.5135 -10.5635 -10.5535 -10.093 -6.2865 -5.99 -5.1995 
-10.5645 -10.6125 -10.6055 -10.6005 -10.5985 -10.6215 -10.6095 -10.615 -10.6155 -10.2395 -9.1195 -5.99 
-10.616 -10.632 -10.637 -10.632 -10.63 -10.6415 -10.6295 -10.6345 -10.635 -10.6125 -9.1195 
