-4.759 
n/a 
n/a 
n/a 
n/a 
-4.759 
n/a 
n/a 
n/a 
n/a 
-4.759 
n/a 
n/a 
n/a 
n/a 
-4.759 
n/a 
n/a 
n/a 
n/a 
-2.872 -3.0365 -2.186 -3.135 -3.8475 -4.809 -1.7695 -2.3615 0 
-4.651 -3.66 -5.2115 -8.313001 -9.247001 -6.198 -3.736 -2.3615 
-5.2045 -5.4775 -10.335 -13.8945 -10.4775 -8.1335 -3.736 
-6.936501 -10.4105 -16.1817 -15.125 -12.413 -8.1335 
-12.0771 -16.3324 -17.4122 -17.0605 -12.413 
-3.929 0 -3.135 -4.925 -2.4945 -5.839 -2.5195 -2.3615 -4.1 0 
-3.929 -3.135 -7.415 -6.693 -6.8235 -6.197 -4.4095 -5.416 -4.1 
-5.9745 -7.415 -8.682501 -10.228 -6.9595 -7.493 -7.422501 -5.416 
-10.159 -8.682501 -12.3897 -10.4675 -8.0565 -8.639 -7.422501 
-11.4265 -12.3897 -12.6292 -11.5645 -9.2745 -8.639 
-3.6705 -4.0005 -3.288 -4.2215 -4.0435 -2.3615 -4.244 0 
-6.7755 -7.473001 -8.068501 -6.9995 -6.3 -6.7965 -4.244 
-10.4425 -12.8963 -11.3161 -9.047001 -10.038 -6.7965 
-15.8658 -16.1439 -13.3636 -13.0098 -10.038 
-19.1134 -18.1914 -17.3264 -13.0098 
-3.4765 -3.321 -3.135 -4.8965 -3.711 -1.7565 -3.1385 -2.4945 -3.074 -3.333 -1.934 -3.691 0 
-5.827001 -5.9135 -7.283 -8.311001 -5.041 -4.388 -4.588 -4.4205 -4.8285 -4.374 -4.8225 -3.691 
-7.9045 -10.2873 -10.4855 -8.877501 -6.1475 -5.892 -6.9715 -5.442 -5.5465 -6.865 -4.8225 
-12.5447 -13.4898 -11.052 -11.0272 -7.692 -8.362501 -8.906 -6.5055 -8.869 -6.865 
-15.7472 -14.0563 -13.2017 -12.5717 -9.7635 -10.487 -10.2485 -9.547001 -8.869 
