-4.759 
n/a 
n/a 
n/a 
n/a 
-4.759 
n/a 
n/a 
n/a 
n/a 
-4.759 
n/a 
n/a 
n/a 
n/a 
-4.759 
n/a 
n/a 
n/a 
n/a 
-4.245 0 -4.4975 0 -1.756 -3.594 0 
-4.245 -4.4975 -4.4975 -1.756 -5.3155 -3.594 
-6.982 -4.4975 -5.581501 -5.3155 -5.3155 
-6.982 -5.581501 -7.953501 -5.3155 
-7.701001 -7.953501 -7.953501 
-4.245 0 -4.4975 -1.756 -3.594 
-4.245 -4.4975 -5.581501 -5.3155 
-6.982 -5.581501 -7.953501 
-7.701001 -7.953501 
-9.119 
-4.245 0 -4.4975 -1.756 -3.7865 
-4.245 -4.4975 -5.581501 -5.7705 
-6.982 -5.581501 -8.555501 
-7.701001 -8.555501 
-10.354 
-4.5375 0 -4.4975 -1.756 -3.594 
-4.5375 -4.4975 -5.581501 -5.3155 
-8.981001 -5.581501 -7.953501 
-10.3825 -7.953501 
-12.7545 
