-4.759 
n/a 
n/a 
n/a 
n/a 
-4.759 
n/a 
n/a 
n/a 
n/a 
-4.759 
n/a 
n/a 
n/a 
n/a 
-4.759 
n/a 
n/a 
n/a 
n/a 
-4.5065 -4.6805 -1.7565 -3.062 -3.468 -1.756 -3.54 -3.8265 -4.846 -2.4265 -4.2265 -1.4985 -4.887 -2.356 -4.4465 0 -4.474 0 -10.914 0 -8.788 0 -1.756 -10.738 
-9.246 -4.722 -5.24 -6.847 -4.7175 -5.1005 -7.280001 -7.8585 -7.341001 -6.619 -5.754 -5.927 -6.549 -7.2605 -4.4465 -4.474 -4.474 -10.914 -10.914 -8.788 -8.788 -1.756 -13.5026 
-9.2605 -7.5865 -8.184501 -7.5575 -7.7115 -8.6635 -9.193501 -9.597 -10.76 -7.333 -10.27 -7.685 -9.0815 -7.2605 -7.087 -4.474 -16.4752 -10.914 -19.702 -8.788 -10.3165 -13.5026 
-10.1875 -9.808001 -9.049001 -9.6315 -9.295501 -9.3415 -10.323 -13.6818 -11.474 -12.2016 -10.4055 -9.873501 -9.0815 -9.658501 -7.087 -16.4752 -16.4752 -19.702 -19.702 -10.3165 -22.0631 
-10.195 -10.1575 -10.1345 -9.9315 -9.368501 -10.6225 -14.6224 -14.3958 -16.3426 -12.3371 -12.594 -9.873501 -11.9029 -9.658501 -20.0896 -16.4752 -25.2632 -19.702 -21.2305 -22.0631 
-2.3615 -3.59 -2.8645 -3.062 -3.468 -1.756 -3.54 -4.267 -4.922 -2.3615 -3.59 -4.2265 -1.4985 -4.887 -2.356 -4.4465 0 -4.474 0 -4.348 0 -7.152 -1.756 -10.738 0 
-5.0215 -5.794 -6.733 -6.847 -4.7175 -5.1005 -7.729 -8.924 -7.507501 -5.0215 -8.071001 -5.754 -5.927 -6.549 -7.2605 -4.4465 -4.474 -4.474 -4.348 -4.348 -7.152 -8.621 -13.5026 -10.738 
-6.573 -9.84 -9.6885 -7.5575 -7.7115 -8.951 -12.7844 -11.5669 -9.903501 -9.4135 -9.14 -10.27 -7.685 -9.0815 -7.2605 -7.087 -4.474 -7.3075 -4.348 -10.089 -8.621 -20.5922 -13.5026 
-10.9652 -12.7955 -10.506 -9.6315 -12.2172 -14.291 -15.4273 -13.9629 -14.6705 -10.3825 -13.8552 -10.4055 -9.873501 -9.0815 -9.658501 -7.087 -7.3075 -7.3075 -10.089 -11.558 -20.5922 -20.5922 
-13.9207 -13.613 -12.58 -14.5436 -17.5572 -16.9339 -17.8233 -18.7299 -15.6395 -15.0977 -13.9907 -12.594 -9.873501 -11.9029 -9.658501 -8.723001 -7.3075 -13.8955 -11.558 -23.5292 -20.5922 
-3.062 -3.468 -1.756 -2.461 -4.794 -4.846 -2.4945 -3.9285 -1.934 -2.3615 -3.59 0 -4.2265 -3.1435 -4.846 -2.356 -4.4465 0 -4.474 0 -4.348 0 -4.5275 -1.756 -5.227 0 
-6.847 -4.7175 -4.711 -8.231501 -10.7224 -6.9825 -5.071 -4.3695 -3.539 -5.0215 -3.59 -4.2265 -6.8465 -6.709001 -7.101 -7.2605 -4.4465 -4.474 -4.474 -4.348 -4.348 -4.5275 -6.266 -7.0525 -5.227 
-7.5575 -7.726501 -10.411 -14.3567 -12.8589 -8.7685 -5.383 -5.392 -5.3335 -5.0215 -8.071001 -6.8465 -11.0194 -8.794001 -12.4287 -7.2605 -7.087 -4.474 -7.3075 -4.348 -7.4025 -6.266 -9.181001 -7.0525 
-9.76 -13.7811 -16.5362 -16.4932 -14.6449 -8.990001 -6.364501 -9.762001 -5.3335 -9.4135 -9.535001 -11.0194 -13.1044 -14.6305 -12.4287 -9.658501 -7.087 -7.3075 -7.3075 -7.4025 -8.558001 -9.181001 -9.181001 
-16.1106 -19.9063 -18.6727 -18.2792 -14.8664 -10.2875 -10.8601 -9.762001 -9.587501 -11.0655 -14.0535 -13.1044 -18.9409 -14.6305 -14.8267 -9.658501 -8.723001 -7.3075 -9.217501 -8.558001 -12.2786 -9.181001 
-4.5065 -2.8645 -3.062 -3.1715 -2.356 -3.54 -4.0375 -4.846 -4.23 -1.4985 -4.1355 -2.356 -4.4465 0 -4.474 0 -4.348 0 -1.756 -4.972 
-7.093 -6.733 -6.885 -5.773 -5.284 -8.120501 -7.251501 -9.311001 -5.581 -5.2415 -6.123001 -7.2605 -4.4465 -4.474 -4.474 -4.348 -4.348 -1.756 -7.443 
-10.3545 -9.6885 -10.3285 -8.5535 -10.0575 -9.762 -12.4075 -10.4435 -9.5175 -6.489 -8.209001 -7.2605 -7.087 -4.474 -7.3075 -4.348 -6.0835 -7.443 
-13.7084 -13.3716 -13.109 -13.457 -11.699 -14.9968 -13.54 -14.38 -9.7135 -8.487 -8.209001 -9.658501 -7.087 -7.3075 -7.3075 -6.0835 -8.1115 
-17.3915 -16.1521 -18.0125 -15.0985 -16.9338 -16.1293 -17.4765 -14.576 -11.8493 -8.487 -10.814 -9.658501 -8.723001 -7.3075 -8.2725 -8.1115 
