-4.759 
n/a 
n/a 
n/a 
n/a 
-4.759 
n/a 
n/a 
n/a 
n/a 
-4.759 
n/a 
n/a 
n/a 
n/a 
-4.759 
n/a 
n/a 
n/a 
n/a 
-12.16972 0 -1.8085 0 -10.3565 -1.934 -5.1845 
-12.16972 -1.8085 -1.8085 -10.3565 -12.4627 -6.564 
-13.97822 -1.8085 -12.6634 -12.4627 -17.0927 
-13.97822 -12.6634 -14.7696 -17.0927 
-24.83312 -14.7696 -19.3996 
-12.16972 -7.949501 -10.3565 -1.934 -5.1845 
-20.11922 -18.6254 -12.4627 -6.564 
-30.79512 -20.7316 -17.0927 
-32.90132 -25.3616 
-37.53132 
-12.16972 0 -1.8085 0 -10.3565 0 -5.1845 
-12.16972 -1.8085 -1.8085 -10.3565 -10.3565 -5.1845 
-13.97822 -1.8085 -12.6634 -10.3565 -15.7132 
-13.97822 -12.6634 -12.6634 -15.7132 
-24.83312 -12.6634 -18.0201 
-12.16972 0 -10.3565 -1.934 -5.1845 
-12.16972 -10.3565 -12.4627 -6.564 
-22.52622 -12.4627 -17.0927 
-24.63242 -17.0927 
-29.26242 
