-4.759 
n/a 
n/a 
n/a 
n/a 
-4.759 
n/a 
n/a 
n/a 
n/a 
-4.759 
n/a 
n/a 
n/a 
n/a 
-4.759 
n/a 
n/a 
n/a 
n/a 
-3.8315 -2.186 -2.3335 -4.2225 -1.7695 -4.3245 -3.809 -2.871 0 -3.3425 -2.985 -4.361 -5.207 -1.756 -4.4165 -3.8315 -4.53 0 
-5.974 -3.9765 -6.601501 -6.073 -4.714 -7.995 -6.944 -2.871 -3.3425 -5.678 -6.33 -7.151 -6.137 -5.7045 -7.994 -8.222501 -4.53 
-8.134001 -8.01 -9.597 -8.368501 -8.485001 -11.5858 -6.944 -6.5385 -5.678 -9.610001 -8.42 -8.0245 -9.92 -10.022 -13.5586 -8.222501 
-12.3419 -11.2961 -12.5733 -12.2657 -12.229 -11.5858 -10.9445 -8.8465 -9.610001 -11.8 -9.2775 -12.1947 -14.5923 -15.6342 -13.5586 
-15.628 -14.2724 -16.4705 -16.0097 -12.229 -15.5863 -13.2525 -13.0313 -11.8 -12.6575 -13.6215 -16.867 -20.2045 -15.6342 
-2.3345 -3.3425 -4.361 -5.207 0 -2.0935 -4.7455 0 -4.2225 -4.672 -1.934 -3.8315 0 
-4.554 -8.199501 -7.151 -5.207 -2.0935 -6.3065 -4.7455 -4.2225 -9.0755 -7.422001 -6 -3.8315 
-9.578501 -11.1791 -7.151 -6.981 -6.3065 -6.3065 -9.343 -9.0755 -11.9065 -10.4675 -6 
-12.5581 -11.1791 -9.2945 -10.151 -6.3065 -11.605 -14.2844 -11.9065 -14.952 -10.4675 
-12.5581 -13.3226 -12.5769 -10.151 -11.605 -16.5464 -17.1154 -14.952 -14.952 
-3.8315 -2.186 -1.8085 -4.7455 -1.7565 -4.2225 -3.3425 -3.1435 -3.8315 -5.207 
-5.974 -3.164 -6.25 -5.5605 -5.459 -7.481501 -6.0255 -7.614 -7.119 
-6.9645 -7.408 -6.87 -8.6035 -8.4945 -9.786501 -10.674 -9.6955 
-11.8645 -7.537001 -10.4156 -12.1988 -10.9477 -15.2324 -12.7555 
-11.9935 -11.2426 -14.0109 -14.652 -16.3936 -17.3139 
-3.8315 -2.186 -2.0935 -1.4985 -6.0695 -4.2225 -2.3345 -3.3425 -2.985 -6.0695 -5.636 0 
-5.974 -4.4495 -2.9725 -6.992001 -11.046 -6.549001 -4.554 -5.678 -8.8865 -7.113 -5.636 
-8.116501 -5.357 -9.093 -12.5483 -13.3725 -8.5935 -6.8425 -12.0311 -9.045 -7.113 
-9.187501 -11.7705 -14.4711 -14.8748 -15.417 -10.2755 -13.4092 -12.1896 -9.045 
-15.8518 -17.1486 -16.7976 -16.9193 -17.099 -16.8422 -13.5677 -12.1896 
