-4.759 
n/a 
n/a 
n/a 
n/a 
-4.759 
n/a 
n/a 
n/a 
n/a 
-4.759 
n/a 
n/a 
n/a 
n/a 
-4.759 
n/a 
n/a 
n/a 
n/a 
-4.622 -5.201 -1.7565 -3.7075 -2.9705 -2.8645 -6.222 -4.983 -4.9715 -3.748 -1.7565 -3.7805 -4.969 
-10.265 -6.4395 -5.7275 -6.874001 -4.6335 -11.117 -9.546 -9.508 -10.8043 -5.459 -5.09 -7.7755 
-11.5035 -11.2637 -8.828 -8.3415 -13.1486 -14.441 -14.0884 -15.2256 -12.5153 -9.774 -8.587001 
-16.3277 -14.3642 -10.19 -16.9312 -16.4726 -18.9834 -19.806 -16.9366 -16.8303 -13.6122 
-19.4282 -15.7262 -18.8443 -20.2552 -21.015 -24.701 -21.517 -21.2516 -20.6685 
-3.7075 -3.9875 -1.7565 -3.737 -1.7695 -3.6055 -3.748 -1.7565 -3.6615 
-8.069 -5.377501 -5.1295 -6.3935 -5.259501 -7.718501 -5.459 -5.23 
-9.7325 -10.2755 -8.536 -9.867001 -9.812 -9.500001 -9.938001 
-14.5373 -13.682 -12.2257 -14.5235 -11.9011 -14.0602 
-17.9438 -17.3717 -16.8822 -16.6126 -16.4613 
-3.345 -1.756 -3.6055 -5.072 -4.983 -4.296 -1.934 -1.4985 -4.622 -3.355 -1.7565 -1.4985 -3.7075 -2.186 -5.1895 -1.934 -1.7695 -3.135 -3.748 -3.7805 -4.1625 -4.969 
-5.2935 -5.005 -9.3345 -6.574 -8.105 -5.419 -2.6125 -5.221 -7.069 -3.725 -2.4195 -4.6235 -5.825 -6.39 -6.791501 -4.0395 -4.779 -8.028 -7.1365 -7.388 -8.1885 
-5.4295 -10.9274 -11.1833 -8.729 -8.985001 -6.027 -6.228001 -7.221 -7.2155 -4.0515 -5.468501 -5.975501 -9.669001 -7.8465 -8.2395 -7.1075 -9.8105 -10.674 -12.3914 -11.9416 
-11.6731 -12.7762 -13.3383 -9.4385 -9.342501 -9.283501 -7.949501 -7.3295 -7.3815 -7.719501 -7.247001 -9.712001 -11.3411 -9.226501 -10.553 -12.6016 -12.4565 -15.9289 -16.945 
-13.5219 -14.9312 -14.0478 -9.756001 -12.7022 -10.3165 -8.02 -7.442 -10.4505 -9.354501 -10.3955 -11.4015 -12.7211 -11.55 -16.8451 -15.2476 -17.7114 -20.4825 
-5.4785 -1.7695 -2.871 -2.3345 -2.871 -4.361 -4.591 -2.5045 -4.622 -5.346 
-7.238501 -4.5615 -5.35 -4.9425 -7.5575 -10.703 -7.393 -7.466001 -10.2185 
-9.601501 -7.6215 -5.8075 -10.2275 -14.4289 -13.505 -12.6829 -13.6273 
-12.8535 -8.570001 -10.7595 -17.0989 -17.2309 -18.7949 -18.8442 
-13.802 -13.666 -17.6309 -19.9009 -22.5208 -24.9562 
