-4.759 
n/a 
n/a 
n/a 
n/a 
-4.759 
n/a 
n/a 
n/a 
n/a 
-4.759 
n/a 
n/a 
n/a 
n/a 
-4.759 
n/a 
n/a 
n/a 
n/a 
-3.321 -4.065 -5.172 -4.1865 -9.5065 -2.8645 -2.543 -15.315 -2.186 -2.871 -1.7565 -1.4985 -9.3905 
-7.708 -8.104 -8.994501 -15.0246 -12.6686 -6.136 -18.7312 -18.2702 -4.247 -3.5385 -2.4195 -10.3475 
-10.7025 -12.2781 -20.3884 -18.1867 -15.9401 -22.8698 -21.0842 -19.5907 -4.411 -3.7675 -11.4593 
-14.8766 -23.672 -23.5505 -21.4582 -32.6739 -25.2228 -22.4047 -19.6267 -4.5655 -13.6211 
-26.2705 -26.8341 -26.822 -38.192 -35.0269 -26.5433 -22.4407 -19.6857 -15.0827 
-3.321 -5.3885 -8.867001 -2.7415 -4.8165 -3.325 -1.4985 -7.746 -1.7565 -2.871 -3.9225 -1.4985 -2.543 -10.8075 
-9.810501 -10.468 -11.8451 -6.131001 -7.3195 -3.898 -8.2875 -9.9205 -4.521 -6.554 -4.463 -5.1495 -13.6215 
-14.89 -13.4461 -15.2346 -8.704 -7.95 -11.3946 -10.6735 -12.6956 -8.490001 -7.095 -7.7515 -16.842 
-17.8681 -16.8356 -17.8076 -9.642501 -15.9034 -13.7806 -13.4486 -16.6646 -9.201 -9.7615 -19.574 
-21.2576 -19.4086 -18.7461 -17.5959 -18.2894 -16.5557 -17.4176 -17.3756 -11.8983 -21.6728 
-3.321 -2.3615 -4.065 -3.5435 -4.1865 -6.806 -9.251 -2.543 -3.468 -2.3335 -2.871 -3.9915 -5.3885 
-5.4245 -7.0445 -6.1265 -7.828501 -12.3241 -16.8094 -11.935 -6.855 -5.035501 -4.7635 -8.104501 -10.451 
-10.1225 -9.4665 -10.5035 -16.6341 -22.3275 -19.4934 -16.247 -7.577001 -7.4445 -10.041 -14.845 
-12.6529 -13.8733 -19.3091 -26.6375 -25.0115 -23.8054 -16.969 -10.1635 -13.2058 -16.7815 
-17.0597 -22.6789 -29.3125 -29.3215 -29.3235 -24.5274 -19.5555 -15.9042 -19.9463 
-3.882 -2.3615 -2.7415 -3.849 -5.965 -4.5685 -2.5045 -2.871 -1.7565 -1.4985 -3.7825 -5.204 -3.325 -4.065 -3.5435 -1.934 -4.1865 -5.171 0 
-5.4545 -4.455 -5.431 -9.143001 -9.217501 -6.915 -4.7085 -3.5385 -2.4195 -4.8035 -7.254001 -7.962501 -7.0425 -6.1265 -5.3395 -5.967 -7.9595 -5.171 
-7.690001 -7.4355 -10.533 -12.4821 -11.6088 -8.907001 -4.9525 -3.7675 -5.425 -7.8075 -9.743501 -9.899 -9.359501 -7.5835 -9.259501 -10.4604 -7.9595 
-10.2085 -12.5749 -13.8721 -14.8734 -13.6008 -9.044001 -5.1005 -6.196 -8.293501 -9.986 -10.5665 -12.6698 -11.0655 -11.7805 -14.1363 -10.4604 
-15.3479 -15.914 -16.2634 -16.8654 -13.7378 -9.123 -7.469501 -9.1215 -10.459 -10.614 -13.9251 -14.3758 -15.2625 -16.6573 -14.1363 
