-4.759 
n/a 
n/a 
n/a 
n/a 
-4.759 
n/a 
n/a 
n/a 
n/a 
-4.759 
n/a 
n/a 
n/a 
n/a 
-4.759 
n/a 
n/a 
n/a 
n/a 
-12.581 -4.711 -4.153 -1.934 -5.1845 -5.74 -8.171 -1.756 -9.4075 -1.934 -4.0205 -1.934 -3.502 -6.557 -3.0365 -2.4945 -4.39 -2.356 
-18.4072 -6.8605 -5.9665 -6.564 -5.7465 -10.884 -9.14 -11.1415 -10.862 -6.3815 -5.91 -4.8155 -9.1485 -9.5625 -3.688 -7.9415 -5.401 
-20.5567 -8.422001 -10.0575 -6.819 -10.9323 -11.853 -18.9045 -12.596 -15.3095 -9.0795 -8.746 -10.0345 -12.2318 -10.0025 -9.053 -10.019 
-22.1182 -12.8292 -10.1055 -12.2434 -11.9013 -21.6175 -20.359 -17.0435 -18.0075 -12.1427 -14.1906 -13.1178 -12.6718 -15.3675 -11.0655 
-26.5254 -12.8772 -15.5299 -13.2124 -21.6658 -23.072 -24.8065 -19.7415 -21.0707 -17.5873 -17.2739 -13.5578 -18.0368 -17.38 
-3.0365 -2.186 -1.8085 -4.319 -2.0935 -5.804 -6.0495 -3.458 -6.557 -3.402 -7.680501 -4.6805 -1.756 -4.1225 -9.758 -1.934 -1.4985 -4.711 -4.153 0 
-3.66 -3.164 -5.623 -5.385 -7.945001 -10.7665 -8.589001 -10.2755 -10.1115 -12.4069 -9.129001 -6.0645 -5.5775 -15.3951 -11.7998 -2.6125 -5.7585 -6.8605 -4.153 
-4.218 -7.242 -6.888 -9.737501 -12.9757 -13.306 -15.5869 -14.2216 -19.0476 -13.8554 -10.5335 -10.575 -17.3367 -17.4369 -12.4783 -6.6305 -7.134501 -6.8605 
-8.0985 -8.026501 -11.7277 -14.9916 -15.5152 -20.3039 -19.533 -23.1577 -20.4961 -15.2599 -15.044 -22.3342 -19.3785 -18.1154 -16.4963 -7.501 -7.134501 
-9.3155 -13.216 -16.9818 -17.5311 -22.5131 -24.25 -28.4691 -24.6062 -21.9006 -19.7704 -26.8032 -24.376 -20.057 -22.1334 -17.3668 -7.501 
-2.264 -7.616 -4.153 -3.9055 -1.934 -6.557 -3.0365 -2.186 -1.8085 -7.756001 -2.0935 -3.93 -4.1425 -3.458 -8.171 -1.756 -9.758 -3.0695 -2.7415 -4.377 -1.934 -4.1225 -3.8195 
-10.368 -9.406 -6.561501 -5.946 -7.536 -9.5625 -3.66 -3.164 -9.1975 -9.092001 -5.5695 -6.684 -7.852 -11.136 -9.14 -10.586 -12.9353 -4.6395 -7.1695 -6.5255 -5.261 -7.358001 
-12.158 -12.0599 -8.144001 -12.1766 -9.948001 -9.8985 -4.218 -10.335 -10.348 -12.9162 -8.262501 -10.688 -15.8774 -12.105 -18.349 -13.7633 -14.5053 -9.165001 -8.495 -10.071 -8.2015 
-14.8119 -13.6424 -14.557 -14.5886 -10.527 -10.347 -11.7854 -11.4855 -14.3892 -15.6092 -12.5721 -18.7134 -16.8464 -21.314 -21.5263 -15.3333 -19.0308 -10.0515 -12.1573 -13.0115 
-16.3944 -20.0554 -16.969 -15.1676 -10.9755 -17.9144 -12.9359 -15.5267 -17.0822 -19.9188 -20.5975 -19.6824 -26.0554 -24.4913 -23.0963 -19.8588 -19.9173 -13.8374 -15.0978 
-4.866 -2.0935 -12.16972 0 -3.098 -1.7565 -3.9725 0 -1.934 -5.1845 -5.74 0 -4.0205 -3.9665 -9.8575 0 -3.098 -1.7565 -3.9725 0 -3.9535 -1.934 -3.458 -4.747 -5.1905 -4.153 
-6.768 -15.25422 -12.16972 -3.098 -4.3615 -5.669 -3.9725 -1.934 -6.564 -5.7465 -5.74 -4.0205 -7.104 -14.8306 -9.8575 -3.098 -4.3615 -5.669 -3.9725 -3.9535 -5.3325 -5.207 -7.776 -10.5815 -7.03 
-20.46412 -15.25422 -15.26772 -4.3615 -7.989501 -5.669 -6.144 -6.564 -6.819 -5.7465 -10.802 -7.104 -18.5817 -14.8306 -13.4469 -4.3615 -7.989501 -5.669 -8.2155 -5.3325 -9.057 -9.864 -13.76 -12.2625 
-20.46412 -18.35222 -16.53122 -7.989501 -7.989501 -8.317 -10.1555 -6.819 -6.819 -10.8503 -13.8855 -18.5817 -18.5817 -18.42 -14.7104 -7.989501 -7.989501 -10.6688 -9.8015 -9.057 -14.8409 -16.6799 -15.9149 
-23.56212 -19.61572 -20.15922 -7.989501 -10.396 -12.5721 -10.8843 -6.819 -12.1614 -13.9338 -25.3632 -18.5817 -22.1711 -19.6835 -18.3384 -7.989501 -13.0555 -12.2548 -13.531 -14.8409 -21.1393 -18.4664 
