-4.759 
n/a 
n/a 
n/a 
n/a 
-4.759 
n/a 
n/a 
n/a 
n/a 
-4.759 
n/a 
n/a 
n/a 
n/a 
-4.759 
n/a 
n/a 
n/a 
n/a 
-1.4985 -5.5605 -3.644 -2.264 -1.4985 -3.8405 -1.7565 -10.707 -2.3085 0 -6.462 -10.0235 0 -4.284 -1.7565 -7.153501 -8.088 -8.5185 0 -1.8085 -3.535 -3.9725 -2.674 -4.3465 -3.849 -4.6555 -2.0935 -1.8085 -4.677 -6.118001 0 
-5.884001 -8.7155 -6.094 -2.9195 -4.7545 -4.563 -13.4127 -13.0155 -2.3085 -6.462 -17.1429 -10.0235 -4.284 -5.501501 -9.292001 -15.8607 -17.0111 -8.5185 -1.8085 -4.294 -8.497001 -7.318 -7.665501 -7.4805 -9.392 -6.645 -3.385 -6.3175 -11.6994 -6.118001 
-8.899 -11.4249 -6.612 -7.014501 -5.365 -17.3804 -15.7212 -13.0155 -9.818501 -17.1429 -17.1429 -14.6889 -5.501501 -13.8528 -18.1446 -24.7838 -17.0111 -10.335 -4.294 -9.1505 -12.0371 -12.6957 -11.1161 -13.4143 -11.7763 -7.854501 -8.202001 -13.9897 -11.6994 
-11.6532 -11.9429 -11.3976 -7.592 -18.2256 -19.6889 -15.7212 -20.5255 -20.4994 -17.1429 -21.8083 -15.9064 -13.8528 -22.7054 -27.0677 -24.7838 -18.8276 -12.8205 -9.1505 -12.8072 -17.4148 -16.1463 -17.0499 -15.7986 -12.9858 -13.2959 -16.0044 -13.9897 
-12.1712 -16.7285 -11.9751 -20.6822 -20.5341 -19.6889 -23.2312 -31.2064 -20.4994 -21.8083 -23.0258 -24.2577 -22.7054 -31.6285 -27.0677 -26.6003 -21.3131 -17.677 -12.8072 -18.1849 -20.8654 -22.0801 -19.4342 -17.0081 -18.4272 -21.0983 -16.0044 
-14.34122 -1.934 -3.091 -5.339 -4.284 -1.7565 -6.864 -12.16972 -2.5045 -9.535001 0 -6.462 -10.0235 -5.647 -1.7695 -1.4985 -7.978 -3.043 -1.7695 -3.7805 -1.4985 -4.8625 -3.436 -3.332 -3.956 0 
-16.84272 -4.2105 -8.5915 -9.375 -5.501501 -8.661 -19.82152 -14.67422 -12.9569 -9.535001 -6.462 -17.1429 -16.0519 -7.955 -2.7955 -10.862 -11.4898 -3.528 -5.4845 -5.6235 -5.981501 -8.278 -5.9795 -5.9655 -3.956 
-19.51322 -10.379 -13.341 -10.0195 -13.2218 -21.89672 -22.32602 -25.12662 -12.9569 -16.2308 -17.1429 -23.1713 -18.3599 -9.200001 -12.3942 -14.3738 -11.9748 -7.422 -6.5135 -7.973001 -8.923 -10.195 -7.0295 -5.9655 
-25.20162 -14.1023 -14.3253 -18.5038 -26.45752 -24.40122 -32.77842 -25.12662 -19.6527 -26.9117 -23.1713 -25.4793 -19.6049 -19.0999 -15.906 -14.8588 -15.8688 -8.491501 -8.461 -10.316 -10.4345 -11.245 -7.0295 
-30.28382 -15.5332 -22.3926 -31.73952 -28.96202 -34.85362 -32.77842 -31.82242 -30.3336 -32.9401 -25.4793 -26.7243 -29.5048 -22.6117 -16.391 -18.7528 -16.9383 -10.476 -10.6595 -11.8275 -11.4845 -11.245 
-4.3075 -5.715 -3.5455 -1.4985 -4.1 -1.7565 -12.16972 -1.4985 -3.0835 -3.644 0 -12.16972 -4.284 -1.7565 -12.16972 -3.9725 -4.281 -12.16972 -10.5565 -5.119 -3.8975 -1.7565 -4.8625 -1.7695 -1.4985 -4.677 -3.436 -3.3855 -7.4525 -4.79 -2.264 -4.784 0 
-8.2535 -9.613501 -3.91 -5.0695 -5.164001 -14.87542 -13.66822 -3.535 -7.2345 -3.644 -12.16972 -16.45372 -5.501501 -14.87542 -16.14222 -7.779 -16.76732 -22.72622 -15.8299 -7.561001 -6.087501 -7.041501 -6.9545 -2.7955 -5.4395 -7.9245 -5.664001 -12.8006 -9.293 -6.536 -7.617001 -4.784 
-12.3918 -9.828 -7.5595 -5.5715 -19.34172 -16.37392 -15.70472 -8.123501 -7.2345 -16.51812 -16.45372 -17.67122 -19.43622 -18.84792 -19.94872 -20.33532 -27.32382 -27.99962 -18.2719 -10.031 -12.0585 -9.177501 -8.0485 -6.591001 -8.39 -9.8855 -15.5589 -14.6411 -9.775001 -12.5994 -7.617001 
-12.6063 -13.4775 -7.641 -20.04802 -20.84022 -18.41042 -20.29322 -8.123501 -20.28622 -20.80212 -17.67122 -31.60594 -23.40872 -22.65442 -32.50504 -30.89182 -32.59722 -30.44162 -20.7419 -16.1046 -14.1945 -10.495 -12.0964 -9.403501 -10.5745 -20.1098 -17.3994 -15.1231 -16.3834 -12.5994 
-16.2558 -13.559 -22.14972 -21.54652 -22.87672 -22.99892 -20.29322 -21.58022 -24.57022 -22.01962 -31.60594 -35.57844 -27.21522 -35.21074 -43.06154 -36.16522 -35.03922 -32.91162 -26.8155 -18.2406 -15.512 -14.5429 -14.9089 -11.6112 -20.7988 -21.9503 -17.8814 -21.7315 -16.3834 
-3.5455 -3.0835 -12.16972 -3.5435 0 -6.919 -12.16972 -10.914 -3.43 -3.091 -4.284 -6.462 -10.0235 -1.7695 -3.0465 -3.9875 -1.4985 -3.898 -1.934 -1.8085 -4.677 
-6.635 -16.46342 -15.71322 -3.5435 -6.919 -19.59312 -23.08372 -14.344 -5.581 -4.863 -9.989 -17.1429 -12.1744 -3.683 -6.374001 -4.653 -5 -5.5505 -3.2685 -6.3175 
-21.01892 -20.00692 -15.71322 -11.8895 -19.59312 -30.50712 -26.51372 -16.495 -8.3435 -10.281 -20.6699 -19.2938 -14.0879 -6.806 -6.891 -7.5465 -6.689 -6.703 -7.507501 
-24.56242 -20.00692 -24.05922 -24.56362 -30.50712 -33.93712 -28.66472 -19.2575 -13.9681 -20.9619 -22.8208 -21.2073 -17.2109 -7.328001 -10.3155 -10.2275 -7.960501 -10.6605 
-24.56242 -28.35292 -36.73334 -35.47762 -33.93712 -36.08812 -31.42722 -24.8821 -24.649 -23.1128 -24.7343 -24.3303 -17.7329 -10.8983 -13.2183 -11.651 -12.0582 
