-4.759 
n/a 
n/a 
n/a 
n/a 
-4.759 
n/a 
n/a 
n/a 
n/a 
-4.759 
n/a 
n/a 
n/a 
n/a 
-4.759 
n/a 
n/a 
n/a 
n/a 
-3.5065 -8.6295 -2.7415 -4.6275 -2.3345 -7.8595 -7.946001 0 -2.4265 -2.186 -3.849 -2.5045 -11.128 
-13.178 -11.6838 -5.812 -5.9515 -9.1175 -16.4217 -7.946001 -2.4265 -3.292 -4.8565 -6.305 -14.5499 
-16.2323 -14.7543 -6.6425 -13.2983 -18.3207 -16.4217 -11.1355 -3.292 -5.872 -7.104 -18.454 
-19.3028 -15.5848 -14.2297 -22.5015 -18.3207 -19.6112 -12.001 -5.872 -8.048 -19.3828 
-20.1333 -23.172 -23.4329 -22.5015 -21.5102 -20.4767 -14.581 -8.048 -20.355 
-2.3615 -2.7415 -4.281 -2.5045 -9.1595 -3.433 -2.4265 -2.7415 -3.8755 -2.3345 -1.8085 -6.4945 -3.849 -7.8595 0 
-4.455 -5.383 -5.893 -12.5814 -12.8271 -4.4115 -3.681 -5.065001 -4.4955 -3.8605 -8.497001 -9.995501 -10.6605 -7.8595 
-8.441501 -6.785501 -16.3307 -16.249 -13.8056 -5.4295 -6.262 -5.7145 -5.999001 -9.7305 -10.4035 -16.807 -10.6605 
-9.803 -17.7172 -19.9983 -17.2275 -14.8236 -7.812 -6.9175 -6.731 -12.4028 -11.7938 -17.215 -16.807 
-20.6681 -21.3848 -20.9768 -18.2455 -17.2061 -8.307 -7.8585 -13.5752 -14.4661 -18.6053 -17.215 
-3.5065 -4.818 -7.088 -3.8755 -2.4265 -2.7415 -4.281 -2.5045 -8.387 
-9.009001 -9.421501 -11.7055 -6.139501 -3.681 -5.383 -5.893 -10.958 
-13.7775 -14.288 -13.9695 -7.676001 -6.729 -6.785501 -14.7073 
-18.644 -16.552 -15.506 -9.978001 -8.3365 -16.0938 
-20.908 -18.0885 -17.808 -11.8645 -17.5884 
-4.87 -3.264 0 -3.5065 -2.4265 -2.7415 -3.8755 -2.3345 -7.8595 -4.1885 0 -2.4265 -2.7415 -4.281 -2.5045 -10.105 0 
-7.014501 -3.264 -3.5065 -4.9345 -3.681 -5.065001 -4.4955 -9.1175 -12.6642 -4.1885 -2.4265 -3.681 -5.383 -5.893 -13.5269 -10.105 
-7.014501 -6.5555 -4.9345 -5.789001 -6.262 -5.7145 -11.8229 -14.5632 -12.6642 -7.933001 -3.681 -6.729 -6.785501 -17.2762 -13.5269 
-10.9086 -8.001 -5.789001 -7.5255 -6.9175 -13.6411 -17.2686 -14.5632 -16.4087 -8.793501 -6.729 -8.3365 -18.6627 -17.2762 
-12.3541 -8.686001 -7.5255 -8.7255 -15.1863 -19.0868 -17.2686 -18.3077 -17.2692 -11.9543 -8.3365 -20.1573 -18.6627 
