-4.759 
n/a 
n/a 
n/a 
n/a 
-4.759 
n/a 
n/a 
n/a 
n/a 
-4.759 
n/a 
n/a 
n/a 
n/a 
-4.759 
n/a 
n/a 
n/a 
n/a 
-10.538 -2.186 -3.699 -3.197 -2.664 -12.16972 -2.356 -10.8685 0 
-13.439 -4.636 -7.663 -4.976 -16.05212 -14.52572 -14.1353 -10.8685 
-17.098 -8.768 -9.9455 -19.28412 -18.40812 -26.30502 -14.1353 
-21.23 -10.6345 -24.25362 -21.64012 -30.18742 -26.30502 
-23.0965 -24.94262 -26.60962 -33.41942 -30.18742 
-12.0665 -3.699 -4.3005 -3.5025 -7.577 -3.613 -4.838 0 
-18.302 -7.565001 -6.943001 -12.3621 -11.617 -10.6215 -4.838 
-22.168 -10.8609 -17.1494 -16.4021 -18.6255 -10.6215 
-25.4639 -21.0673 -21.1894 -23.4106 -18.6255 
-35.6703 -25.1073 -28.1979 -23.4106 
-9.2655 -4.4525 -9.5565 -1.7695 -3.5025 -1.7565 -4.267 
-13.8834 -15.3656 -11.7038 -5.664001 -6.4225 -5.8735 
-24.7965 -17.5129 -15.5983 -9.0015 -11.4301 
-26.9438 -21.4074 -18.9358 -14.0689 
-30.8383 -24.7449 -24.0032 
-3.699 -4.454 -6.101501 -3.16 -5.6395 
-8.243501 -11.5989 -8.402 -7.8385 
-15.9444 -13.8994 -14.8407 
-18.2449 -20.3381 
-24.6836 
