-4.759 
n/a 
n/a 
n/a 
n/a 
-4.759 
n/a 
n/a 
n/a 
n/a 
-4.759 
n/a 
n/a 
n/a 
n/a 
-4.759 
n/a 
n/a 
n/a 
n/a 
-2.0935 -1.4985 -3.957 -1.7565 -1.4985 -4.153 -1.7695 -3.2345 -3.77 -2.0935 -5.9645 -1.4985 -5.592 -3.454 -3.748 -6.342 -2.4285 -7.6705 -2.4945 -4.493 -2.0935 -3.1435 -4.1335 -1.756 -4.633 0 
-2.9725 -5.4345 -4.676 -2.4195 -5.581 -6.192 -3.713 -6.639 -5.3235 -7.538001 -6.58 -6.604501 -9.7005 -5.8255 -9.491001 -8.8605 -10.143 -9.573501 -6.256001 -6.638 -4.568 -6.955501 -5.332 -6.0775 -4.633 
-6.758 -6.831 -5.031 -5.728 -7.574 -8.267 -7.0915 -8.51 -11.6608 -7.973001 -12.483 -11.2472 -12.072 -11.9765 -12.1697 -16.827 -12.29 -13.369 -7.884 -8.800501 -8.302 -8.1295 -8.5485 -6.0775 
-8.301001 -7.27 -7.448 -7.667 -9.5585 -11.7771 -9.057501 -15.1771 -12.0958 -13.9868 -17.1257 -13.6187 -18.223 -14.6552 -20.1362 -18.974 -16.0855 -14.997 -10.341 -9.464001 -9.5635 -10.3745 -8.5485 
-8.663001 -10.1185 -9.288501 -9.6265 -13.1616 -13.7431 -15.8864 -15.6121 -18.1096 -18.6295 -19.4972 -19.7697 -20.9017 -22.6217 -22.2832 -22.7695 -17.7135 -17.454 -11.2547 -11.4631 -10.487 -10.3745 
-3.454 -3.748 -6.342 -1.756 -5.1025 -3.152 -4.493 -2.0935 -3.1435 -6.3345 -1.756 -4.1335 -1.756 -6.0395 -1.7695 -4.4755 -4.905 -3.892 -3.5445 -3.304 -3.277 
-5.8255 -9.491001 -7.736501 -7.191 -7.277 -5.593 -6.638 -4.568 -9.6745 -7.5255 -5.7605 -5.332 -7.4795 -7.556 -5.448 -10.985 -6.948501 -7.575 -6.0015 -5.24 
-11.9765 -10.336 -10.3285 -8.976501 -9.5345 -7.8085 -8.800501 -10.1995 -10.7355 -12.03 -7.454501 -12.2125 -9.241501 -11.8207 -12.5331 -13.0285 -10.259 -10.6095 -7.821 
-12.8215 -12.928 -12.114 -11.3406 -11.6964 -10.1354 -14.9586 -11.2605 -15.24 -13.724 -14.68 -13.9745 -13.8158 -18.9058 -14.5766 -16.339 -13.3683 -12.429 
-15.4135 -14.7135 -14.4781 -13.5025 -14.0233 -16.2935 -16.0196 -15.765 -16.934 -20.9495 -16.442 -18.5488 -20.9009 -20.9493 -17.8871 -19.4483 -15.1878 
-2.0935 -1.4985 -3.3825 -1.7565 -5.592 -1.934 -3.957 -1.7565 -4.153 -3.8405 0 -3.454 -3.748 -3.4975 -6.342 -3.152 -6.061 -2.0935 -2.985 -4.1335 -1.756 -4.633 0 
-2.9725 -4.4135 -4.3095 -6.9195 -7.041 -5.525 -4.676 -6.829 -7.8605 -3.8405 -3.454 -5.8255 -6.7895 -9.951 -8.380001 -7.128 -7.262001 -4.3315 -6.353001 -5.332 -6.0775 -4.633 
-5.442 -4.563 -8.710001 -7.9795 -11.1696 -7.1135 -8.879001 -10.3745 -7.8605 -7.63 -5.8255 -8.4645 -14.3072 -11.989 -10.634 -8.515 -8.3645 -7.8765 -7.442 -8.5485 -6.0775 
-5.5525 -8.863001 -9.288501 -12.3021 -12.7581 -11.7859 -12.6783 -10.3745 -11.837 -10.1075 -8.4645 -16.4768 -16.3452 -14.243 -12.021 -9.462 -9.9125 -8.8265 -9.927501 -8.5485 
-9.8065 -9.443001 -13.7047 -13.8906 -17.4305 -15.5852 -12.6783 -14.351 -14.3145 -12.8507 -16.4768 -18.5148 -18.5992 -15.63 -12.968 -11.074 -11.0147 -10.0075 -9.927501 
-2.356 -1.934 -1.8085 -3.957 -4.153 -3.8405 0 -1.934 -3.333 -1.7695 -3.2345 -1.4985 -4.905 -4.427 -4.4005 0 -2.7455 -3.454 -3.748 -3.4975 -4.806 -2.4285 -5.1905 -3.152 -4.493 -2.0935 -3.1435 -4.1335 -1.756 -5.178 
-5.342 -3.2685 -4.88 -6.181001 -7.8605 -3.8405 -1.934 -3.9835 -4.022 -3.713 -4.328 -5.860001 -7.196 -9.377001 -4.4005 -2.7455 -5.6995 -5.8255 -6.7895 -7.628 -7.205501 -7.8005 -8.8275 -5.593 -6.638 -4.568 -6.955501 -5.332 -6.885 
-6.573 -6.634501 -6.594 -9.669001 -7.8605 -5.3015 -3.9835 -4.0425 -5.5905 -4.717 -9.1695 -7.791501 -12.573 -9.377001 -7.925 -5.6995 -7.3285 -8.4645 -11.9842 -11.1951 -9.317 -11.8611 -11.4637 -7.8085 -8.800501 -8.302 -8.1295 -8.004001 
-9.4145 -7.990001 -10.1145 -9.669001 -9.479501 -7.0405 -4.0425 -5.5995 -6.3195 -9.371 -11.1482 -13.3713 -12.573 -13.0431 -11.1462 -7.3285 -9.567 -14.1538 -15.5513 -13.3066 -13.4382 -14.4973 -13.6792 -10.1354 -9.464001 -9.5635 -10.031 
-11.4336 -11.5549 -10.1145 -11.3528 -11.2589 -7.0775 -5.5995 -6.325 -10.6595 -11.3577 -16.728 -13.3713 -16.2391 -16.2643 -12.7752 -9.567 -15.6927 -17.7209 -17.6628 -17.4278 -16.0744 -16.7128 -16.0061 -10.7989 -11.4631 -11.6554 
