-4.759 
n/a 
n/a 
n/a 
n/a 
-4.759 
n/a 
n/a 
n/a 
n/a 
-4.759 
n/a 
n/a 
n/a 
n/a 
-4.759 
n/a 
n/a 
n/a 
n/a 
-8.9175 -4.5355 -12.16972 -8.573 0 -5.1845 0 -10.939 -6.397 -12.16972 0 
-13.717 -16.93882 -20.74272 -8.573 -5.1845 -5.1845 -10.939 -17.336 -19.50132 -12.16972 
-26.12032 -25.51182 -20.74272 -14.1711 -5.1845 -17.4179 -17.336 -30.44032 -19.50132 
-34.69332 -25.51182 -26.34082 -14.1711 -17.4179 -23.8149 -30.44032 -30.44032 
-34.69332 -31.10992 -26.34082 -26.4045 -23.8149 -36.91922 -30.44032 

n/a 
n/a 
n/a 
n/a 
0 -5.1845 -3.299 -5.771 -3.6885 0 -3.881 -2.3345 -6.833 -8.3585 
-5.1845 -9.748501 -10.5975 -10.7495 -3.6885 -3.881 -4.5275 -7.7015 -12.849 
-9.748501 -17.352 -15.576 -10.7495 -7.3355 -4.5275 -9.191 -11.754 
-17.352 -22.3305 -15.576 -14.3965 -8.161 -9.342501 -13.8473 
-22.3305 -22.3305 -19.223 -15.222 -13.0595 -13.9911 
0 -17.35422 -11.128 0 0 -5.683 -1.7565 -5.1845 -3.6885 0 -4.0385 -9.356501 -11.4335 -2.229 
-18.64862 -29.77662 -11.128 0 -5.683 -6.452 -6.580501 -7.323501 -3.6885 -4.0385 -14.1334 -19.5024 -11.445 
-29.77662 -29.77662 -11.128 -5.683 -6.452 -10.418 -8.634001 -7.323501 -8.873501 -14.1334 -24.2793 -21.7715 
-29.77662 -29.77662 -16.811 -6.452 -10.418 -12.4715 -8.634001 -13.0099 -19.123 -24.2793 -26.5484 
-29.77662 -35.45962 -17.58 -10.418 -12.4715 -12.4715 -14.6502 -23.2594 -29.2689 -26.5484 
