-4.759 
n/a 
n/a 
n/a 
n/a 
-4.759 
n/a 
n/a 
n/a 
n/a 
-4.759 
n/a 
n/a 
n/a 
n/a 
-4.759 
n/a 
n/a 
n/a 
n/a 
-2.3615 -3.5025 -4.052 -1.4985 -4.4295 -2.7455 -3.277 -3.555 -1.934 -3.304 -4.4345 -1.7565 -4.3665 0 
-5.751 -8.665501 -4.752 -7.218 -7.097 -5.294 -7.837501 -5.6985 -5.876 -7.566 -4.719 -5.4475 -4.3665 
-12.3108 -9.528501 -11.4659 -10.7025 -9.5165 -9.481001 -10.5776 -10.586 -10.8954 -8.0935 -7.2745 -5.4475 
-13.1738 -16.4084 -14.9504 -13.122 -13.8007 -12.5139 -15.4651 -15.6054 -11.4229 -10.4945 -7.2745 
-20.0537 -19.8929 -17.3699 -17.4062 -16.8336 -17.4014 -20.4845 -16.1329 -13.8239 -10.4945 
-3.957 -4.7955 -1.7565 -1.4985 -3.4975 -3.0695 -4.2215 -2.356 -1.4985 -3.5025 -3.8755 -2.985 -3.5205 -3.2565 0 -3.851 -1.7695 -1.4985 -4.9085 -1.934 -4.2085 -2.985 -4.0145 -2.186 -5.0625 -5.113 0 
-10.564 -5.8 -2.4195 -4.3125 -6.5505 -8.137 -5.914001 -3.1615 -4.16 -7.9855 -6.674 -4.257 -6.842501 -3.2565 -3.851 -4.0015 -2.7955 -6.3085 -5.5315 -6.8165 -7.894001 -6.2615 -6.337 -7.691501 -8.801001 -5.113 
-11.5685 -6.7235 -4.9065 -7.8015 -12.1344 -9.569 -6.921501 -6.2045 -8.200001 -11.0666 -6.984 -7.045 -6.842501 -8.114 -4.0015 -4.5775 -7.6225 -6.795501 -9.394501 -11.2476 -10.5975 -8.663501 -12.2161 -10.3165 -8.801001 
-12.492 -9.269 -9.1675 -13.536 -13.5664 -10.7615 -9.798501 -10.434 -11.3321 -11.3766 -10.0508 -7.045 -12.3892 -8.2815 -4.5775 -8.2015 -7.933001 -10.7645 -14.2026 -13.9511 -12.9995 -14.5918 -14.8411 -10.3165 
-15.0375 -13.8614 -14.9218 -14.968 -14.7589 -13.6385 -14.1008 -13.5661 -11.6421 -14.4434 -10.0508 -12.9627 -12.5567 -8.587501 -8.2015 -8.407001 -12.0248 -15.5726 -16.9061 -16.3531 -18.9278 -17.2168 -14.8411 
-4.2215 -2.356 -4.2115 -4.3665 -3.957 -1.7565 -3.45 -5.298 -2.7455 -3.091 -3.5205 -3.1065 -2.915 0 -2.3345 -4.2085 -3.4625 -2.3615 -2.742 -4.157 -3.193 -2.3345 -3.193 
-5.914001 -7.025001 -9.471001 -8.613501 -4.676 -4.322 -8.834001 -7.781 -5.024 -4.613 -5.9505 -5.981501 -2.915 -2.3345 -7.1475 -7.578001 -5.5055 -4.486 -8.032001 -8.4555 -5.4175 -5.5015 
-11.4402 -12.8261 -14.241 -8.922001 -6.541 -9.277 -11.4808 -9.767 -6.7445 -8.2995 -9.585501 -5.981501 -5.436501 -7.1475 -10.6465 -10.1185 -7.688 -10.2435 -12.4901 -8.823 -5.8765 
-17.2413 -17.5961 -14.5495 -10.1555 -12.0664 -11.9848 -13.4668 -11.4875 -10.8174 -11.5563 -9.585501 -8.8865 -10.468 -10.6465 -13.187 -12.301 -13.6745 -14.8836 -12.8576 -8.825 
-22.0113 -17.9046 -15.783 -15.9099 -14.7742 -13.9708 -15.1873 -15.5604 -14.0742 -11.5563 -12.5691 -14.114 -13.967 -13.187 -15.3695 -18.2875 -18.3146 -15.2511 -12.8596 
-3.17 -1.7565 -3.277 -3.766 -4.4725 -3.951 -1.934 -1.4985 -3.5025 -2.3345 -3.308 
-4.179 -4.25 -6.995501 -8.6485 -8.2045 -5.6445 -2.6125 -4.16 -6.102 -6.531 
-5.4445 -8.149 -12.3006 -12.7295 -9.8105 -6.201 -5.7555 -6.177501 -10.7335 
-9.242001 -13.6215 -16.3816 -14.3355 -10.4705 -8.6555 -7.8415 -11.0304 
-14.8361 -17.7025 -17.9876 -14.9955 -12.925 -11.9937 -13.2972 
