-4.759 
n/a 
n/a 
n/a 
n/a 
-4.759 
n/a 
n/a 
n/a 
n/a 
-4.759 
n/a 
n/a 
n/a 
n/a 
-4.759 
n/a 
n/a 
n/a 
n/a 
-3.321 -2.3085 -4.24 -3.595 -2.3345 -4.938 -3.539 0 
-4.7225 -4.7945 -5.831 -5.631001 -6.959001 -6.535501 -3.539 
-6.5755 -6.2655 -8.7495 -10.9201 -9.8695 -6.535501 
-8.0705 -9.094501 -14.2946 -13.8306 -9.8695 
-10.9977 -14.7436 -17.2051 -13.8306 
-3.436 -3.2495 -3.4795 -3.852 -2.4265 -2.664 -2.3335 -3.6765 -2.6165 -4.0675 
-7.0715 -5.2115 -7.7605 -6.6285 -5.4635 -7.025 -5.3345 -6.124001 -5.419001 
-8.5835 -9.7355 -11.1462 -9.745501 -9.054001 -10.151 -8.0535 -8.7495 
-13.6335 -13.341 -14.2632 -13.4108 -12.3428 -12.87 -10.8168 
-17.239 -16.458 -17.9285 -16.6996 -15.0618 -15.6333 
-2.3085 -4.24 -3.595 0 
-4.7945 -5.831 -3.595 
-6.2655 -5.831 
-6.2655 
n/a 
-2.264 -2.3335 -3.193 -2.3085 -4.919 -3.539 -1.756 -3.962 -3.595 
-4.6785 -5.214 -5.065 -7.3995 -7.177 -4.867001 -6.26 -6.0315 
-6.0465 -6.4785 -10.335 -8.474501 -7.844501 -9.026001 -8.2495 
-7.4375 -11.9669 -11.41 -9.0675 -12.4963 -10.7505 
-12.9931 -13.0419 -12.003 -13.7283 -14.2208 
