-4.759 
n/a 
n/a 
n/a 
n/a 
-4.759 
n/a 
n/a 
n/a 
n/a 
-4.759 
n/a 
n/a 
n/a 
n/a 
-4.759 
n/a 
n/a 
n/a 
n/a 
-1.934 -4.388 -3.4975 -4.698 0 -3.7995 -4.293 -3.499 -2.5195 -4.4225 -3.6825 0 -2.341 -5.6395 -4.4095 -4.4225 -3.9035 0 -3.454 -3.9675 -4.293 -3.499 0 -2.1715 -1.934 -5.1005 0 0 -1.934 -4.698 -4.072 -3.499 -2.5195 -4.4225 -3.6825 0 -4.7115 -2.5195 -3.9675 -3.499 -2.4945 -3.0365 0 -2.1715 -4.43 -2.186 -5.253 0 
-7.173 -8.1455 -8.073 -4.698 -3.7995 -8.259501 -6.84 -5.7205 -7.22 -5.3855 -3.6825 -2.341 -7.945 -9.113501 -7.9455 -9.2475 -3.9035 -3.454 -8.907001 -8.4585 -6.84 -3.499 -2.1715 -4.673 -6.706 -5.1005 0 -1.934 -5.902 -9.903501 -7.3865 -5.7205 -7.22 -5.3855 -3.6825 -4.7115 -7.905 -7.392 -8.4935 -5.2055 -4.952001 -3.0365 -2.1715 -6.9595 -6.2625 -6.98 -5.253 
-11.2847 -13.1722 -8.073 -9.052 -8.259501 -11.6909 -8.995001 -10.019 -8.4355 -5.3855 -6.0885 -7.945 -12.0874 -13.1673 -13.4941 -9.2475 -7.8475 -8.907001 -13.7556 -11.2533 -6.84 -5.9175 -4.673 -9.850201 -6.706 -5.1005 -1.934 -5.902 -11.6303 -13.218 -9.098001 -10.019 -8.4355 -5.3855 -8.795501 -7.905 -13.0193 -12.7416 -10.27 -7.931 -4.952001 -6.618 -6.9595 -8.708 -8.4495 -6.98 
-16.3114 -13.1722 -12.8288 -13.6972 -11.6909 -13.8459 -13.4979 -11.6603 -8.4355 -8.1665 -9.063001 -12.0874 -16.1412 -18.7159 -13.4941 -13.8535 -13.5967 -13.7556 -16.5504 -11.2533 -9.977501 -8.231501 -9.850201 -9.850201 -6.706 -6.4605 -5.902 -11.6303 -14.9448 -14.9295 -13.4841 -11.6603 -8.4355 -10.564 -12.441 -13.0193 -18.3689 -14.5181 -12.9955 -7.931 -8.191 -11.8968 -8.708 -11.6506 -8.4495 
-16.3114 -17.928 -17.474 -17.1286 -13.8459 -18.3488 -15.1392 -11.6603 -11.6377 -11.4812 -14.3754 -16.1412 -21.6898 -18.7159 -18.1001 -19.6027 -18.4453 -16.5504 -16.5504 -14.3908 -12.2915 -14.1181 -9.850201 -9.850201 -8.1285 -8.4565 -11.6303 -14.9448 -16.6563 -19.3156 -15.1254 -11.6603 -14.0352 -14.2095 -17.5553 -18.3689 -20.1454 -17.2436 -12.9955 -11.4126 -13.7144 -13.6453 -11.6506 -11.6506 
-1.934 -1.4985 -6.1715 -3.4975 -8.377001 0 -3.7995 -4.4225 -3.237 -3.6825 -7.022 0 -2.341 -4.015 -4.52 -3.0695 -2.674 -3.8225 -3.7895 -2.356 -4.4225 -3.6825 0 -1.756 -3.454 -4.5665 -3.6825 -12.16972 -2.4945 -3.0365 -1.934 -1.4985 -4.293 0 -2.871 -3.5015 -2.186 -9.5565 0 0 -1.934 -1.4985 -10.6925 -4.072 -4.4225 -3.1385 -1.756 -4.7115 -4.5665 -2.4945 -5.6235 
-2.6125 -6.8675 -10.543 -13.3649 -8.377001 -3.7995 -8.772 -7.733 -7.926001 -9.240001 -7.022 -2.341 -6.732 -6.8785 -6.0035 -4.343 -6.658 -6.1445 -6.29 -6.922501 -5.3855 -3.6825 -1.756 -5.688 -8.340501 -5.489 -16.94922 -14.66422 -4.952001 -5.238 -2.6125 -4.8105 -4.293 -2.871 -5.183 -5.481 -12.9529 -9.5565 0 -1.934 -2.6125 -13.2848 -14.7645 -9.2615 -5.7255 -4.6325 -7.3685 -9.4795 -7.8145 -8.0035 
-7.5315 -10.733 -20.4104 -13.3649 -12.5847 -8.772 -12.3307 -13.1622 -13.8035 -9.240001 -10.058 -6.732 -9.734 -8.6385 -6.757 -7.807001 -8.848001 -7.915 -11.3621 -8.1195 -5.3855 -5.315 -5.688 -10.0995 -9.229001 -19.67432 -19.44372 -17.12172 -6.545001 -5.721 -5.573 -4.8105 -7.0315 -5.183 -7.5755 -16.6367 -12.9529 -9.5565 -1.934 -2.6125 -14.793 -17.3568 -19.954 -10.7897 -9.317 -11.3082 -10.2645 -12.9869 -13.6375 
-11.9536 -20.6004 -20.4104 -17.5726 -17.5572 -12.3307 -17.7599 -19.0397 -13.8035 -12.3406 -14.449 -9.734 -11.494 -9.420001 -10.8744 -9.567 -9.995001 -13.3197 -12.5591 -8.1195 -6.775 -9.743501 -10.0995 -10.988 -23.94932 -22.16882 -21.90122 -18.71472 -6.976501 -8.472 -5.573 -7.823501 -10.4557 -7.5755 -18.9946 -16.6367 -12.9529 -11.7363 -2.6125 -14.793 -18.865 -22.5463 -21.4822 -14.3812 -16.1855 -14.2042 -14.4393 -18.8099 
-21.821 -20.6004 -24.6181 -22.5451 -21.1159 -17.7599 -23.6374 -19.0397 -16.9041 -16.7316 -17.451 -11.494 -12.2755 -13.7876 -12.6344 -10.868 -15.3997 -14.5167 -12.5591 -10.1345 -11.6073 -14.1858 -10.988 -25.70832 -26.44382 -24.62632 -23.49422 -19.14622 -9.408501 -8.472 -8.408001 -11.2719 -12.8482 -18.9946 -18.9946 -16.6367 -15.1327 -12.4148 -14.793 -18.865 -24.0545 -24.0745 -25.0737 -21.2497 -19.0815 -18.379 -20.2623 
-1.934 -1.4985 -6.1715 -3.4975 -4.698 0 -3.0365 -2.4945 -3.7995 -7.045 -4.015 -4.52 -4.4095 -4.704 -1.756 -3.454 -4.8445 -1.934 -4.293 0 -2.871 -3.275 -2.186 -1.934 -4.4515 0 0 -1.934 -1.4985 -3.545 -3.0365 -2.4945 -4.072 -4.704 -1.756 -4.7115 -4.8445 0 -2.871 -3.275 -2.186 -5.253 0 0 
-2.6125 -6.8675 -10.543 -8.073 -4.698 -3.0365 -3.688 -7.494 -11.603 -11.9345 -6.8785 -8.6395 -8.314 -5.9565 -5.688 -8.3175 -6.258 -6.0185 -4.293 -2.871 -6.3625 -5.441 -4.0835 -5.7475 -4.4515 0 -1.934 -2.6125 -4.401 -6.435 -3.688 -7.3015 -9.734 -5.9565 -7.3685 -8.628 -4.8445 -2.871 -6.3625 -5.441 -6.98 -5.253 0 
-7.5315 -10.733 -15.1185 -8.073 -7.491001 -3.688 -7.725501 -11.213 -12.876 -13.545 -11.6 -12.7476 -9.4575 -9.286 -9.476501 -9.21 -9.0555 -6.0185 -7.0315 -6.3625 -8.207001 -7.367001 -7.023 -5.7475 -4.4515 -1.934 -2.6125 -5.1745 -7.026501 -7.1235 -7.7835 -13.3505 -11.0917 -9.4485 -9.380501 -8.628 -8.0395 -6.3625 -8.207001 -8.9685 -6.98 -5.253 
-11.9536 -15.3085 -15.1185 -11.2678 -8.122001 -7.725501 -11.4552 -16.0679 -17.5132 -18.2665 -15.7081 -13.8911 -12.7258 -9.7085 -10.534 -12.6051 -9.0555 -8.210001 -10.3475 -8.207001 -10.382 -10.8119 -7.023 -5.7475 -5.776501 -2.6125 -5.1745 -7.614 -7.739 -11.3086 -14.0727 -14.7082 -14.5837 -9.477 -9.380501 -12.4226 -11.8468 -8.207001 -10.703 -8.9685 -6.98 
-16.5291 -15.3085 -18.3133 -11.8988 -12.2389 -11.477 -16.1117 -19.0699 -22.2347 -22.3746 -16.8516 -17.1594 -13.1483 -10.6635 -14.0405 -12.6051 -11.7184 -13.3884 -12.9892 -10.382 -13.9889 -10.8119 -7.023 -7.799 -6.355 -5.1745 -7.614 -8.33 -11.9389 -17.5978 -15.4304 -18.2002 -14.6122 -9.477 -13.5461 -16.2299 -13.6913 -10.703 -10.703 -8.9685 
-1.934 -1.4985 -6.1715 -3.4975 -4.698 -4.293 0 -3.0365 -2.4945 -3.7995 -7.817 0 -1.756 -2.341 -5.6395 -5.0265 -2.356 -7.817 0 -1.756 -3.454 -4.8445 0 -2.871 -4.43 -2.186 -3.325 -4.602 0 0 -1.934 -1.4985 -4.304 -3.0365 -2.4945 -4.072 -7.817 -1.756 -4.7115 -6.057 0 -2.871 -4.43 -2.186 -5.253 0 
-2.6125 -6.8675 -10.543 -8.073 -7.835001 -4.293 -3.0365 -3.688 -7.494 -12.0233 -7.817 -1.756 -4.5775 -7.945 -10.131 -6.6065 -10.404 -7.817 -1.756 -5.688 -8.3175 -4.8445 -2.871 -6.89 -6.2625 -5.2405 -7.625501 -4.602 0 -1.934 -2.6125 -5.3885 -7.494 -3.688 -7.3015 -12.505 -9.161 -7.3685 -11.1577 -6.057 -2.871 -6.89 -6.2625 -6.98 -5.253 
-7.5315 -10.733 -15.1185 -11.6118 -7.835001 -7.4315 -3.688 -7.725501 -16.0402 -12.0233 -9.161 -4.5775 -8.925 -13.1049 -10.211 -15.0531 -10.404 -9.161 -5.688 -9.476501 -8.3175 -8.0395 -6.89 -8.4545 -9.594501 -8.505 -7.625501 -4.602 -1.934 -2.6125 -6.409 -8.247001 -8.09 -7.7835 -16.1215 -13.849 -15.0327 -14.0401 -11.1577 -9.075001 -6.89 -8.4545 -8.4495 -6.98 
-11.9536 -15.3085 -18.6573 -11.6118 -11.8645 -8.115001 -7.725501 -16.4759 -16.0402 -13.3673 -12.2417 -8.925 -14.3583 -13.1849 -19.3832 -15.0531 -11.748 -13.3522 -9.476501 -9.476501 -11.8257 -10.31 -8.4545 -12.1425 -12.9148 -8.505 -7.625501 -6.3035 -2.6125 -6.409 -9.0065 -8.946 -12.2769 -16.8437 -17.4655 -19.7207 -21.7043 -14.0401 -14.1757 -13.216 -8.4545 -9.481 -8.4495 
-16.5291 -18.8473 -18.6573 -15.6413 -12.548 -12.2879 -16.4759 -16.4759 -17.3842 -16.448 -16.5892 -14.3583 -14.4383 -22.3571 -19.3832 -16.3971 -15.9392 -17.1407 -9.476501 -13.0219 -14.0962 -11.8745 -12.1425 -15.4628 -12.9148 -8.505 -8.9685 -6.868001 -6.409 -9.0065 -9.7005 -13.1737 -21.3371 -18.1877 -23.3372 -26.3923 -21.7043 -17.0581 -18.3167 -14.7805 -9.481 -9.481 
