-4.759 
n/a 
n/a 
n/a 
n/a 
-4.759 
n/a 
n/a 
n/a 
n/a 
-4.759 
n/a 
n/a 
n/a 
n/a 
-4.759 
n/a 
n/a 
n/a 
n/a 
-1.934 -6.848001 -4.68 -3.1435 -3.6825 -3.3255 -4.6695 -4.169 
-9.1225 -12.035 -7.3525 -7.410501 -7.171 -7.879001 -8.734501 
-14.4809 -14.7075 -12.2255 -11.472 -12.2009 -12.4622 
-17.1534 -19.5805 -16.287 -16.5019 -16.7841 
-22.0264 -23.642 -21.3169 -21.0851 
-5.3885 -2.229 -4.042 -2.8645 -1.8085 -4.5515 -4.109 -3.918 -1.934 -1.4985 -3.6115 0 -3.5965 0 -3.433 0 -4.0535 -4.194 0 -1.756 -4.222 -4.3035 
-7.854 -5.339 -6.0515 -3.9785 -5.04 -8.177 -6.715 -5.666 -2.6125 -4.8215 -3.6115 -3.5965 -3.5965 -3.433 -3.433 -4.0535 -7.3415 -4.194 -1.756 -5.807 -7.316 
-10.19 -6.943501 -7.731501 -6.719 -8.739 -9.147501 -8.018001 -6.38 -5.6145 -4.8215 -7.341001 -3.5965 -5.7115 -3.433 -6.611 -7.3415 -7.3415 -5.4655 -5.807 -7.4495 
-10.336 -8.758 -9.628 -9.487 -9.271501 -9.614501 -8.508 -9.413501 -5.6145 -8.720501 -7.341001 -5.7115 -5.7115 -6.611 -9.6955 -7.3415 -8.820001 -8.344001 -7.4495 
-10.353 -9.7075 -9.691501 -9.578501 -9.6505 -9.666 -11.8543 -9.413501 -9.983001 -8.720501 -10.195 -5.7115 -7.993 -9.6955 -9.6955 -8.820001 -10.1545 -9.170001 
-9.2615 -3.2955 -4.6695 -4.7275 -1.934 -1.4985 -4.1665 -2.0935 -7.539001 -7.751501 -7.716001 0 
-11.711 -8.8315 -8.2255 -6.034 -2.6125 -5.1785 -5.4735 -9.941 -7.818501 -7.826001 -7.716001 
-17.6216 -12.9997 -10.2658 -6.529001 -6.3595 -6.3045 -14.0548 -10.9553 -7.852001 -7.826001 
-22.1822 -15.04 -10.7608 -9.730501 -7.578001 -15.3778 -15.0691 -10.9888 -7.852001 
-24.2225 -15.535 -13.9623 -10.752 -16.8253 -16.3921 -15.1026 -10.9888 
-5.1845 -3.8195 -4.169 -3.152 -9.215501 -1.934 -3.9175 -1.934 -6.848001 -2.3345 -9.2615 
-6.896501 -7.844501 -6.797 -13.6773 -10.523 -4.681 -6.211 -9.1225 -9.769001 -9.5015 
-11.9383 -10.2595 -17.6883 -14.9848 -13.27 -7.441 -13.9263 -12.2149 -17.3537 
-14.3533 -21.1508 -18.9958 -17.7318 -16.03 -15.5783 -17.0187 -20.0491 
-25.2446 -22.4583 -21.7428 -20.4918 -24.1673 -18.6707 -24.8529 
