-4.759 
n/a 
n/a 
n/a 
n/a 
-4.759 
n/a 
n/a 
n/a 
n/a 
-4.759 
n/a 
n/a 
n/a 
n/a 
-4.759 
n/a 
n/a 
n/a 
n/a 
-1.4985 -4.1735 -5.2445 -3.711 -1.934 -4.38 -2.5045 -1.7565 -2.8845 -2.4945 -1.934 -1.4985 -3.568 -2.5045 -3.401 -1.4985 -3.859 -3.2795 -1.7565 -5.5485 -1.7695 -4.8215 -3.893 -4.38 -2.229 -5.2415 0 -3.2615 -3.45 -2.5195 -5.092 -1.756 -3.875 0 -2.7415 -2.5195 -5.177 -3.8005 -4.1125 -4.1645 -2.264 -4.02 -4.1975 -4.4605 -5.0305 -1.934 -4.38 -4.129 -1.934 -5.596 -1.934 -5.419 -1.4985 -3.0835 -3.4975 -5.679 -4.0555 -1.7695 -5.7265 -5.0275 -1.756 -4.597 -1.4985 -6.507 -4.02 -4.029 -2.925 -3.152 -5.062 -1.934 -5.4605 -1.4985 -5.094 -5.129 -1.7695 -3.498 -3.6835 -5.1645 0 
-4.445 -8.2575 -7.580501 -5.1995 -5.632 -7.1395 -4.4235 -5.125 -6.244 -4.2645 -2.6125 -4.649 -6.096 -5.866 -5.348001 -4.4795 -6.74 -4.4575 -6.561 -6.9265 -5.417 -8.400001 -9.248 -6.1135 -7.1265 -5.2415 -3.2615 -6.544001 -5.822001 -8.3035 -7.492 -5.479 -3.875 -2.7415 -5.6585 -7.8935 -8.1165 -6.203 -7.118 -6.268001 -6.452001 -8.394501 -8.083 -9.8785 -5.755001 -5.632 -8.3525 -5.628 -6.901 -7.491 -6.86 -7.355 -3.535 -5.910501 -7.512 -8.134501 -4.7475 -6.201001 -8.6085 -6.078 -5.957 -5.7775 -7.6125 -10.4765 -7.8705 -6.219501 -4.203 -6.782001 -5.7095 -6.9075 -6.6575 -6.183001 -9.071001 -7.1075 -4.8045 -7.45 -6.894001 -5.1645 
-8.349001 -8.3075 -8.943501 -8.8155 -7.7135 -8.9005 -6.793 -7.680501 -8.3 -4.935 -5.297501 -6.7155 -8.1995 -7.4665 -8.2215 -7.0035 -7.291 -8.378 -7.9425 -9.79 -8.789001 -10.3885 -9.6985 -9.371 -7.1265 -8.379001 -6.544001 -9.283501 -10.4675 -9.220501 -10.022 -5.479 -6.528 -5.6585 -10.4675 -9.9355 -10.348 -9.4755 -9.17 -9.901501 -10.316 -10.3165 -10.5975 -10.4225 -9.056001 -8.586 -9.7345 -9.755001 -8.33 -10.3415 -7.9285 -8.8035 -6.421 -9.56 -9.873501 -8.438001 -8.4725 -8.81 -9.7795 -9.9565 -7.0125 -9.956 -10.609 -10.6125 -9.8105 -7.8255 -7.979501 -6.818501 -8.3585 -7.5445 -10.6095 -9.689501 -10.3755 -9.793501 -7.7685 -10.0125 -6.894001 
-8.374001 -9.176001 -10.564 -10.4425 -9.617001 -10.575 -9.284 -9.085 -8.864 -7.984001 -7.615001 -8.39 -9.484501 -10.233 -10.361 -7.647 -10.4105 -9.675001 -10.248 -10.3775 -10.389 -10.4005 -10.385 -9.371 -9.383 -10.5975 -9.283501 -10.598 -10.5785 -10.4275 -10.022 -8.049001 -9.658001 -10.4675 -10.612 -10.602 -10.609 -10.565 -10.5435 -10.59 -10.429 -10.608 -10.617 -10.6145 -10.5235 -10.0315 -10.6125 -10.406 -10.381 -10.4 -9.187 -10.004 -9.605 -10.611 -10.004 -10.2645 -10.476 -9.915501 -10.3775 -10.309 -10.3155 -10.6135 -10.629 -10.632 -10.4705 -10.382 -8.009501 -9.237 -8.765 -10.609 -10.6295 -10.5655 -10.622 -10.612 -10.1505 -10.0125 
-9.681001 -10.5865 -10.6275 -10.6115 -10.5995 -10.616 -10.5145 -9.896501 -10.3675 -9.588 -8.877501 -9.648001 -10.587 -10.618 -10.5545 -10.4665 -10.48 -10.349 -10.383 -10.4035 -10.401 -10.4125 -10.385 -10.39 -10.599 -10.617 -10.598 -10.6175 -10.63 -10.4275 -10.6025 -10.5745 -10.5995 -10.612 -10.6315 -10.6215 -10.6285 -10.605 -10.6155 -10.609 -10.621 -10.6275 -10.6365 -10.646 -10.54 -10.615 -10.6325 -10.4575 -10.4 -10.412 -10.348 -10.34 -10.611 -10.631 -10.6175 -10.607 -10.612 -10.3785 -10.389 -10.3895 -10.619 -10.6335 -10.649 -10.6515 -10.627 -10.394 -10.1345 -9.661 -10.6095 -10.629 -10.6495 -10.629 -10.642 -10.632 -10.1505 
-1.4985 -3.4225 -3.468 -1.7565 -3.676 -2.186 -2.871 -1.7565 -1.4985 -4.7505 -2.9705 -2.8645 -8.319 -4.483 -1.756 -3.6065 -7.206 -2.186 -3.433 -1.7565 -3.6885 -3.264 -1.7565 -3.1385 -6.403 -2.5195 -3.6065 -3.9035 -1.7565 -1.4985 -4.686501 -4.042 -1.7565 -1.4985 -3.4225 -3.468 -2.186 -1.4985 -3.188 -2.229 -4.1735 -3.4075 -5.976 -2.8845 -1.4985 -4.63 -4.326 -3.3855 -4.9825 -2.7415 -4.3765 -1.7695 -2.489 -2.791 0 -5.5185 -5.3505 0 -3.9345 -1.7695 -5.1835 -3.6605 -4.9825 0 -2.4265 -4.6015 -3.1255 0 -2.9905 -1.7565 -3.1635 0 -3.188 -2.229 -3.5085 -4.358 
-3.9655 -3.628 -4.7385 -4.4345 -5.5015 -4.247 -3.5385 -2.4195 -5.934 -6.927 -4.6335 -9.610001 -7.881001 -5.528 -5.5745 -8.8885 -8.1035 -5.0505 -4.1845 -5.255 -5.0915 -3.6125 -4.388 -8.514501 -7.308001 -5.35 -5.818501 -4.616 -2.4195 -5.4385 -8.2875 -5.657001 -2.4195 -3.9655 -3.628 -5.589 -3.339 -3.619 -4.279 -4.7675 -6.877 -7.909 -8.5255 -4.696 -5.741 -5.88 -5.8915 -6.5255 -7.176 -5.951 -5.572 -3.1405 -6.722 -2.791 -5.1325 -9.219 -5.3505 -3.9345 -3.94 -7.302001 -9.157001 -7.267 -4.9825 -2.4265 -6.066 -8.3835 -3.1255 -2.9905 -3.6185 -5.5615 -3.1635 -3.188 -4.279 -5.5445 -7.7585 
-4.053 -5.001 -5.0245 -6.1445 -7.347 -4.411 -3.7675 -6.601001 -7.772501 -9.037001 -11.392 -12.0895 -9.246 -8.686001 -11.2205 -10.3475 -10.053 -5.977 -7.5785 -7.644001 -5.1115 -5.281 -9.660501 -9.613501 -10.304 -6.805 -5.8745 -4.895 -6.0455 -8.6035 -9.793501 -6.3325 -4.6245 -4.053 -5.694 -6.7135 -4.9385 -4.3695 -5.0625 -7.632501 -10.0355 -9.732 -8.8935 -8.381001 -6.8885 -5.915 -6.5325 -8.344 -8.569 -6.552 -5.857 -7.253 -6.722 -8.5585 -8.226501 -8.226501 -7.9405 -3.94 -9.377501 -11.4909 -9.7805 -7.267 -7.4815 -6.066 -9.8785 -8.3835 -7.114 -3.6185 -6.959001 -5.5615 -7.112 -4.279 -7.274 -9.348001 
-5.385 -5.036 -7.189 -7.652 -7.4115 -4.5655 -8.9975 -8.405001 -10.494 -15.9309 -13.7441 -13.2122 -12.494 -14.736 -12.0944 -11.8495 -11.1565 -9.549001 -8.988 -7.703001 -6.0365 -10.609 -10.69 -12.6665 -10.7595 -6.8145 -6.0165 -7.339 -9.284501 -9.425 -9.693501 -7.5295 -4.7175 -5.7135 -6.7995 -7.704 -4.97 -5.124 -8.7145 -9.989 -10.7465 -10.384 -12.0405 -9.4375 -6.912001 -6.535 -8.348001 -9.27 -9.179501 -6.712 -8.1285 -7.253 -11.8888 -9.865001 -8.226501 -10.9705 -7.9435 -9.377501 -13.6398 -12.1144 -9.7805 -9.419001 -11.7324 -9.8785 -9.8785 -12.665 -7.214 -6.959001 -6.959001 -9.5375 -8.8225 -7.274 -10.688 
-5.437 -7.199 -8.9735 -7.670001 -7.481 -9.8625 -11.0345 -11.2855 -17.3879 -18.2336 -14.7926 -16.2457 -18.571 -15.5125 -13.9569 -13.042 -14.4545 -11.0243 -8.9965 -9.2705 -12.0791 -11.7335 -13.743 -13.122 -10.769 -6.924 -7.883501 -10.2455 -10.3865 -10.436 -11.059 -7.569001 -6.630001 -6.8165 -7.7085 -7.7345 -5.6545 -8.733001 -10.2826 -12.9591 -12.9505 -13.6699 -12.9359 -9.454 -7.419001 -8.349 -9.271501 -10.1515 -9.5205 -8.8255 -8.1285 -12.1728 -13.1953 -9.865001 -10.9705 -10.9725 -13.821 -13.6398 -14.2633 -12.1144 -12.4883 -13.7041 -15.5449 -9.8785 -14.3432 -12.765 -8.7355 -6.959001 -11.5716 -11.462 -12.1881 -10.688 
-3.676 -2.674 -3.3715 -3.9675 -4.9225 0 -1.756 -3.17 -1.7565 -2.5685 -4.9225 -2.4945 -4.066 -1.7695 -3.676 -3.59 -1.4985 -3.5085 -5.0855 -2.186 -5.5185 -5.3505 -4.3515 -1.934 -2.8845 0 
-6.567 -5.4105 -8.467001 -8.903501 -4.9225 -1.756 -4.684 -4.179 -3.938 -6.688 -6.9525 -8.2085 -4.6735 -5.5605 -7.131001 -5.348001 -4.4755 -7.8205 -7.921 -8.251 -9.219 -6.4275 -5.461 -4.7805 -2.8845 
-9.424 -10.6875 -13.6116 -8.903501 -6.156 -4.684 -5.507 -5.799 -7.3265 -8.4215 -12.9845 -8.6765 -7.293 -9.604001 -10.404 -8.3105 -9.2685 -10.1465 -14.0762 -11.22 -9.4235 -7.2885 -7.953 -4.7805 
-14.7424 -15.8321 -13.6116 -9.512001 -9.4375 -5.507 -6.2215 -10.634 -9.5135 -14.7555 -13.4525 -12.355 -11.6369 -13.5866 -13.3665 -13.2801 -10.6885 -16.3017 -16.0387 -11.5235 -10.719 -9.428 -7.953 
-19.887 -15.8321 -14.2201 -13.1039 -10.032 -6.2215 -10.733 -12.821 -15.8995 -15.2235 -17.131 -16.6989 -15.6195 -16.5491 -18.3361 -14.7001 -16.8437 -18.2642 -17.4737 -12.6278 -12.9769 -9.428 
-3.676 -2.186 -2.871 -1.7565 -1.4985 -3.959 -2.3335 -2.674 -3.1385 -1.7565 -3.6065 -3.9675 -1.756 -4.399 -3.8245 -1.934 -2.3615 -3.59 -4.7715 -4.8445 -3.433 -1.7565 -3.1385 -5.4675 -2.5195 -3.6065 -3.9035 -1.7565 -1.4985 -3.188 -3.4975 -4.042 -2.186 -2.871 -1.7565 -1.4985 -4.1735 -1.756 -6.2445 -4.042 -1.934 -1.4985 -3.158 -2.8845 -1.4985 -3.959 -4.9825 -2.7415 -5.5185 -5.3505 -3.4975 -4.3515 0 -3.402 -2.264 -2.8195 -3.8935 -3.676 -4.853 -3.1635 0 -1.7565 -1.4985 -3.5085 -4.834 -4.3245 -1.756 -1.934 -4.388 -4.067 -3.1255 0 -1.7565 -1.4985 -4.834 -4.3245 0 
-5.5015 -4.247 -3.5385 -2.4195 -5.5 -5.649 -4.382 -5.992 -4.861 -4.8305 -6.878 -4.9775 -6.459 -8.0905 -4.7245 -3.539 -5.0215 -8.329 -8.431 -8.030001 -4.1845 -4.388 -7.939001 -6.1735 -5.35 -5.818501 -4.616 -2.4195 -3.619 -7.127501 -6.344 -5.5265 -4.247 -3.5385 -2.4195 -4.445 -5.5705 -7.831501 -9.351501 -5.679 -2.6125 -4.178 -5.403501 -4.696 -5.5 -8.0235 -7.176 -8.256001 -9.219 -8.976 -6.739 -4.3515 -3.402 -3.793 -5.562 -7.038501 -8.851501 -7.7615 -8.941 -3.1635 -1.7565 -2.4195 -4.4755 -9.333 -9.805 -5.869 -4.0205 -5.8095 -8.7805 -7.5515 -3.1255 -1.7565 -2.4195 -5.5435 -9.805 -4.3245 
-7.347 -4.411 -3.7675 -6.073501 -6.658 -6.3875 -8.096001 -8.1 -6.6685 -8.5165 -7.6265 -9.235001 -10.76 -8.2115 -6.682 -5.3335 -9.287001 -12.0843 -12.6355 -8.3655 -7.2065 -8.533501 -8.434001 -9.7755 -6.805 -5.8745 -4.895 -4.4095 -7.455 -10.7025 -7.570001 -7.799 -4.411 -3.7675 -5.186 -5.817 -8.3675 -10.4185 -9.775001 -6.2405 -5.265 -6.3145 -6.87 -9.147501 -9.2605 -10.3545 -11.0645 -10.9455 -12.1555 -9.750501 -6.739 -7.02 -3.793 -7.887001 -9.038501 -12.3715 -13.3014 -12.5535 -8.941 -5.737 -2.4195 -5.126 -10.3545 -14.6496 -11.3495 -8.219501 -8.182501 -9.7565 -12.5134 -7.5515 -5.654 -2.4195 -5.9845 -11.2911 -9.805 
-7.4115 -4.5655 -7.045 -7.232 -7.4185 -10.0955 -10.1425 -9.1765 -9.309 -9.222501 -12.2612 -13.666 -10.881 -10.575 -7.651 -9.4525 -13.0687 -16.2888 -12.971 -11.4841 -10.749 -9.1695 -12.464 -10.6905 -6.8145 -6.0165 -5.773 -8.325001 -11.1994 -11.9285 -9.804501 -8.0295 -4.5655 -5.304 -6.277 -8.479 -10.5225 -10.746 -9.946501 -8.602501 -7.255001 -7.496 -11.8257 -13.019 -11.6111 -13.189 -12.5855 -14.6175 -13.192 -9.750501 -9.7825 -7.589 -7.887001 -10.6595 -14.5435 -16.8214 -18.0934 -12.5535 -10.127 -6.3985 -5.126 -10.513 -15.6711 -16.1941 -13.7 -10.634 -12.2717 -13.5024 -12.5134 -8.981501 -6.313 -5.9845 -11.7793 -11.2911 
-7.481 -7.654 -7.9195 -8.019001 -10.7595 -12.219 -11.219 -11.8448 -9.834001 -13.9386 -16.6922 -13.787 -13.2445 -10.768 -11.9058 -13.2572 -17.2732 -16.6243 -16.0896 -15.0266 -11.385 -13.3817 -13.379 -10.729 -6.924 -6.6695 -9.5575 -12.2104 -12.4254 -14.163 -10.226 -8.134501 -5.7115 -6.3855 -8.953501 -10.6465 -10.85 -10.789 -13.0479 -10.4265 -8.3715 -12.5321 -15.6972 -15.3696 -14.4456 -16.434 -17.4465 -15.392 -13.192 -12.8332 -9.789001 -12.1002 -10.6595 -16.1645 -18.9934 -21.6134 -18.0934 -13.7395 -10.593 -7.969 -10.513 -15.8296 -17.2156 -18.5446 -16.1145 -16.0382 -16.0176 -13.5024 -13.9434 -9.328001 -9.633 -11.7793 -11.7793 
