-4.759 
n/a 
n/a 
n/a 
n/a 
-4.759 
n/a 
n/a 
n/a 
n/a 
-4.759 
n/a 
n/a 
n/a 
n/a 
-4.759 
n/a 
n/a 
n/a 
n/a 
-1.934 -7.680501 -3.8405 0 -6.864 -2.229 -4.9095 -3.0415 -3.3715 -3.535 -3.8195 -1.7695 -4.1 0 
-9.620001 -9.217001 -3.8405 -6.864 -8.205501 -7.8385 -8.227 -4.5985 -6.0235 -6.625 -5.597 -5.4985 -4.1 
-11.1805 -9.217001 -10.1725 -8.205501 -14.6972 -11.6688 -9.229 -7.583 -8.906501 -8.4835 -9.834001 -5.4985 
-11.1805 -15.6632 -11.7004 -14.6972 -18.5275 -12.6708 -12.2541 -10.6366 -10.8382 -12.7921 -9.834001 
-17.6267 -17.1911 -18.1921 -18.5275 -19.5295 -15.6959 -15.3077 -12.5683 -15.1468 -12.7921 
-1.934 -2.3335 -7.4885 -5.1605 -3.535 -4.088 
-4.359 -10.533 -9.995501 -9.3555 -7.354 
-13.1509 -13.04 -14.2771 -13.5671 
-15.6579 -17.3216 -18.4887 
-19.9395 -21.5332 
-3.5455 -1.4985 -4.1 -1.7565 -7.680501 -1.4985 -3.0365 -2.4945 -3.3715 -3.535 -4.6805 -4.9295 -3.948 -3.8195 -1.934 -1.4985 -2.3335 -3.5015 0 
-3.91 -5.0695 -5.164001 -9.051001 -9.428 -6.602 -3.688 -4.846 -6.0235 -8.8915 -8.925501 -9.776001 -6.343 -5.221 -2.6125 -6.2355 -5.909 -3.5015 
-7.5595 -5.5715 -13.5173 -11.0393 -15.0953 -7.3535 -4.8765 -7.461 -10.6735 -13.2933 -14.2254 -12.171 -7.7095 -5.7955 -7.4325 -9.504 -5.909 
-7.641 -14.2236 -15.5056 -16.7066 -15.8468 -8.6365 -7.489501 -12.1916 -15.0753 -18.5932 -16.6204 -13.5375 -8.160001 -11.0753 -10.733 -9.504 
-16.3253 -16.2119 -21.1729 -17.4581 -17.1298 -11.2749 -12.2365 -16.5934 -20.3752 -20.9882 -17.9869 -13.988 -13.5978 -14.3758 -10.733 
-3.0365 -2.186 -2.847 -4.0745 -1.7695 -3.335 -2.3335 -12.16972 -6.302001 -4.2745 -4.1715 -1.4985 -3.873 -1.7565 -1.4985 -7.235 0 
-3.66 -4.1045 -5.452 -5.421 -4.5005 -4.79 -15.69402 -18.47172 -9.7005 -6.7745 -4.693 -4.7405 -5.197001 -2.4195 -8.3795 -7.235 
-4.256001 -5.954 -6.4945 -6.785 -5.4505 -18.28072 -21.99602 -21.87022 -12.4155 -7.1445 -8.0825 -5.489 -5.803 -8.9425 -8.3795 
-5.9605 -6.891 -7.709 -6.953 -19.22182 -24.58272 -25.39452 -24.58522 -12.7855 -10.768 -8.340501 -6.136 -13.2756 -8.9425 
-6.8935 -8.062 -7.851 -20.75652 -25.52382 -27.98122 -28.10952 -24.95522 -16.409 -11.026 -9.4965 -13.6892 -13.2756 
