-4.759 
n/a 
n/a 
n/a 
n/a 
-4.759 
n/a 
n/a 
n/a 
n/a 
-4.759 
n/a 
n/a 
n/a 
n/a 
-4.759 
n/a 
n/a 
n/a 
n/a 
-5.42 -7.2935 0 -7.8725 0 -6.868001 0 -12.16972 -2.4945 -3.135 -1.7565 -1.4985 -3.383 -3.301 -4.468 
-13.4421 -7.2935 -7.8725 -7.8725 -6.868001 -6.868001 -12.16972 -14.66422 -4.575 -3.9195 -2.4195 -4.554501 -4.6415 -7.502 
-13.4421 -10.3815 -7.8725 -15.2801 -6.868001 -19.73712 -14.66422 -16.74472 -5.097 -4.168 -5.7505 -6.9835 -8.595 
-16.5301 -10.3815 -15.2801 -15.2801 -19.73712 -22.23162 -16.74472 -17.26672 -5.465 -6.819 -8.0275 -11.136 
-16.5301 -17.7891 -15.2801 -28.14922 -22.23162 -24.31212 -17.26672 -17.63472 -8.118 -8.917001 -12.256 
-8.0625 0 -7.8725 0 -7.2505 0 -6.5395 -7.849 -2.4945 -4.4695 -6.9515 0 
-8.0625 -7.8725 -7.8725 -7.2505 -7.2505 -6.5395 -9.0345 -10.9575 -6.5845 -9.031 -6.9515 
-16.6692 -7.8725 -15.6626 -7.2505 -14.2668 -9.0345 -12.9266 -15.0475 -12.0534 -9.031 
-16.6692 -15.6626 -15.6626 -14.2668 -16.7618 -12.9266 -17.0166 -20.5164 -12.0534 
-24.4593 -15.6626 -22.6789 -16.7618 -20.6539 -17.0166 -22.4855 -20.5164 
-7.2935 0 -7.8725 0 -6.868001 -1.756 -12.16972 -2.4945 -3.135 -3.485 -3.301 -4.468 
-7.2935 -7.8725 -7.8725 -6.868001 -8.331 -14.93432 -14.66422 -4.575 -6.7215 -6.3675 -7.502 
-10.3815 -7.8725 -15.2801 -8.331 -21.95132 -17.42882 -16.74472 -7.868001 -9.859 -12.3763 
-10.3815 -15.2801 -16.7431 -21.95132 -24.44582 -19.50932 -20.03772 -11.4537 -16.505 
-17.7891 -16.7431 -30.36342 -24.44582 -26.52632 -22.80232 -23.62342 -18.0997 
-3.4775 -8.0625 0 -7.8725 0 -6.868001 -1.756 -12.16972 -2.4945 -3.135 -1.7565 -1.4985 -4.4695 -4.468 0 
-12.506 -8.0625 -7.8725 -7.8725 -6.868001 -8.331 -14.93432 -14.66422 -4.575 -3.9195 -2.4195 -5.252501 -8.226501 -4.468 
-12.506 -16.6692 -7.8725 -15.2801 -8.331 -21.95132 -17.42882 -16.74472 -5.097 -4.168 -6.027 -9.661501 -8.226501 
-21.1127 -16.6692 -15.2801 -16.7431 -21.95132 -24.44582 -19.50932 -17.26672 -5.465 -7.54 -10.316 -9.661501 
-21.1127 -24.0768 -16.7431 -30.36342 -24.44582 -26.52632 -20.03132 -17.63472 -8.5795 -12.1362 -10.316 
