-4.759 
n/a 
n/a 
n/a 
n/a 
-4.759 
n/a 
n/a 
n/a 
n/a 
-4.759 
n/a 
n/a 
n/a 
n/a 
-4.759 
n/a 
n/a 
n/a 
n/a 
-3.324 -5.18 -3.013 -2.6165 -3.115 -3.2775 -4.663 0 
-7.877501 -7.7495 -3.724 -5.172501 -6.444 -6.339 -4.663 
-10.6964 -8.4575 -5.910501 -8.326 -10.411 -6.339 
-11.4044 -10.9438 -8.76 -11.9294 -10.411 
-13.8907 -13.7933 -12.2924 -11.9294 
-4.2675 -5.828 -3.013 -5.651501 -3.465 -1.7695 -4.3855 -3.115 -2.3615 -7.364 
-8.209001 -9.334001 -8.529501 -6.666501 -3.665 -5.4125 -7.503 -4.312 -8.548 
-12.0908 -14.2789 -11.3185 -8.602501 -8.06 -8.357 -9.431001 -10.3191 
-17.0357 -15.9089 -9.657001 -13.4155 -10.76 -10.218 -15.4381 
-18.6657 -16.1189 -14.3385 -16.0323 -12.621 -16.2251 
-4.2675 -5.701 -3.013 -2.6165 -4.0165 -3.2775 -4.663 -1.7695 -4.397 
-8.366501 -8.557 -3.724 -5.557 -7.791 -6.339 -6.5295 -5.136 
-11.5013 -8.75 -5.6745 -8.741 -11.1277 -7.7865 -9.555 
-11.6943 -10.5035 -9.134501 -12.3837 -12.5752 -10.66 
-13.4478 -13.9719 -12.8746 -13.8312 -15.4487 
-3.324 -5.18 -3.4405 -5.651501 -3.115 -2.3615 -4.2605 -4.683 
-7.877501 -9.5455 -9.1385 -7.001 -4.312 -5.3675 -8.027 
-12.4924 -13.8454 -11.3375 -10.026 -8.378 -8.4665 
-16.7923 -15.6979 -10.7415 -12.409 -11.7222 
-18.6448 -16.9333 -13.752 -16.2042 
