-4.759 
n/a 
n/a 
n/a 
n/a 
-4.759 
n/a 
n/a 
n/a 
n/a 
-4.759 
n/a 
n/a 
n/a 
n/a 
-4.759 
n/a 
n/a 
n/a 
n/a 
-2.5195 -1.4985 -3.9785 -1.7565 -4.602 -4.153 -3.995 -4.1455 0 -4.1115 -2.186 -1.4985 -3.784 -4.237 -2.95 
-3.1695 -4.496 -4.924 -6.552001 -5.112 -7.973001 -6.749001 -4.1455 -4.1115 -6.279 -3.339 -4.6165 -7.665 -7.9595 
-6.0535 -4.959 -9.1715 -6.637001 -8.6335 -10.9782 -6.749001 -7.849501 -6.279 -7.386 -6.113 -8.256001 -10.209 
-6.6455 -9.262501 -9.215501 -9.4545 -11.7181 -10.9782 -10.411 -11.0104 -7.386 -10.5056 -9.722501 -10.4505 
-10.5035 -9.31 -12.132 -12.7879 -11.7181 -14.6402 -13.5719 -12.1174 -10.5056 -14.1151 -11.9582 
-3.7405 -12.16972 -3.8535 -5.7865 -5.1915 0 -2.872 -2.7835 -2.7295 -3.047 -1.4985 -4.7885 -9.3985 -4.374 -3.9545 0 -5.501 -4.237 -1.756 -2.8965 -2.4265 -2.742 -3.3165 -4.1715 -1.4985 -3.158 -5.1915 
-17.26022 -16.02322 -9.1835 -10.0195 -5.1915 -2.872 -4.5805 -4.405 -5.018 -4.095 -5.282001 -15.517 -13.8775 -7.0585 -3.9545 -5.501 -8.059 -5.4575 -3.751 -5.9395 -4.095 -5.001 -5.655 -4.693 -4.178 -7.469501 
-21.11372 -21.35322 -13.6265 -10.0195 -8.3575 -4.5805 -5.995 -6.831501 -5.9645 -8.495501 -16.4267 -19.996 -16.562 -7.0585 -10.1385 -8.059 -9.4175 -7.9095 -7.18 -7.6905 -6.246 -7.4205 -6.2185 -7.7685 -7.545 
-26.44372 -25.79622 -13.6265 -13.2809 -9.911 -5.995 -8.259501 -7.8345 -9.880501 -19.7772 -20.9057 -22.6805 -16.562 -14.0321 -13.2409 -9.4175 -12.4521 -11.8379 -9.945001 -10.1105 -8.6875 -7.871 -9.777 -9.663001 
-30.88672 -25.79622 -16.8879 -14.8344 -11.3947 -8.259501 -9.233001 -11.8737 -21.1622 -24.2562 -23.5902 -22.6805 -23.5356 -17.1345 -14.5994 -12.4521 -16.3805 -14.6029 -12.3674 -12.552 -9.2935 -11.5623 -11.5595 
-3.994 -3.326 -2.4945 -3.402 -2.264 -1.4985 -4.554 -3.158 -5.1915 0 -3.4765 -4.237 -5.12 -2.186 -4.3315 -6.7215 -2.4285 -5.7445 -4.237 -5.18 -4.461 0 -13.7805 -3.3435 0 -2.9705 -3.837 -3.6605 -4.7425 -2.742 -3.4765 -3.956 -3.2615 -5.1915 0 
-7.542 -6.2475 -4.92 -3.793 -2.9195 -6.0015 -8.733001 -7.469501 -5.1915 -3.4765 -7.2675 -9.946 -6.9195 -5.345 -10.66 -9.102 -8.6385 -10.4345 -7.7075 -10.259 -4.461 -12.3565 -17.001 -3.3435 -2.9705 -5.8435 -7.8765 -4.8735 -6.917 -6.092 -7.6675 -6.7315 -8.444 -5.1915 
-11.2139 -8.609501 -5.014 -4.34 -7.475 -9.597 -13.4783 -7.469501 -8.969 -7.2675 -13.7601 -11.8615 -10.6735 -12.4437 -13.0405 -15.6398 -13.5399 -14.3128 -13.0209 -10.259 -13.356 -13.3686 -13.3686 -6.0635 -5.8435 -9.776001 -8.650001 -7.011001 -10.298 -9.0045 -9.4725 -12.3762 -8.444 
-13.5759 -8.709001 -5.585001 -7.731501 -11.2133 -14.6603 -13.4783 -10.096 -13.1806 -13.7601 -15.6756 -15.6155 -17.7722 -14.8242 -19.5783 -20.5412 -17.4182 -19.6262 -13.0209 -19.378 -18.3813 -13.4758 -16.6508 -9.0175 -9.776001 -10.6245 -9.547001 -10.4105 -13.2105 -10.674 -15.3006 -12.3762 
-13.6754 -9.299001 -9.534 -11.5288 -16.2766 -14.6603 -16.1048 -14.3166 -19.6732 -15.6756 -19.4296 -22.7142 -20.1527 -21.362 -24.4797 -24.4195 -22.7316 -19.6262 -22.1399 -24.4033 -18.3813 -16.6508 -19.6048 -13.0394 -10.6245 -11.5215 -13.5929 -13.323 -14.88 -16.5021 -15.3006 
-2.4265 -2.7415 -2.6165 -3.834 -1.4985 -4.719 -1.7565 -1.4985 -4.1985 -5.0155 -1.934 -5.1915 -2.3335 -1.4985 -4.127 -3.7515 -1.7565 -3.741 -5.276 -4.331 -3.436 -2.3615 -2.95 0 -2.4265 -2.7415 -2.6165 -4.742 -5.5365 -1.7695 -4.1805 -2.915 -2.7455 -1.4985 -3.485 -3.1715 -1.7565 -1.4985 -3.741 -2.9995 -4.496 -3.1575 -1.8085 -4.78 -4.3395 0 -1.756 -1.4985 -4.3395 -3.074 -2.7415 -1.8085 -3.383 -2.688 -3.433 -2.5045 -2.3335 -2.95 0 0 -1.4985 -5.0155 -4.2175 -3.724 -1.7565 -3.741 -3.618 -2.5195 -1.8085 -4.0005 -3.4425 -1.7695 -2.489 -3.8935 -4.067 -6.3385 
-3.681 -4.266 -5.887 -4.5435 -5.1445 -5.865 -2.4195 -5.47 -7.767 -7.3955 -7.508 -8.484 -3.3515 -5.0955 -6.473001 -4.6045 -5.945001 -6.724501 -9.666 -7.127501 -5.5165 -4.4645 -2.95 -2.4265 -3.681 -4.266 -6.464 -9.794001 -6.5305 -5.702 -6.115 -4.0865 -3.637 -4.147 -5.554 -4.207 -2.4195 -4.967 -7.629001 -6.956 -5.1885 -4.4255 -6.304501 -6.808001 -4.3395 -1.756 -3.0405 -5.3695 -7.701001 -5.811 -3.891 -4.1695 -6.403 -5.375501 -5.803 -4.744 -4.8245 -2.95 0 -1.4985 -5.895 -9.5015 -9.344 -5.2355 -5.945001 -5.4315 -6.438001 -3.8815 -4.5145 -5.811 -5.2885 -3.1405 -5.425 -7.3085 -7.248001 
-5.1275 -6.271 -6.5175 -8.1055 -6.031 -6.317 -6.298501 -8.071501 -9.0795 -13.5025 -9.621 -10.028 -7.0535 -6.7485 -7.7075 -9.933001 -8.044001 -10.361 -12.5641 -9.204 -7.035 -4.4645 -4.895 -3.681 -5.1275 -7.489501 -12.258 -10.9448 -10.164 -8.2355 -8.3175 -4.7255 -6.18 -5.7625 -5.7685 -4.719501 -6.3605 -8.768001 -12.0883 -7.5265 -6.4275 -8.833 -7.7335 -6.808001 -5.8065 -3.0405 -7.0805 -8.343 -9.989501 -6.6945 -5.557 -7.1335 -8.6525 -7.629001 -8.2435 -5.158 -4.8245 -2.95 -1.4985 -5.895 -9.599001 -14.7398 -10.3355 -9.242001 -7.125501 -7.613501 -7.855 -5.976 -6.517 -8.348001 -6.3295 -6.1855 -9.616 -9.744 
-6.2815 -6.809 -9.252001 -8.129001 -6.533 -8.4545 -8.557501 -9.326 -15.4255 -15.6155 -11.2818 -13.73 -9.0445 -7.897501 -13.405 -10.6515 -10.6735 -13.2591 -14.6406 -10.495 -7.035 -5.8715 -5.7945 -5.1275 -8.241 -13.4391 -13.4088 -14.5783 -12.6975 -9.439501 -9.3995 -6.891001 -7.063 -5.850501 -6.1665 -8.129001 -9.927501 -13.5199 -12.6588 -8.743 -10.022 -10.468 -7.7335 -8.2705 -7.230501 -7.0805 -10.0705 -10.4105 -10.873 -8.628 -8.349 -8.92 -10.6465 -9.613001 -8.405001 -5.158 -4.8245 -4.514 -5.895 -9.599001 -14.8327 -15.7313 -14.342 -10.097 -9.042001 -9.177501 -10.0345 -7.9615 -8.514501 -9.746501 -10.264 -10.411 -10.7195 
-6.815 -9.358001 -9.265 -8.401501 -8.566501 -9.5375 -9.595501 -15.7088 -17.5385 -17.2763 -14.9838 -15.721 -10.022 -13.6602 -14.1235 -13.281 -13.5716 -15.3356 -15.9316 -10.495 -8.439501 -6.6115 -7.3955 -8.241 -14.3944 -14.5899 -17.0423 -17.1118 -13.9015 -9.877001 -11.705 -7.875501 -7.089 -6.226501 -9.9505 -12.114 -14.6794 -14.0904 -13.8753 -12.5629 -11.8238 -10.468 -9.048 -9.3415 -8.957001 -10.0705 -12.138 -11.294 -12.8065 -11.566 -10.403 -11 -13.0749 -9.712001 -8.405001 -5.158 -5.870501 -9.097501 -9.599001 -14.8327 -15.8242 -19.7378 -15.197 -12.0135 -10.4265 -10.6605 -11.9704 -9.4585 -9.922 -13.7374 -14.6731 -11.5145 
