-4.759 
n/a 
n/a 
n/a 
n/a 
-4.759 
n/a 
n/a 
n/a 
n/a 
-4.759 
n/a 
n/a 
n/a 
n/a 
-4.759 
n/a 
n/a 
n/a 
n/a 
-7.581 -4.905 -12.16972 0 -5.5285 -1.756 -3.644 -4.0545 -3.277 -4.5685 -5.0515 -3.8135 -3.4295 -2.4265 0 -1.756 -2.688 -3.8135 -5.84 -4.197 -1.934 -8.445001 -2.229 -3.301 -3.213 0 
-13.3332 -17.80812 -12.16972 -5.5285 -7.217 -5.0925 -6.114501 -9.1765 -8.097 -10.6215 -9.3225 -7.0895 -5.168 -2.4265 -1.756 -4.619 -6.2425 -9.3645 -11.136 -5.88 -10.2335 -10.958 -5.2005 -5.385 -3.213 
-26.23632 -17.80812 -17.69822 -7.217 -11.0945 -7.904 -11.8767 -14.1811 -14.5234 -14.8925 -12.7157 -9.925501 -5.168 -4.303 -4.619 -8.1785 -12.5551 -15.8257 -12.819 -14.8277 -12.9605 -13.9295 -7.709001 -5.385 
-26.23632 -23.33662 -19.38672 -11.0945 -13.906 -13.859 -16.8813 -20.6075 -18.7944 -18.2857 -15.5517 -9.925501 -6.914001 -7.9425 -8.1785 -14.7819 -19.0163 -17.5087 -21.7667 -17.5547 -15.932 -16.438 -7.709001 
-31.76482 -25.02512 -23.26422 -13.906 -19.861 -18.8636 -23.3077 -24.8785 -22.1876 -21.1217 -15.5517 -11.8869 -11.1475 -11.699 -14.7819 -21.2431 -20.6993 -26.4564 -24.4937 -20.5262 -18.4405 -16.438 
-1.4985 -3.699 -4.432 -3.09 -1.7565 -8.445001 -2.4945 -2.3335 -4.4885 -5.805 -3.4005 0 -4.197 -1.7565 -5.0515 -3.8135 -2.9705 -3.152 -4.0765 -3.851 -1.7695 -5.2585 -1.7565 -3.883 -1.756 -4.197 -1.7565 -4.1435 -5.84 -3.8135 0 
-5.264 -9.061001 -7.6765 -5.263 -10.2485 -11.6713 -5.5045 -7.058001 -11.2225 -10.0445 -3.4005 -4.197 -5.2925 -7.1945 -9.3225 -6.418 -5.007 -6.156 -6.609 -4.0015 -7.5845 -5.61 -5.29 -5.146 -6.0305 -5.2925 -5.813 -10.2335 -10.1115 -3.8135 
-10.476 -12.3725 -10.757 -14.348 -13.4662 -14.6813 -9.764 -14.1614 -15.462 -10.0445 -8.144 -5.2925 -11.4489 -11.8545 -12.0442 -7.332 -8.102501 -7.994 -6.6155 -7.746 -7.715 -8.866 -6.034 -10.3345 -7.2405 -9.753 -12.3378 -14.6556 -10.1115 
-13.7875 -15.453 -19.842 -17.5657 -16.4762 -18.9408 -17.8814 -18.4009 -15.462 -15.4898 -9.797501 -11.4489 -16.1089 -14.5762 -12.9582 -9.7685 -9.889501 -8.008 -10.223 -7.8175 -10.3885 -9.8675 -11.5759 -12.0439 -11.8712 -16.5382 -16.7599 -14.6556 
-16.868 -24.538 -23.0597 -20.5757 -20.7357 -27.0582 -22.1209 -18.4009 -20.9073 -17.1433 -15.8643 -16.1089 -18.8306 -15.4902 -15.3947 -11.5909 -9.900001 -11.8689 -10.2565 -10.388 -11.39 -15.4094 -13.2853 -16.6746 -18.6564 -20.9603 -16.7599 
-7.5605 -2.8645 -4.4795 -4.3435 -5.0515 -3.8135 -2.9705 -2.186 -4.0765 -3.5455 -7.581 -3.8405 -3.851 -1.7695 -1.4985 -3.8565 -4.8865 0 -5.2645 -1.4985 -3.288 -3.4005 -3.6205 -1.756 -4.4795 -5.84 -2.688 -3.284 -3.1495 -2.4945 -1.4985 -3.2825 -3.09 0 
-10.7665 -5.9325 -8.292001 -7.994 -9.3225 -6.418 -3.89 -5.401 -6.704 -11.136 -12.2687 -6.9995 -4.0015 -2.7955 -4.882 -7.956 -4.8865 -5.2645 -6.76 -4.3455 -5.751 -6.5485 -4.9985 -6.011 -11.4399 -9.257501 -5.654 -6.833 -4.459 -3.9315 -3.712 -6.55 -3.09 
-13.8345 -9.459001 -12.4383 -12.582 -12.0442 -7.752501 -7.4805 -7.644 -14.6909 -15.8237 -15.4277 -7.0735 -4.5775 -6.1215 -8.606501 -7.956 -10.8982 -6.76 -10.5035 -7.3555 -9.2655 -7.983 -9.5015 -13.5222 -14.8574 -12.2589 -9.243 -7.7955 -5.194 -5.42 -7.027 -6.55 
-17.361 -13.8019 -17.0263 -15.3037 -13.3787 -11.5506 -9.334001 -15.8933 -19.3786 -18.9827 -15.5017 -7.5645 -7.092 -9.765501 -8.606501 -14.3851 -12.3937 -10.5035 -13.5135 -10.223 -10.622 -12.6656 -17.1009 -16.9397 -17.8588 -15.8479 -10.2545 -8.4665 -6.7815 -9.354501 -7.027 
-21.7039 -18.3899 -19.748 -16.6382 -17.1768 -13.4041 -17.6717 -20.581 -22.5376 -19.0567 -15.9927 -9.986 -10.243 -9.765501 -15.2516 -15.8806 -16.1372 -13.5135 -16.381 -11.5795 -15.3046 -20.265 -20.5184 -19.9411 -21.4478 -16.8594 -10.9255 -10.31 -10.467 -9.354501 
-1.4985 -4.397 0 -3.288 -3.4005 0 -4.3155 -2.3345 -7.581 -2.7415 -4.753 0 -3.074 -5.0515 -3.8135 -3.152 -4.4795 -2.9705 -2.7415 -4.0765 -2.3345 -1.4985 -4.031 -1.7565 -4.0545 -1.934 -3.091 -3.8405 0 -3.074 -5.84 -2.688 -3.8135 -3.152 -4.4795 -2.7415 -1.4985 -3.4155 -3.213 -1.7565 -12.16972 
-5.344 -4.397 -3.288 -5.751 -3.4005 -4.3155 -5.9085 -9.2985 -9.448 -6.315001 -4.753 -3.074 -9.692 -9.3225 -6.238 -6.459001 -7.6025 -4.512 -5.9285 -5.283 -3.233 -4.771 -5.571 -5.959001 -6.048 -4.2105 -7.208 -3.8405 -3.074 -10.718 -9.257501 -6.2425 -6.238 -6.459001 -7.871 -4.063 -4.4155 -5.3245 -4.766 -14.87542 
-5.344 -7.744 -5.751 -5.751 -8.186501 -5.9085 -13.6219 -11.5167 -13.1233 -6.315001 -8.234501 -9.692 -13.963 -11.8642 -8.3745 -9.188001 -8.871 -7.446001 -7.179 -6.7495 -7.704 -6.571 -10.6095 -8.3955 -8.474 -8.610001 -7.208 -6.9425 -10.718 -14.1355 -12.8474 -8.352 -8.3745 -9.656501 -8.851501 -6.8325 -6.1105 -7.0805 -18.36932 
-8.8435 -10.3545 -5.751 -11.2368 -10.1035 -13.6219 -15.8401 -15.192 -13.1233 -9.500501 -15.2793 -13.963 -16.5047 -14.0007 -11.1675 -10.477 -10.703 -8.554001 -7.641 -10.7025 -8.3795 -11.8431 -13.046 -10.66 -13.1637 -8.610001 -10.4675 -14.9985 -14.1355 -17.7254 -14.9569 -9.39 -11.636 -10.7004 -11.672 -9.3385 -7.3675 -20.98842 
-11.6336 -10.3545 -11.2368 -13.1538 -17.8785 -15.8401 -19.5154 -15.192 -16.3088 -16.6653 -19.5503 -16.5047 -18.6412 -16.7937 -12.4565 -12.309 -11.811 -9.004001 -11.9302 -11.378 -13.7832 -14.2796 -15.3105 -15.3497 -13.1637 -11.7633 -18.5235 -18.416 -17.7254 -19.8349 -15.9949 -12.6765 -12.6799 -13.5209 -14.178 -9.538 -21.28442 
