-4.759 
n/a 
n/a 
n/a 
n/a 
-4.759 
n/a 
n/a 
n/a 
n/a 
-4.759 
n/a 
n/a 
n/a 
n/a 
-4.759 
n/a 
n/a 
n/a 
n/a 
-4.017 -6.9865 -3.9615 -2.5195 -7.141 -2.543 -6.899 -5.351 -4.493 0 
-12.1735 -10.907 -7.644 -8.969501 -10.131 -9.8465 -13.2604 -7.054 -4.493 
-16.094 -14.5895 -14.3372 -12.2059 -17.4345 -16.8549 -14.9634 -7.054 
-19.7765 -21.2827 -17.5736 -19.5094 -24.4429 -18.5579 -14.9634 
-26.4697 -24.5191 -24.8771 -26.5178 -26.1459 -18.5579 
-4.7225 -1.756 -5.404 -3.9615 -12.16972 -1.756 -3.7825 -4.744 -1.7565 -1.4985 -6.899 -3.599 -3.9665 -3.0695 -5.6495 -1.934 -2.4265 -4.424 0 
-6.467501 -6.7655 -7.4095 -16.89282 -13.92572 -5.3135 -7.271501 -6.264 -2.4195 -8.336 -9.1855 -4.743 -7.071501 -7.167001 -7.016 -4.6645 -6.7945 -4.424 
-9.553 -8.7495 -20.74962 -18.64882 -17.48322 -8.529 -9.0585 -6.624501 -9.251 -10.5975 -10.3755 -7.8835 -11.4096 -8.490001 -9.477 -9.184501 -6.7945 
-11.667 -22.19062 -22.50562 -22.20632 -20.69872 -10.085 -9.2465 -14.2132 -11.6255 -11.7875 -13.7536 -12.3816 -12.7326 -10.523 -14.081 -9.184501 
-25.10812 -23.94662 -26.06312 -25.42182 -22.25472 -10.205 -16.8994 -16.5877 -12.8155 -15.1656 -18.2517 -13.7046 -14.7656 -15.127 -14.081 
-5.404 -3.9615 -8.39 -1.756 -3.7825 -6.899 -3.599 -3.9665 -5.189 -2.674 -4.424 -1.934 -2.4265 0 
-7.4095 -10.9575 -9.880501 -5.3135 -11.7493 -9.1855 -4.743 -7.6615 -7.1315 -5.8095 -5.195 -4.6645 -2.4265 
-14.8143 -12.448 -13.4992 -13.4813 -14.0358 -10.3755 -7.681001 -9.360001 -9.5295 -6.526 -8.330001 -4.6645 
-16.3048 -16.0667 -21.667 -15.7678 -15.2258 -13.5511 -9.372001 -11.7974 -9.937 -9.491501 -8.330001 
-19.9235 -24.2345 -23.9535 -16.9578 -18.4014 -15.2421 -11.8072 -12.2049 -12.9021 -9.491501 
-3.469 -4.201 -1.7565 -3.9615 -4.8715 -1.7695 -3.1495 -3.5285 -1.7565 -2.543 -4.743 -4.392 -3.515 -4.269 -4.424 0 
-5.267 -5.451 -6.219 -9.7745 -7.319 -4.7475 -6.146501 -6.3665 -4.693 -9.7405 -9.631001 -7.856501 -9.0425 -7.788 -4.424 
-8.4425 -9.335001 -12.6964 -12.2902 -10.647 -9.06 -10.8325 -9.525001 -12.5193 -14.6729 -13.8197 -13.7696 -12.7365 -7.788 
-12.5131 -16.019 -15.2121 -15.6182 -14.9595 -14.0238 -13.991 -17.4419 -17.4517 -18.8616 -19.7328 -17.4636 -12.7365 
-19.1971 -18.5347 -18.5401 -19.9307 -19.9233 -17.1823 -21.9079 -22.3743 -21.6404 -24.7747 -23.4268 -17.4636 
