-4.759 
n/a 
n/a 
n/a 
n/a 
-4.759 
n/a 
n/a 
n/a 
n/a 
-4.759 
n/a 
n/a 
n/a 
n/a 
-4.759 
n/a 
n/a 
n/a 
n/a 
-1.4985 -4.4525 -1.7565 -1.4985 -3.0435 -2.186 -4.7075 -3.7925 -5.036 -2.9705 -2.186 -1.4985 -4.0885 -1.934 -1.4985 -3.8935 -1.7565 -5.6855 0 -4.225 0 -4.8945 -3.681 0 -4.161 0 -5.151 -1.756 -5.0195 -4.228 
-4.731 -4.6715 -2.4195 -4.4865 -5.2155 -8.193001 -8.977501 -7.226 -7.906 -3.89 -3.339 -4.856 -6.4955 -2.6125 -4.9325 -4.8605 -7.416 -5.6855 -4.225 -4.225 -4.8945 -10.5535 -3.681 -4.161 -4.161 -5.151 -6.33 -6.778 -9.342001 
-4.7575 -5.560501 -5.3475 -6.2765 -11.8881 -12.6708 -13.5344 -11.2375 -7.9275 -5.027 -5.4915 -8.02 -7.1625 -5.716001 -5.2335 -11.0904 -7.416 -10.4185 -4.225 -9.376 -10.5535 -10.5535 -8.257501 -4.161 -7.490001 -6.33 -12.5268 -9.9055 
-5.6675 -8.395 -7.212501 -13.3361 -16.3659 -17.2277 -16.9741 -12.8382 -9.362 -7.724 -9.024501 -8.865 -9.737 -5.9025 -11.7178 -11.0904 -12.6056 -10.4185 -9.376 -15.3238 -10.5535 -15.13 -8.257501 -7.490001 -8.227 -12.5268 -15.6543 
-8.500501 -10.5008 -14.3361 -17.8139 -20.9228 -20.6674 -18.1986 -13.7287 -12.0316 -11.2586 -10.281 -11.6321 -9.813001 -12.5594 -11.7178 -16.28 -12.6056 -15.5695 -15.3238 -15.3238 -15.13 -15.13 -12.0267 -8.227 -15.015 -15.6543 
-3.4765 -3.929 -4.109 -4.4525 -2.186 -4.3905 0 -5.712501 -3.5725 -3.7425 -4.076 0 -3.8275 -4.6075 0 -4.8945 -3.3035 0 -4.161 0 -4.1745 -1.756 -3.486 -3.514 -2.4945 -4.0885 -5.3965 -1.934 -3.875 -3.892 0 
-4.589 -8.802501 -8.168501 -6.505 -5.6375 -4.3905 -4.749001 -8.647501 -8.219 -6.905 -4.076 -3.8275 -7.3015 -4.6075 -4.8945 -6.0435 -3.3035 -4.161 -4.161 -4.1745 -5.4985 -5.3105 -4.6915 -6.8465 -6.2105 -7.964 -7.345 -4.7225 -6.684501 -3.892 
-9.2665 -12.992 -9.951 -9.731001 -5.6375 -10.66 -10.01 -15.2559 -11.8525 -6.905 -7.8405 -7.3015 -7.3015 -9.9615 -6.0435 -6.0435 -6.8525 -4.161 -7.8195 -5.4985 -8.0495 -6.3695 -7.8435 -11.0637 -9.499001 -9.0965 -9.410501 -9.1165 -6.684501 
-13.5008 -14.7745 -13.2244 -9.731001 -12.0122 -15.921 -15.2559 -18.8894 -11.8525 -11.2251 -12.4577 -7.3015 -13.1491 -11.3043 -6.0435 -10.7025 -6.8525 -7.8195 -8.051001 -8.0495 -9.0505 -9.048 -12.2711 -14.3522 -11.4095 -11.4348 -13.9879 -9.1165 
-15.2833 -18.0479 -13.2244 -16.2655 -17.2732 -21.1669 -18.8894 -18.8894 -16.1726 -15.8423 -12.4577 -13.1491 -14.4919 -11.3043 -10.7025 -10.7025 -11.769 -8.051001 -10.5535 -9.0505 -12.0312 -13.6498 -15.5596 -16.2627 -13.7478 -16.0122 -13.9879 
-8.849 -1.7565 -3.8355 -5.0845 -3.6955 -7.892 -5.036 -2.186 -3.5725 -4.0885 -4.3245 -1.934 0 -3.7425 -4.1805 0 -12.16972 0 -12.16972 0 -4.161 0 -8.7565 -5.451 
-9.282 -5.261 -8.89 -8.706 -10.0475 -11.2465 -7.07 -4.471 -7.363501 -6.125 -6.2775 -1.934 -3.7425 -6.101501 -4.1805 -12.16972 -12.16972 -12.16972 -12.16972 -4.161 -4.161 -8.7565 -15.1169 
-12.7971 -10.9491 -12.6835 -15.0922 -13.746 -14.1856 -9.410501 -8.0845 -10.1248 -7.766 -6.2775 -6.2385 -6.101501 -6.101501 -17.42542 -12.16972 -24.33944 -12.16972 -16.33072 -4.161 -14.1751 -15.1169 
-18.4852 -14.7426 -19.0697 -18.7907 -16.4215 -16.9491 -13.2642 -11.1426 -11.7658 -7.766 -11.2836 -7.6235 -6.101501 -20.16382 -17.42542 -24.33944 -24.33944 -16.33072 -16.33072 -14.1751 -20.5355 
-22.2787 -21.1288 -22.7682 -21.4662 -19.185 -20.832 -16.4915 -12.7836 -11.7658 -13.1907 -12.6686 -7.6235 -20.16382 -20.16382 -29.59514 -24.33944 -28.50044 -16.33072 -26.34482 -20.5355 
-3.193 -2.3345 -3.193 -2.4265 -4.9185 0 -2.3085 -2.7275 -3.7425 -4.1805 0 -9.2215 -3.3035 0 -4.161 0 -5.151 0 -5.4235 -2.4945 -4.1735 -3.8935 -1.934 -3.875 
-5.4175 -5.5015 -5.447001 -6.304501 -4.9185 -2.3085 -4.1115 -7.359501 -6.101501 -4.1805 -9.2215 -10.451 -3.3035 -4.161 -4.161 -5.151 -5.151 -5.4235 -7.5025 -7.679 -7.675 -5.45 -4.7225 
-5.8765 -7.7105 -9.5465 -6.304501 -8.436501 -4.1115 -8.328 -9.630501 -6.101501 -14.4772 -10.451 -10.451 -6.8525 -4.161 -7.490001 -5.151 -10.375 -7.5025 -13.0668 -11.7945 -9.3265 -7.759501 
-7.982501 -11.9564 -9.5465 -9.8585 -9.456 -8.328 -10.2285 -9.630501 -17.2156 -15.7067 -10.451 -14 -6.8525 -7.490001 -7.490001 -10.375 -12.454 -13.0668 -17.1823 -13.446 -11.8314 
-12.366 -11.9564 -13.1193 -10.9522 -14.0111 -10.2285 -10.2285 -20.769 -18.4451 -15.7067 -14 -14 -10.238 -7.490001 -13.6796 -12.454 -18.0183 -17.1823 -18.8338 -15.9509 
