-4.759 
n/a 
n/a 
n/a 
n/a 
-4.759 
n/a 
n/a 
n/a 
n/a 
-4.759 
n/a 
n/a 
n/a 
n/a 
-4.759 
n/a 
n/a 
n/a 
n/a 
-3.7515 -4.074 0 -4.9225 -2.4945 -3.7875 -5.1845 -2.186 -2.985 -4.303 -3.6885 
-7.893 -4.074 -4.9225 -6.9525 -5.3155 -9.739 -7.895 -5.3955 -6.1765 -6.045 
-7.893 -10.147 -6.9525 -9.8505 -12.1596 -12.7429 -11.5573 -8.6485 -6.898 
-14.2246 -12.177 -9.8505 -16.6688 -15.1635 -16.4052 -14.8103 -8.977501 
-16.2546 -15.075 -16.6688 -19.6727 -18.8258 -19.6582 -15.1393 
-5.1845 -3.6885 -2.186 -4.121 -5.0485 -4.074 0 -3.1385 0 
-7.323501 -5.4995 -7.01 -6.243001 -9.734 -4.074 -3.1385 -3.1385 
-9.148001 -9.992001 -9.186001 -11.7283 -9.734 -7.530001 -3.1385 
-13.8761 -10.0655 -14.8841 -11.7283 -13.3334 -7.530001 
-13.9496 -16.0248 -14.8841 -15.3277 -13.3334 
-2.645 -3.1575 -4.074 0 -3.1385 -2.229 -4.121 -5.0485 -2.186 -5.1845 
-3.72 -7.631001 -4.074 -3.1385 -4.6125 -5.532001 -6.243001 -6.6985 -8.139501 
-7.799 -7.631001 -7.530001 -4.6125 -9.241501 -7.8205 -7.434501 -8.5655 
-7.799 -10.513 -9.637001 -9.241501 -9.941001 -8.8015 -8.566501 
-10.5975 -12.62 -14.4786 -9.941001 -10.652 -9.8921 
-4.074 0 -1.7565 -1.4985 -3.1385 -2.674 -5.1845 -2.5045 -2.985 -4.121 -5.0485 
-4.074 -1.7565 -2.4195 -4.2575 -4.8995 -9.1385 -8.093 -5.065001 -6.031 -6.243001 
-6.331 -2.4195 -5.013 -6.4605 -11.8926 -10.3685 -9.673 -7.568501 -7.172501 
-7.022501 -5.013 -7.433001 -13.9008 -13.1226 -11.9485 -10.149 -7.9125 
-8.725501 -7.433001 -14.8969 -15.1308 -14.7026 -12.4245 -10.177 
