-4.759 
n/a 
n/a 
n/a 
n/a 
-4.759 
n/a 
n/a 
n/a 
n/a 
-4.759 
n/a 
n/a 
n/a 
n/a 
-4.759 
n/a 
n/a 
n/a 
n/a 
-3.3715 -4.1985 0 -4.461 0 -2.4945 -3.8755 -2.0935 -2.3615 -1.756 -2.4265 -2.186 -4.4755 -2.5685 -3.2295 -1.934 -1.4985 -3.875 -3.959 0 
-6.677001 -4.1985 -4.461 -4.461 -2.4945 -5.463 -5.467 -3.854 -4.8045 -3.949 -3.292 -6.273001 -6.844 -4.661 -5.5925 -2.6125 -6.274 -7.163 -3.959 
-6.677001 -9.6665 -4.461 -6.159 -5.463 -6.798501 -6.966001 -6.175 -6.309 -4.7355 -7.328001 -8.1595 -7.0025 -7.2365 -6.2175 -7.214 -9.7755 -7.163 
-12.6746 -9.6665 -6.159 -8.744501 -6.798501 -8.8605 -9.472 -7.592 -7.137 -8.9265 -9.196 -8.245501 -9.389501 -7.9755 -10.5135 -10.553 -9.7755 
-12.6746 -11.4825 -8.744501 -9.935 -8.8605 -11.5171 -10.9672 -8.3335 -11.5906 -10.0065 -9.252501 -10.7595 -9.9925 -12.3961 -13.8525 -10.553 
-2.3615 -3.594 -2.4945 -4.467 -1.8085 -7.91 -4.7505 -1.756 -4.386 -1.934 -2.5685 -3.2295 -5.59 -3.59 0 
-7.295 -5.614 -6.005 -6.8225 -10.7175 -13.1193 -6.112 -5.4505 -5.545 -4.244 -4.661 -9.131001 -10.1 -3.59 
-8.996 -8.022 -8.656501 -16.3019 -15.9268 -14.4808 -9.8915 -6.4975 -7.949 -7.26 -11.4435 -13.8 -10.1 
-11.4406 -11.0279 -18.3643 -21.5112 -17.2883 -18.2603 -10.763 -9.079 -10.3815 -14.1893 -16.1125 -13.8 
-14.4465 -20.7357 -23.5736 -22.8727 -21.0678 -19.1318 -13.3445 -11.7349 -17.5054 -18.8583 -16.1125 
-3.948 -4.461 -3.152 -3.9595 -1.756 -4.386 -2.5685 -3.6215 -3.875 
-8.3125 -6.838 -5.4355 -5.8625 -5.4505 -7.377 -5.2175 -6.6685 
-10.4035 -9.196001 -7.0375 -8.8995 -8.426001 -8.677 -7.8595 
-12.7615 -10.2285 -9.877501 -12.0818 -9.983001 -10.513 
-13.794 -13.3343 -13.065 -13.6388 -11.6588 
-2.3615 -3.594 -4.467 -2.5045 -3.3715 -4.461 -1.756 -4.386 -3.3365 -1.7565 -12.16972 
-7.295 -7.109 -6.621 -4.771 -6.677001 -6.028 -5.4505 -8.4645 -4.7425 -14.87542 
-11.3314 -9.832001 -8.972 -7.176001 -8.4785 -8.884001 -9.734 -10.543 -18.58482 
-14.0544 -12.2488 -10.4505 -9.559 -11.5759 -13.6649 -12.1441 -24.38532 
-16.4712 -13.7273 -13.2865 -12.7936 -16.3568 -16.075 -25.98642 
