-4.759 
n/a 
n/a 
n/a 
n/a 
-4.759 
n/a 
n/a 
n/a 
n/a 
-4.759 
n/a 
n/a 
n/a 
n/a 
-4.759 
n/a 
n/a 
n/a 
n/a 
-4.1385 -4.3355 -2.186 -1.4985 -3.641 -4.1355 -1.7565 -3.691 
-5.686 -6.5745 -3.339 -4.644 -7.771501 -6.009501 -4.930501 
-7.6885 -7.631001 -7.1685 -8.279 -8.618501 -8.692501 
-8.5745 -10.7335 -10.5635 -8.861501 -11.3891 
-12.0194 -14.1285 -11.146 -11.6807 
-3.691 -2.229 -4.02 -3.498 -2.186 -4.1385 -4.3355 
-5.0855 -6.1825 -6.8415 -5.798 -7.7735 -5.686 
-8.2885 -8.7285 -8.7715 -11.7537 -9.444 
-11.5153 -9.785001 -14.9632 -13.4242 
-12.5718 -16.1671 -16.6337 
-1.4985 -4.02 -4.8015 -1.7565 -3.691 -2.186 -4.1385 -4.3355 0 
-4.969501 -6.923 -5.884501 -4.930501 -5.832 -7.7735 -5.686 -4.3355 
-7.1245 -7.284 -9.559001 -6.787001 -12.0225 -9.444 -5.686 
-7.3415 -10.647 -11.5701 -13.4471 -13.693 -9.444 
-10.7619 -12.6581 -18.2302 -15.1176 -13.693 
-4.1385 -4.3355 -2.186 -4.06 -1.934 -1.4985 -3.75 -1.7565 -3.691 0 
-5.686 -6.5745 -4.672 -4.483 -2.6125 -4.8715 -5.188 -4.930501 -3.691 
-7.6885 -8.9575 -5.13 -4.937 -5.621 -6.1545 -8.64 -4.930501 
-9.757 -9.451 -5.522 -7.416 -6.7765 -9.416 -8.64 
-10.226 -9.9715 -7.9605 -8.257501 -9.737 -9.416 
