-4.759 
n/a 
n/a 
n/a 
n/a 
-4.759 
n/a 
n/a 
n/a 
n/a 
-4.759 
n/a 
n/a 
n/a 
n/a 
-4.759 
n/a 
n/a 
n/a 
n/a 
-3.433 -1.7565 -2.3615 -3.974 0 -2.8965 -3.188 -3.8245 -5.164 -4.164 -1.4985 -3.3755 -1.7565 -3.8245 
-4.1845 -3.523 -5.7455 -3.974 -2.8965 -6.219 -7.2905 -6.658 -9.6735 -5.1675 -4.057 -4.5295 -5.058 
-5.5485 -6.9945 -5.7455 -7.160501 -6.219 -10.4185 -10.27 -11.3675 -10.5155 -6.238 -5.3375 -6.6045 
-8.589001 -6.9945 -9.068501 -11.0608 -10.4185 -13.398 -14.9795 -12.2095 -11.586 -8.338 -7.851501 
-8.589001 -10.1505 -12.941 -15.2603 -13.398 -18.1075 -15.8215 -13.28 -13.686 -10.185 
-3.433 -1.7565 -1.4985 -6.0715 0 -1.4985 -3.3435 -1.7565 -5.126 -2.264 -1.4985 -3.995 -1.756 -2.985 -3.739 -2.7415 -4.164 0 
-4.1845 -2.4195 -6.7875 -6.0715 -1.4985 -4.6745 -4.7005 -6.7495 -7.0975 -2.9195 -4.712 -5.3025 -4.2025 -5.844 -6.774 -5.8395 -4.164 
-4.6515 -7.861501 -6.7875 -7.7285 -4.6745 -5.03 -9.4735 -8.7065 -7.593 -6.008 -5.7925 -7.7135 -7.0045 -8.4965 -9.6225 -5.8395 
-9.136001 -7.861501 -8.8405 -11.0505 -5.03 -9.681001 -11.5555 -9.1415 -8.786501 -6.975 -7.9055 -10.6595 -9.554501 -11.4892 -9.6225 
-9.136001 -9.453001 -12.2191 -11.406 -9.681001 -11.8698 -11.9905 -10.2985 -9.874001 -9.391001 -11.1015 -13.2095 -12.5786 -11.4892 
-2.5195 -2.3615 -3.4625 -3.882 -2.8965 -5.2365 0 -3.3155 -1.4985 -3.3435 -1.7565 -1.4985 -3.8245 -3.681 -1.934 -1.4985 -2.8965 -5.2365 -3.251 -4.164 0 
-4.4095 -5.4775 -7.243 -7.1495 -6.56 -5.2365 -3.3155 -4.1745 -4.6745 -4.7005 -2.4195 -5.1915 -6.1385 -5.219 -2.6125 -3.928 -6.56 -8.322001 -6.1225 -4.164 
-7.738 -7.8675 -10.634 -11.2514 -6.56 -8.104 -4.1745 -7.732501 -5.03 -5.3325 -5.9015 -7.7345 -7.432 -5.9205 -5.424 -7.377501 -9.557 -11.3715 -6.1225 
-10.3406 -11.5445 -14.7359 -11.2514 -9.062 -8.9375 -7.732501 -8.120001 -5.548 -8.0165 -8.548 -8.7065 -7.746 -8.721001 -9.669001 -10.0405 -12.6635 -11.3715 
-14.0176 -15.6464 -14.7359 -13.7534 -9.894 -12.5761 -8.120001 -8.328 -9.0365 -11.4404 -9.521501 -9.222 -11.2533 -13.1532 -12.4294 -13.158 -12.6635 
-1.4985 -3.974 -3.851 -1.7695 -2.3615 -3.251 -4.164 -1.4985 -3.3435 -1.756 -3.8245 -3.6835 -1.7565 -2.8965 -4.2225 -3.8245 -2.264 -1.4985 -3.995 0 
-4.772 -7.182 -4.0015 -3.736 -6.0015 -6.1225 -5.1675 -4.6745 -4.576 -5.5 -5.987 -5.1885 -4.5345 -5.936501 -7.170001 -5.6135 -2.9195 -4.712 -3.995 
-8.374001 -7.1955 -6.14 -8.3245 -8.483 -7.1305 -8.033501 -5.699 -7.2005 -9.040501 -8.925 -8.324 -7.1855 -8.7965 -8.321001 -6.044 -6.008 -4.712 
-8.384501 -9.27 -10.298 -10.8392 -9.554501 -10.0745 -9.6485 -9.111501 -10.6335 -9.9835 -12.3481 -11.164 -10.047 -9.792001 -8.6315 -7.816 -6.008 
-10.467 -13.462 -12.8127 -11.9107 -12.4985 -11.3967 -13.1394 -12.9659 -11.5765 -13.5258 -15.1881 -14.0255 -11.1181 -10.2465 -9.9645 -7.816 
