-4.759 
n/a 
n/a 
n/a 
n/a 
-4.759 
n/a 
n/a 
n/a 
n/a 
-4.759 
n/a 
n/a 
n/a 
n/a 
-4.759 
n/a 
n/a 
n/a 
n/a 
-3.0415 -3.3715 -4.873 -4.3035 -1.934 -3.948 -3.7075 -1.7695 -3.3785 -1.4985 -3.8405 -1.7565 -2.95 -1.934 -3.948 -4.2605 0 
-4.5985 -8.383 -9.024 -6.162 -5.024 -8.429001 -5.234 -4.1685 -4.6165 -4.7545 -4.563 -4.3865 -4.54 -5.024 -8.939 -4.2605 
-9.7755 -12.961 -11.6967 -8.635 -10.0345 -9.553 -8.536 -5.3175 -8.72 -5.365 -5.099 -5.84 -7.6655 -9.455501 -8.939 
-14.3535 -15.6337 -14.1697 -14.0753 -11.3671 -13.0904 -9.2495 -9.389501 -9.221001 -6.339 -6.5495 -8.759001 -12.3292 -9.455501 
-17.0262 -18.1067 -19.61 -15.4079 -14.9045 -13.8039 -13.4831 -9.8015 -9.855 -7.6435 -9.613501 -13.5447 -12.3292 
-1.934 -3.6065 -4.644 0 -3.6065 -6.795001 -3.8535 -3.326 -1.7695 -3.197 -2.9905 -2.7455 -2.3615 0 
-4.9755 -6.686501 -4.644 -3.6065 -10.6095 -11.5211 -7.1775 -5.483 -3.9565 -4.227 -5.124001 -4.1635 -2.3615 
-7.676 -6.686501 -8.3305 -10.6095 -15.3356 -14.8451 -8.587501 -6.894 -4.7145 -5.351 -6.649 -4.1635 
-7.676 -9.3345 -15.6595 -15.3356 -18.6596 -16.2551 -9.645 -7.409 -5.737 -7.122001 -6.649 
-10.3345 -16.8791 -20.3856 -18.6596 -20.0696 -17.3126 -9.874001 -8.692 -7.696 -7.122001 
-3.3715 -2.95 -3.8405 -3.3715 -4.5235 -3.74 -1.7695 -4.85 -1.4985 -3.8405 
-6.775001 -5.133 -7.2275 -6.6665 -8.0655 -4.2995 -5.204 -5.3545 -4.7545 
-10.4185 -8.478001 -10.31 -9.724501 -8.116501 -7.870501 -5.6415 -8.613001 
-13.7635 -11.6101 -13.368 -9.7475 -11.9831 -8.252001 -8.903001 
-16.8956 -14.6681 -13.391 -13.6713 -12.3646 -11.7391 
-3.3715 -3.8405 -1.7565 -2.95 -6.795001 -3.6845 -3.948 -4.3925 -1.7695 -4.85 -1.4985 -2.95 0 
-8.083 -4.563 -4.3865 -9.460501 -10.564 -7.929501 -7.529 -6.556001 -5.204 -5.3545 -3.9285 -2.95 
-10.2485 -5.099 -10.586 -13.2981 -14.809 -10.3475 -9.6745 -10.6501 -5.6415 -7.499501 -3.9285 
-10.7845 -11.7007 -14.4236 -17.5431 -17.227 -12.493 -13.8826 -11.0876 -7.888501 -7.499501 
-17.3862 -15.5383 -18.6686 -19.9611 -19.3725 -16.7011 -14.3201 -13.3346 -7.888501 
