-4.759 
n/a 
n/a 
n/a 
n/a 
-4.759 
n/a 
n/a 
n/a 
n/a 
-4.759 
n/a 
n/a 
n/a 
n/a 
-4.759 
n/a 
n/a 
n/a 
n/a 
-2.3615 -2.7415 -3.849 -1.934 -1.4985 -3.098 -1.7565 0 -4.7315 -1.7565 -4.1985 0 
-4.455 -5.431 -5.735 -2.6125 -4.3095 -4.3615 -1.7565 -4.7315 -6.11 -4.8165 -4.1985 
-7.4355 -6.866 -6.5375 -5.285501 -4.5915 -4.3615 -6.6365 -6.11 -9.547501 -4.8165 
-9.568501 -7.787 -9.012 -5.3625 -4.5915 -9.299 -8.308001 -9.547501 -9.547501 
-10.3175 -10.2755 -9.0305 -5.3625 -9.7918 -11.2075 -11.9529 -9.547501 
-2.3615 -4.305 -12.16972 -1.7565 -12.16972 0 
-6.1905 -18.00952 -13.92622 -14.87542 -12.16972 
-20.71382 -19.76602 -27.04514 -14.87542 
-22.47032 -32.88494 -27.04514 
-35.58924 -32.88494 
-2.3615 -2.186 -3.9205 -2.5195 -1.4985 -3.098 0 -3.8145 -1.7565 -4.1985 0 
-3.5005 -4.9645 -6.268001 -3.1695 -4.3095 -3.098 -3.8145 -4.711 -4.8165 -4.1985 
-6.4115 -7.011001 -6.805 -6.545 -4.3095 -7.2315 -4.711 -4.8635 -4.8165 
-8.894501 -7.5845 -9.760501 -6.545 -9.382 -8.547501 -4.8635 -4.8635 
-9.493501 -10.7575 -9.760501 -11.9271 -9.738001 -8.632501 -4.8635 
-2.4265 -2.186 -3.5725 -3.0365 -2.5045 -3.8145 -1.7565 -4.1985 0 
-3.292 -4.471 -5.6995 -5.628 -6.926001 -4.711 -4.8165 -4.1985 
-5.45 -6.259 -7.566501 -10.5325 -8.686001 -4.8635 -4.8165 
-7.3235 -8.052501 -12.7646 -12.2925 -8.759501 -4.8635 
-8.937 -13.7116 -14.5246 -12.366 -8.759501 
