-4.759 
n/a 
n/a 
n/a 
n/a 
-4.759 
n/a 
n/a 
n/a 
n/a 
-4.759 
n/a 
n/a 
n/a 
n/a 
-4.759 
n/a 
n/a 
n/a 
n/a 
-3.38 -5.2765 -5.3885 -3.4295 -2.742 -4.005 -3.6055 -3.158 -3.488 -1.934 -12.16972 -2.5045 -4.39 -4.1365 
-8.9285 -9.138 -7.7735 -7.0645 -7.6055 -6.3475 -5.061 -6.4825 -6.536 -15.11012 -14.67422 -7.3905 -8.743 
-13.3908 -9.187 -10.298 -12.2744 -10.2805 -7.148 -8.98 -9.785001 -20.23492 -17.61462 -19.56022 -12.3099 
-13.4398 -11.9549 -15.5079 -14.9494 -11.081 -11.722 -12.1685 -23.54732 -22.73942 -22.50062 -24.47962 
-16.2077 -17.1648 -18.1829 -15.7499 -15.655 -14.9105 -25.93082 -26.05182 -27.62542 -27.42002 
-3.6055 -3.158 -1.934 -1.4985 -3.6905 -1.7565 -3.488 0 -3.38 -12.0295 -3.849 -1.4985 -5.3885 -3.4295 -4.39 -4.5185 -2.4945 -3.4625 -4.303 -2.5045 -1.4985 -2.5045 -1.4985 -4.39 -4.6715 -1.934 -10.384 0 
-5.061 -4.7985 -2.6125 -4.7535 -5.23 -5.3915 -3.488 -3.38 -16.299 -16.0955 -4.7705 -7.283501 -7.7735 -6.545 -7.548501 -6.545501 -4.7105 -6.178 -5.9245 -3.1915 -5.337 -3.1915 -6.290501 -7.445001 -6.0425 -13.3244 -10.384 
-6.381001 -5.598001 -6.031 -5.5765 -6.7495 -5.3915 -8.2235 -15.5335 -20.2544 -17.9119 -10.143 -8.632501 -9.413 -9.298 -9.2165 -8.4505 -7.373 -7.435 -6.4995 -7.035 -6.8415 -7.593501 -9.008501 -8.963 -18.2917 -13.3244 
-6.942 -8.097501 -6.32 -6.804 -6.7495 -9.856501 -22.24 -22.2506 -23.8021 -24.0726 -11.6122 -10.1805 -12.5058 -11.2402 -10.598 -8.9805 -8.75 -7.9385 -10.0605 -7.6325 -11.5779 -9.8065 -10.298 -21.5494 -18.2917 
-8.531501 -8.1715 -7.534501 -6.804 -11.2561 -23.873 -27.4385 -23.8021 -29.1746 -25.5418 -13.1602 -13.2871 -14.448 -12.6217 -11.128 -9.8585 -9.239 -11.6835 -10.9802 -12.2335 -13.7909 -10.6765 -22.8844 -21.5494 
-3.6055 -3.158 -1.934 -3.488 -3.6905 -5.2765 -5.3885 -3.4295 -4.39 -4.221 -2.186 -4.35 -1.934 -12.16972 -4.39 -4.1365 0 
-5.061 -4.7985 -4.9205 -8.2015 -9.384501 -9.138 -7.7735 -6.545 -7.528501 -5.819 -7.5755 -6.0965 -15.11012 -16.55972 -8.743 -4.1365 
-6.381001 -7.291 -9.3 -14.3365 -13.7478 -9.187 -9.413 -9.7675 -9.6365 -11.8045 -9.101 -20.09122 -19.50012 -20.91272 -8.743 
-8.505501 -11.8025 -15.7732 -18.6998 -13.7968 -10.169 -12.9753 -12.0891 -15.7106 -13.33 -23.46492 -24.48122 -23.85312 -20.91272 
-13.1338 -18.2757 -20.1365 -18.7488 -14.7788 -13.8577 -15.2969 -18.1632 -17.2361 -27.69392 -27.85492 -28.83422 -23.85312 
-1.934 -10.384 -4.39 -4.6715 -3.6055 -3.158 -3.488 -3.6905 -4.005 -3.147 -3.38 -5.2765 -5.3885 -3.4295 -4.39 0 
-13.3244 -15.0064 -7.445001 -8.307501 -5.061 -6.4825 -8.2015 -8.1775 -6.7945 -7.0635 -8.9285 -9.138 -7.7735 -6.545 -4.39 
-17.9468 -18.0614 -11.7584 -9.2755 -8.98 -11.5448 -13.1295 -11.2954 -11.186 -13.1786 -13.3908 -9.187 -9.413 -6.545 
-21.0018 -22.3748 -12.7264 -13.2481 -13.9283 -16.4728 -16.2474 -15.6869 -17.3011 -17.6409 -13.4398 -10.169 -9.413 
-25.3152 -23.3428 -16.699 -18.1964 -18.8563 -19.5907 -20.6389 -21.802 -21.7634 -17.6899 -14.4218 -10.169 
