-4.759 
n/a 
n/a 
n/a 
n/a 
-4.759 
n/a 
n/a 
n/a 
n/a 
-4.759 
n/a 
n/a 
n/a 
n/a 
-4.759 
n/a 
n/a 
n/a 
n/a 
-6.864 -3.8405 -2.186 -4.4695 -2.0935 -4.8745 -5.521 0 
-8.532001 -5.629 -6.053 -5.6265 -7.2685 -7.2215 -5.521 
-10.403 -9.755501 -6.184 -10.4265 -8.539001 -7.2215 
-14.5295 -9.8005 -11.186 -11.697 -8.539001 
-14.5745 -15.1099 -12.4565 -11.697 
-7.4885 -3.8405 -2.186 -4.4695 -2.0935 -4.8745 -5.521 0 
-11.9562 -5.629 -6.053 -5.6265 -7.2685 -7.2215 -5.521 
-13.7447 -9.755501 -6.184 -10.4265 -8.539001 -7.2215 
-17.8712 -9.8005 -11.186 -11.697 -8.539001 
-17.9162 -15.1099 -12.4565 -11.697 
-6.864 -5.2875 -2.7415 -4.4695 -2.0935 -4.8745 -5.822001 0 
-8.533 -7.347501 -6.768001 -5.6265 -7.2685 -9.310501 -5.822001 
-10.2485 -10.1035 -7.016 -10.4265 -12.1345 -9.310501 
-13.0045 -10.1365 -11.9902 -15.2925 -12.1345 
-13.0375 -15.4325 -16.8562 -15.2925 
-10.0905 -3.814 -2.186 -4.4695 -2.0935 -4.8745 -5.2915 
-14.0369 -6.1815 -6.053 -5.6265 -7.2685 -6.959001 
-16.4044 -10.5565 -6.184 -10.4265 -10.123 
-20.7794 -10.6875 -11.186 -13.281 
-20.9104 -15.6895 -14.0405 
