-4.759 
n/a 
n/a 
n/a 
n/a 
-4.759 
n/a 
n/a 
n/a 
n/a 
-4.759 
n/a 
n/a 
n/a 
n/a 
-4.759 
n/a 
n/a 
n/a 
n/a 
-10.105 -2.742 -3.956 -3.1435 -4.866 -3.834 -6.8825 -4.098 -4.248 -6.189 -1.4985 -3.848 -5.4765 -1.756 -1.4985 -3.535 -4.9825 
-13.128 -4.7665 -6.179 -7.3765 -8.021501 -11.9259 -11.7703 -8.9565 -10.5645 -6.8015 -5.798 -9.481501 -6.7875 -3.0405 -4.8385 -8.282001 
-15.1525 -6.784 -9.035501 -10.238 -16.438 -16.8137 -16.6288 -15.5634 -11.177 -11.492 -11.7293 -10.7615 -8.0175 -6.3475 -9.6405 
-17.17 -9.623001 -10.5235 -18.7233 -21.3258 -21.6722 -23.2357 -16.1759 -15.8675 -17.4233 -13.0093 -11.9915 -11.4955 -11.2093 
-20.009 -11.1918 -19.0088 -23.6111 -26.1843 -28.2791 -23.8482 -20.8664 -21.7988 -18.7033 -14.2393 -15.4695 -16.3573 
-1.934 -3.458 -2.3335 -8.392 -2.742 -3.0785 -1.4985 -3.1385 -2.0935 -2.6165 -1.7695 -2.489 -4.7355 -1.934 -1.4985 -3.535 -3.7115 -5.1595 -1.756 -2.6165 -1.7695 -3.0465 -2.645 -4.777 -1.934 -3.535 -5.4765 -2.0935 -5.8695 -1.4985 -4.712 
-5.207 -6.33 -11.9163 -11.665 -4.6085 -4.869 -4.2575 -5.396501 -5.199 -4.153 -3.1405 -6.556001 -7.068001 -2.6125 -4.8385 -7.8625 -7.8795 -6.4635 -4.2965 -4.153 -3.683 -4.8855 -6.5175 -7.084001 -5.3 -7.274 -7.057 -6.93 -6.59 -5.918 
-7.360001 -16.298 -15.1893 -13.5315 -6.071 -6.738 -6.52 -7.666 -7.5375 -5.031 -7.275 -8.447001 -7.847501 -5.8685 -9.958501 -10.634 -8.9545 -9.0865 -5.621 -6.094 -5.4605 -8.044001 -8.818001 -11.0356 -9.163 -9.114 -12.3653 -7.5895 -10.6215 
-17.7132 -19.571 -17.0558 -14.994 -8.178 -9.450001 -9.094501 -10.513 -8.601001 -8.620001 -9.2285 -9.4645 -11.4349 -10.757 -12.7814 -11.709 -11.6405 -10.5674 -7.8665 -8.6715 -8.9525 -10.513 -12.9554 -14.8986 -11.2734 -14.5347 -13.0248 -11.7924 
-20.9862 -21.4375 -18.5183 -17.101 -10.9586 -12.0447 -11.9503 -11.5765 -12.3144 -10.354 -9.981001 -13.1673 -16.3234 -13.5799 -13.8564 -14.395 -13.1214 -12.8129 -10.513 -12.2625 -11.5249 -14.9142 -16.8184 -17.009 -16.6941 -15.1942 -17.2277 
-10.105 -2.742 -3.2015 -6.4735 -1.934 -3.1435 -3.535 -5.4765 0 -3.6135 -5.784 0 
-13.128 -5.547 -10.0225 -7.508 -4.335 -6.376 -7.274 -5.4765 -3.6135 -9.0515 -5.784 
-15.933 -12.911 -10.6655 -10.4265 -7.753 -10.4505 -7.274 -9.15 -9.0515 -9.0515 
-23.297 -13.554 -13.584 -13.8445 -12.0339 -10.4505 -9.844501 -14.9272 -9.0515 
-23.94 -16.4725 -17.002 -18.1254 -12.0339 -13.021 -15.8441 -14.9272 
-2.3335 -3.973 -3.013 -5.651501 -3.0465 -4.9505 -1.756 -3.8385 -3.9115 0 -1.756 -4.353 -4.2605 -3.013 -5.651501 -3.0465 -4.186 -1.756 -8.392 -3.383 -3.0785 -1.7695 -3.5725 -3.0465 -1.4985 -4.248 -1.7565 -3.59 0 
-6.821 -7.5675 -8.529501 -6.711 -8.269001 -5.9715 -5.517 -7.7915 -3.9115 -1.756 -6.036 -9.515501 -7.114 -8.529501 -6.711 -7.872 -5.4185 -10.27 -12.306 -7.899 -4.903 -6.053501 -5.715 -4.046 -5.2845 -4.8235 -5.59 -3.59 
-9.9615 -12.8696 -11.0715 -13.528 -9.620001 -10.7501 -9.4245 -7.7915 -5.3975 -6.036 -11.7125 -12.4136 -12.6899 -11.0715 -13.657 -8.9165 -14.8113 -14.184 -16.822 -9.486501 -9.672 -7.718 -6.428 -7.957001 -5.6755 -9.488501 -5.59 
-15.2636 -14.9046 -15.3451 -15.1282 -14.4714 -14.6576 -9.4245 -9.096001 -9.232 -11.7125 -14.6106 -17.9895 -14.7249 -15.4741 -14.8921 -18.5279 -18.7253 -18.7 -18.4095 -14.4017 -11.6423 -8.555501 -10.442 -8.428 -9.6155 -9.488501 
-17.2986 -20.51 -16.8065 -19.9796 -18.3789 -14.6576 -10.8552 -13.0413 -14.9347 -14.6106 -20.1865 -20.0245 -20.4593 -16.5704 -24.5035 -22.4419 -23.2413 -20.2875 -23.3247 -16.372 -12.4798 -12.5855 -11.122 -12.8144 -9.6155 
