-4.759 
n/a 
n/a 
n/a 
n/a 
-4.759 
n/a 
n/a 
n/a 
n/a 
-4.759 
n/a 
n/a 
n/a 
n/a 
-4.759 
n/a 
n/a 
n/a 
n/a 
-4.4015 -3.8315 -8.9925 -3.8405 -3.784 -3.7075 -3.4795 -3.7555 -2.5195 -7.0505 0 
-9.778 -13.6905 -13.0295 -7.1975 -8.591001 -8.02 -7.509501 -6.037 -8.901 -7.0505 
-19.637 -18.0057 -16.0022 -12.2715 -13.2111 -12.3328 -10.2542 -12.8281 -8.901 
-23.9522 -20.6612 -21.1638 -16.8916 -17.5239 -15.0775 -17.0453 -12.8281 
-26.6077 -25.8228 -25.7839 -21.2044 -20.2686 -21.8686 -17.0453 
-1.4985 -3.784 -3.7075 -2.95 -2.5195 -7.0505 -2.3345 -4.4015 -3.1425 -2.489 -8.9925 -1.756 -8.036 0 
-4.6165 -8.591001 -7.467 -5.489 -8.901 -9.737 -6.964001 -8.214001 -3.7875 -13.283 -11.0715 -10.743 -8.194 
-9.237 -12.6581 -10.0575 -12.3129 -12.2767 -14.3665 -11.3875 -9.107 -13.997 -14.634 -19.7062 -10.3675 
-13.4437 -15.2486 -16.8814 -15.6886 -16.9062 -18.79 -12.2805 -19.3617 -15.348 -24.2163 -19.9648 
-16.0342 -22.0725 -20.2571 -20.3181 -21.3297 -19.683 -22.5352 -20.7127 -24.9303 -24.2163 
-4.4015 -3.8315 -1.7695 -8.9925 -1.756 -8.036 -4.739 -3.784 -4.682 -3.7075 -2.95 -7.0505 
-9.778 -5.046 -12.019 -11.0715 -10.743 -13.389 -9.209001 -9.248 -9.104 -7.467 -10.7025 
-10.9925 -16.4693 -13.516 -19.7062 -15.7797 -18.3742 -14.9456 -13.7832 -13.1073 -15.5879 
-22.4158 -17.8203 -23.0983 -25.377 -20.5477 -24.1108 -19.4808 -17.7865 -21.2282 
-23.7668 -27.4026 -28.5105 -30.145 -26.2843 -28.646 -23.4841 -25.9074 
-4.4015 -3.8315 -8.9925 -1.756 -3.321 -8.036 -3.458 -7.0505 -4.554 0 
-9.778 -13.6905 -11.0715 -4.0055 -12.739 -12.2475 -10.703 -12.2425 -4.554 
-19.637 -15.0415 -12.686 -14.0331 -17.1273 -19.9969 -15.895 -12.2425 
-20.988 -17.6036 -23.22 -18.3038 -24.6595 -25.1889 -15.895 
-23.5501 -27.879 -27.4907 -25.836 -29.8515 -25.1889 
