-4.759 
n/a 
n/a 
n/a 
n/a 
-4.759 
n/a 
n/a 
n/a 
n/a 
-4.759 
n/a 
n/a 
n/a 
n/a 
-4.759 
n/a 
n/a 
n/a 
n/a 
-1.7695 -3.3785 -9.028501 -2.229 -12.16972 -7.496 0 -8.643001 -3.999 -5.891 -5.2085 -1.756 -7.3525 -5.891 -12.16972 -4.042 -2.186 -1.4985 -3.535 -1.7565 -6.899 -3.97 
-4.1685 -13.6468 -9.887501 -14.99372 -19.66572 -7.496 -8.643001 -12.857 -7.6235 -9.397501 -7.131001 -8.7945 -13.8493 -18.97112 -16.21172 -5.5265 -3.339 -4.255 -7.3255 -8.5275 -10.209 
-14.7998 -14.5058 -22.65222 -22.48972 -19.66572 -16.7022 -12.857 -16.4815 -11.4248 -11.4292 -14.6177 -15.4799 -26.92942 -23.01312 -17.69622 -7.002501 -5.657 -7.647501 -14.3907 -12.0271 
-15.6588 -27.27052 -30.14822 -22.48972 -28.87192 -20.9162 -16.4815 -20.2828 -13.4565 -18.9159 -21.3031 -28.56002 -30.97142 -24.49762 -19.17222 -8.918 -9.413 -15.0117 -17.8903 
-28.42352 -34.76652 -30.14822 -31.69592 -33.08592 -24.5407 -20.2828 -22.3145 -20.9432 -25.6013 -34.38322 -32.60202 -32.45592 -25.97362 -21.08772 -13.0304 -16.9858 -18.5113 
-1.934 -1.4985 -2.9195 -4.9175 -1.4985 -2.5685 -9.6365 0 -1.756 -3.0465 -3.222 -1.4985 -8.068501 
-2.6125 -4.4535 -7.3505 -5.4435 -4.907001 -11.136 -9.6365 -1.756 -4.477 -5.0985 -3.7835 -8.768001 
-4.763 -8.104501 -7.838 -9.899 -14.4261 -11.136 -11.5187 -4.477 -6.63 -5.6045 -11.4164 
-8.208 -8.926001 -13.0413 -19.4981 -14.4261 -13.0182 -14.2397 -6.63 -6.988501 -13.687 
-10.2989 -15.0235 -22.6404 -19.4981 -16.3083 -15.7392 -16.3927 -6.988501 -15.385 
-3.436 -4.7265 -2.7455 -7.699501 -2.229 -3.941 -2.7295 -3.2645 -4.0585 -1.4985 -6.899 -6.0655 -2.229 -6.772 -4.33 -1.4985 -4.761 -8.27 -1.756 -3.1435 -4.9185 -6.772 -1.934 -5.4075 -3.898 0 
-7.4565 -6.5205 -10.5535 -8.432 -6.2155 -6.7565 -4.7435 -6.286 -4.7185 -8.336 -9.6555 -8.001 -8.457001 -8.671 -4.900001 -5.809 -14.4342 -9.508 -4.1365 -7.710501 -10.151 -8.0425 -7.756001 -8.0745 -3.898 
-9.004001 -14.8109 -11.286 -12.9695 -8.8645 -8.8415 -7.502 -6.906 -12.3664 -10.7175 -11.8208 -14.5172 -9.9925 -9.2065 -8.944501 -15.7322 -15.6722 -11.9071 -8.871 -13.1024 -11.4215 -14.2659 -10.004 -8.0745 
-17.4324 -15.5434 -15.8235 -15.6185 -10.7495 -11.825 -8.217501 -14.8515 -14.7479 -12.8828 -18.337 -16.0527 -10.509 -13.3744 -19.0687 -16.9702 -18.0713 -16.6416 -14.3097 -14.3729 -17.6449 -16.5139 -10.004 
-18.1649 -20.0809 -18.4725 -17.5035 -13.733 -12.5405 -16.159 -17.233 -16.9132 -19.399 -19.8725 -16.5692 -14.6769 -23.4986 -20.3067 -19.3693 -22.8058 -22.0803 -15.5802 -20.5963 -19.8929 -16.5139 
-1.7695 -3.659 -10.144 -3.5125 0 -2.7295 -3.2645 -8.105 -6.899 -4.6555 -8.936501 -4.5085 -4.9185 -9.941501 
-4.3495 -15.607 -13.6565 -3.5125 -2.7295 -4.7435 -10.9315 -15.8434 -10.1725 -14.881 -13.6878 -10.298 -16.5616 
-16.5835 -19.1195 -13.6565 -6.2245 -4.7435 -13.0119 -18.6699 -19.1169 -20.398 -19.6323 -19.4773 -21.9411 
-20.096 -19.1195 -16.3685 -8.1825 -13.0119 -20.7503 -21.9434 -29.3424 -25.1493 -25.4218 -31.1204 
-20.096 -21.8315 -18.3265 -16.7005 -20.7503 -24.0238 -32.1689 -34.0937 -30.9388 -37.0649 
