-4.759 
n/a 
n/a 
n/a 
n/a 
-4.759 
n/a 
n/a 
n/a 
n/a 
-4.759 
n/a 
n/a 
n/a 
n/a 
-4.759 
n/a 
n/a 
n/a 
n/a 
-2.7295 -3.757 -3.5095 -1.7565 -4.5815 -2.3335 -2.186 -1.934 -1.4985 -3.188 0 
-5.5425 -6.4525 -4.649 -5.6725 -6.5095 -3.7085 -4.0835 -2.6125 -3.619 -3.188 
-7.794001 -7.025001 -9.007501 -7.546 -7.4625 -5.576 -4.6915 -4.377 -3.619 
-8.367001 -11.4843 -11.106 -8.5235 -8.521501 -6.13 -7.1675 -4.377 
-12.8247 -13.5828 -12.0835 -9.953 -8.79 -7.68 -7.1675 
-1.934 -1.4985 -3.188 -3.6055 -2.871 -2.4945 -5.5375 -3.098 -2.7455 -1.4985 -6.8965 
-2.6125 -3.619 -6.3795 -5.363 -6.301 -7.2825 -8.774 -5.384501 -3.637 -8.212501 
-4.377 -6.459001 -8.458 -8.761001 -11.3376 -10.757 -9.090001 -6.735001 -9.799001 
-6.731 -8.81 -12.1718 -13.856 -14.8121 -11.073 -9.798 -13.127 
-9.320001 -12.6772 -17.2668 -17.3305 -15.1281 -11.781 -16.19 
-2.857 -4.2425 -2.186 -3.188 -3.869 -4.313 
-6.454 -6.12 -6.3455 -7.9005 -7.778 
-7.3015 -10.7175 -12.0868 -12.1803 
-12.4778 -16.4588 -16.3666 
-18.2191 -20.7386 
-2.7295 -3.456 -2.0935 -1.4985 -3.869 -3.89 -1.934 -1.4985 -3.188 -3.098 
-5.876 -4.9175 -2.9725 -5.109 -5.764 -5.431 -2.6125 -3.619 -6.745 
-6.8975 -5.7705 -6.727 -7.136001 -7.3395 -5.893 -4.377 -7.01 
-7.728 -10.204 -9.461 -9.286501 -8.197001 -6.545 -7.465501 
-12.5645 -12.938 -11.6413 -10.1115 -9.453 -9.869 
