-4.759 
n/a 
n/a 
n/a 
n/a 
-4.759 
n/a 
n/a 
n/a 
n/a 
-4.759 
n/a 
n/a 
n/a 
n/a 
-4.759 
n/a 
n/a 
n/a 
n/a 
-1.4985 -3.995 -5.8265 -2.356 -3.3715 -2.8965 -3.871 -1.934 -1.4985 -3.4295 -4.8215 -1.4985 -3.7075 -1.756 -1.4985 -4.4515 
-4.712 -9.4025 -5.9045 -5.039001 -4.827001 -5.7725 -5.4675 -2.6125 -4.8285 -8.627001 -5.51 -4.6235 -5.318 -3.0405 -5.0235 
-9.986 -9.4335 -8.278001 -6.2805 -9.122001 -7.159 -6.066 -5.672 -9.901001 -9.304501 -8.684501 -5.845 -6.396501 -6.4645 
-10.055 -12.267 -8.8535 -10.674 -10.7237 -8.0565 -9.309001 -10.0095 -10.7215 -12.5496 -9.618501 -6.502501 -7.0165 
-13.1815 -12.8425 -13.6292 -12.2757 -11.6212 -11.5553 -13.7001 -10.7625 -13.9666 -13.4836 -10.2555 -7.028 
-2.4265 -4.792 -2.356 -1.4985 -3.995 0 -3.7075 -1.756 -4.4515 -1.756 -2.5685 -1.4985 -4.942 -3.557 -1.934 -1.4985 -3.7345 
-7.874001 -5.0295 -3.1615 -4.712 -3.995 -3.7075 -5.318 -6.289 -5.855 -4.2335 -3.7015 -6.6145 -7.421 -4.4175 -2.6125 -4.9965 
-8.01 -5.846 -6.683001 -4.712 -7.058001 -5.318 -6.5745 -7.623 -8.045 -5.11 -8.22 -8.692 -7.5295 -4.9675 -5.795 
-8.481 -8.698001 -6.683001 -7.698 -7.989 -6.5745 -7.7415 -9.195 -8.383501 -9.9975 -10.575 -8.849 -8.201 -8.705 
-11.712 -8.698001 -9.543 -8.301001 -8.14 -7.7415 -9.226501 -9.370501 -13.8662 -12.3525 -10.6925 -9.411 -12.4181 
-3.995 0 -3.7075 -1.756 -4.4515 -5.408 -2.4945 -3.8755 
-3.995 -3.7075 -5.318 -6.289 -10.8215 -7.165 -5.463 
-7.058001 -5.318 -6.5745 -13.1848 -12.5785 -10.0505 
-7.989 -6.5745 -13.9069 -14.9418 -15.464 
-8.14 -13.9069 -15.6639 -17.8273 
-5.0065 -2.186 -1.934 -3.0105 -2.356 -3.5155 -4.4515 -1.756 -3.7075 0 
-6.603 -4.0835 -5.3145 -4.921 -5.1855 -8.543501 -5.855 -5.7245 -3.7075 
-8.615001 -6.830501 -5.5515 -7.5175 -10.375 -8.6815 -7.429501 -5.7245 
-11.6376 -6.859 -8.146 -13.096 -10.587 -8.951501 -7.429501 
-11.6661 -8.997001 -13.7323 -13.308 -10.857 -8.951501 
