-4.759 
n/a 
n/a 
n/a 
n/a 
-4.759 
n/a 
n/a 
n/a 
n/a 
-4.759 
n/a 
n/a 
n/a 
n/a 
-4.759 
n/a 
n/a 
n/a 
n/a 
-3.6085 -2.186 -1.4985 -4.742 -4.4615 -3.6885 -3.291 -1.7695 -4.1125 0 -4.19 0 -1.756 -8.773001 -2.186 -4.9325 -2.3345 -2.645 -3.1575 -4.838 -3.748 -3.1385 0 
-5.869 -3.339 -6.2515 -9.281 -7.9715 -7.5845 -4.6915 -6.092501 -4.1125 -4.19 -4.19 -1.756 -9.0435 -9.302 -6.4585 -6.2445 -5.33 -3.72 -7.475501 -7.244 -5.326 -3.1385 
-6.763 -7.808001 -11.6639 -13.105 -12.2773 -8.729501 -9.286501 -6.092501 -6.4325 -4.19 -5.763 -9.460501 -12.1545 -11.4955 -7.283 -8.147501 -5.488 -7.525001 -8.509501 -8.771001 -5.326 
-10.322 -13.5042 -15.4879 -17.4108 -13.4223 -13.6783 -9.286501 -9.687 -6.4325 -5.763 -11.5735 -10.5875 -12.5643 -12.5928 -8.5315 -8.211 -9.465 -8.516001 -9.420501 -8.771001 
-16.0182 -17.3282 -19.7937 -18.5558 -18.3711 -13.6783 -12.9398 -9.687 -8.293 -11.5735 -12.7005 -12.5643 -13.4448 -14.2098 -8.599501 -12.3646 -10.4275 -9.420501 -9.420501 
-4.1125 0 -4.19 0 -5.1645 -2.4945 -1.4985 -4.2915 -4.9325 -4.4715 -3.2615 -6.2535 -3.1575 -4.838 -3.748 -3.1385 -4.3845 -3.6085 0 
-4.1125 -4.19 -4.19 -5.1645 -8.411 -3.9315 -6.151 -6.3205 -8.72 -7.818501 -10.452 -7.326 -7.475501 -7.244 -5.326 -6.563001 -5.8455 -3.6085 
-6.4325 -4.19 -8.1325 -8.411 -9.6125 -8.071501 -7.7675 -10.2535 -12.8462 -15.5488 -12.8248 -12.059 -8.509501 -8.771001 -8.244 -7.905001 -5.8455 
-6.4325 -8.1325 -12.1824 -9.6125 -10.7515 -9.282001 -12.7303 -14.3505 -20.5765 -17.5518 -16.7118 -13.132 -9.420501 -10.575 -8.9735 -7.905001 
-9.805 -12.1824 -13.3839 -10.7515 -11.962 -14.3184 -16.8273 -22.0808 -22.5795 -21.4388 -17.7028 -14.0365 -11.5923 -11.3045 -8.9735 
-3.291 -1.7695 -1.4985 -4.2915 -3.115 -4.1125 0 -4.19 0 -5.1645 0 -3.6085 -2.186 -4.742 -4.9325 -3.6885 -3.6085 -2.186 -3.4625 -4.9325 -2.3345 -3.1385 -3.2295 -4.838 -3.748 0 
-4.6915 -2.7955 -6.151 -6.6435 -7.2175 -4.1125 -4.19 -4.19 -5.1645 -5.1645 -3.6085 -5.869 -5.620501 -7.0705 -6.2425 -4.7015 -5.869 -4.4835 -7.108 -6.2445 -5.443501 -6.003 -7.466001 -7.244 -3.748 
-5.177 -7.7005 -8.9655 -8.399 -7.2175 -6.4325 -4.19 -8.1325 -5.1645 -7.0415 -5.869 -7.729501 -7.672 -7.877 -7.900001 -7.786 -8.571501 -8.018001 -7.984 -8.391001 -8.0555 -11.1401 -8.693001 -7.244 
-9.793501 -9.885 -11.1018 -8.399 -10.3605 -6.4325 -8.1325 -8.1325 -7.0415 -9.7355 -7.729501 -7.877 -10.586 -10.223 -10.0345 -10.434 -9.894501 -9.402 -9.7305 -11.3392 -13.7188 -12.3671 -8.693001 
-12.339 -12.8469 -11.1018 -10.7025 -10.3605 -9.805 -8.1325 -10.0745 -9.7355 -10.6905 -7.877 -10.8114 -12.932 -10.4345 -12.7757 -12.2254 -11.4377 -11.3369 -13.0241 -17.0025 -14.9458 -12.3671 
-1.4985 -3.0835 -3.17 -4.9225 -4.4615 -4.2915 -2.4945 -7.014 0 -4.19 0 -5.8865 0 -3.2615 -2.3615 -4.2915 -1.4985 -3.6115 -4.1735 -4.9225 -4.4615 -3.6885 -2.186 -3.6085 -4.838 -3.748 -4.9225 -2.4945 -4.4615 -3.6085 0 
-3.535 -5.903 -7.3465 -8.665 -8.356501 -6.186 -10.168 -7.014 -4.19 -4.19 -5.8865 -5.8865 -3.2615 -5.276 -8.1695 -6.113 -4.081 -5.7235 -9.9645 -8.665 -7.9715 -5.4995 -6.467501 -8.778001 -7.244 -8.6395 -6.9525 -6.403 -6.753 -3.6085 
-7.541 -11.2255 -11.5092 -10.0345 -10.523 -14.5089 -10.168 -10.177 -4.19 -10.733 -5.8865 -9.580001 -5.276 -11.3346 -10.459 -8.539001 -5.949 -12.1567 -13.707 -12.4324 -9.425501 -7.113501 -12.1806 -11.5116 -12.4393 -10.238 -11.179 -8.574 -6.753 
-13.4481 -15.3882 -12.8787 -12.36 -18.8459 -14.5089 -13.331 -10.177 -10.733 -10.733 -9.580001 -11.6313 -11.3346 -13.6241 -12.885 -10.6508 -12.3996 -15.8992 -17.4744 -13.8864 -11.3525 -13.2232 -14.9142 -16.7069 -14.0378 -14.4645 -13.35 -8.574 
-17.6108 -16.7577 -15.2042 -20.6829 -18.8459 -17.6719 -13.331 -17.5402 -10.733 -14.4265 -11.6313 -17.6899 -13.6241 -16.0501 -14.9968 -17.1014 -16.1421 -19.6666 -18.9284 -15.8134 -17.4622 -15.9568 -20.1095 -18.3054 -18.2643 -16.6355 -13.35 
