-4.759 
n/a 
n/a 
n/a 
n/a 
-4.759 
n/a 
n/a 
n/a 
n/a 
-4.759 
n/a 
n/a 
n/a 
n/a 
-4.759 
n/a 
n/a 
n/a 
n/a 
-4.566 -4.5965 -4.617 -4.613 -4.621 -4.6415 -4.65 -4.6585 -4.686 -4.569 
-5.551 -5.554 -5.555 -5.555501 -5.5595 -5.5645 -5.5655 -5.566 -5.567 
-5.556 -5.557001 -5.5575 -5.562 -5.5655 -5.5675 -5.5675 -5.5695 
-5.557 -5.558001 -5.5625 -5.566 -5.567 -5.568 -5.5695 
-5.558 -5.5625 -5.5665 -5.567 -5.5675 -5.57 
-4.566 0 -4.5965 0 -4.617 0 -4.613 0 -4.621 0 -4.6415 0 -4.65 0 -4.6585 0 -4.686 -4.569 
-4.566 -4.5965 -4.5965 -4.617 -4.617 -4.613 -4.613 -4.621 -4.621 -4.6415 -4.6415 -4.65 -4.65 -4.6585 -4.6585 -4.686 -5.567 
-5.551 -4.5965 -5.554 -4.617 -5.555 -4.613 -5.555501 -4.621 -5.5595 -4.6415 -5.5645 -4.65 -5.5655 -4.6585 -5.566 -5.567 
-5.551 -5.554 -5.554 -5.555 -5.555 -5.555501 -5.555501 -5.5595 -5.5595 -5.5645 -5.5645 -5.5655 -5.5655 -5.566 -5.5695 
-5.556 -5.554 -5.557001 -5.555 -5.5575 -5.555501 -5.562 -5.5595 -5.5655 -5.5645 -5.5675 -5.5655 -5.5675 -5.5695 
-46.2185 
n/a 
n/a 
n/a 
n/a 
-46.2185 
n/a 
n/a 
n/a 
n/a 
