-4.759 
n/a 
n/a 
n/a 
n/a 
-4.759 
n/a 
n/a 
n/a 
n/a 
-4.759 
n/a 
n/a 
n/a 
n/a 
-4.759 
n/a 
n/a 
n/a 
n/a 
-3.5445 -3.7375 -3.4795 0 -3.3715 -3.982 -3.959 -3.7555 -4.75 -1.934 -1.4985 -3.8275 0 
-7.333 -4.985 -3.4795 -3.3715 -6.549001 -5.6075 -7.7695 -6.927 -4.981 -2.6125 -4.726 -3.8275 
-8.0885 -4.985 -6.9405 -6.549001 -6.948 -9.517 -11.4988 -8.002001 -5.6825 -5.815001 -4.726 
-8.0885 -8.1815 -9.92 -6.948 -11.1611 -13.1503 -12.5738 -8.955 -8.2695 -5.815001 
-11.5482 -11.338 -10.0815 -11.1611 -14.7944 -14.2253 -13.5268 -11.6938 -8.2695 
-3.5445 -3.7375 -3.4795 0 -3.17 -1.7565 -1.4985 -3.982 -3.959 -4.4275 -3.222 -1.4985 -3.8275 0 
-7.333 -4.985 -3.4795 -3.17 -4.179 -2.4195 -4.566 -5.6075 -8.1245 -5.144 -3.7835 -4.726 -3.8275 
-8.0885 -4.985 -5.95 -4.179 -4.497 -5.1565 -7.0455 -9.608001 -8.8915 -5.940001 -6.959 -4.726 
-8.0885 -8.177501 -7.315001 -4.497 -7.6535 -7.584501 -11.3604 -10.1615 -9.7155 -9.231501 -6.959 
-11.5442 -8.627501 -7.6815 -7.6535 -8.2825 -11.9606 -11.9139 -11.1393 -13.0588 -9.231501 
-3.5445 -3.7375 -3.4795 -3.17 -1.7565 -1.4985 -3.982 -3.959 -4.5905 -1.4985 -3.8275 
-7.333 -4.985 -5.95 -4.179 -2.4195 -4.566 -5.6075 -8.120501 -6.72 -4.726 
-8.0885 -8.177501 -7.315001 -4.497 -5.1565 -7.0455 -9.586 -9.844 -10.4489 
-11.5442 -8.627501 -7.6815 -7.6535 -7.584501 -11.3384 -11.2953 -13.7679 
-11.9942 -8.914001 -10.9998 -8.2825 -11.9386 -13.0477 -15.2192 
-3.5445 -3.7375 -3.4795 -3.982 -2.229 -2.4945 -4.077 -1.934 -3.8275 
-7.333 -4.985 -7.763 -7.627 -5.159 -5.416 -4.43 -5.911 
-8.0885 -10.0285 -12.1328 -9.734501 -7.952001 -5.615 -7.9665 
-13.3952 -14.4933 -14.2403 -12.5275 -8.068001 -9.469001 
-17.86 -16.6008 -17.0333 -12.6435 -12.4906 
