-4.759 
n/a 
n/a 
n/a 
n/a 
-4.759 
n/a 
n/a 
n/a 
n/a 
-4.759 
n/a 
n/a 
n/a 
n/a 
-4.759 
n/a 
n/a 
n/a 
n/a 
-3.2615 -4.748 -2.229 -8.35 -2.229 -2.4945 -3.3235 -4.09 -1.934 -3.0435 0 
-7.467 -5.884 -11.174 -10.802 -5.159 -5.2475 -5.9935 -5.2875 -4.8565 -3.0435 
-9.76 -15.3046 -13.626 -13.732 -7.995501 -7.2985 -7.3645 -9.203501 -4.8565 
-19.1806 -17.7566 -16.556 -16.5685 -10.2485 -8.264 -11.6427 -9.203501 
-21.6326 -20.6866 -19.3925 -18.8215 -11.2246 -12.6796 -11.6427 
-3.2615 -4.748 -5.1845 -3.1385 -3.0435 -4.7365 -4.339 -1.7695 -3.875 -1.756 -3.4975 -3.959 0 
-7.467 -10.533 -7.4095 -6.391 -7.5775 -8.993 -4.8945 -5.567 -5.0395 -5.427 -6.329 -3.959 
-13.7694 -12.758 -11.0384 -11.9246 -12.276 -9.1405 -7.8595 -6.567 -8.354 -8.5065 -6.329 
-15.9944 -16.3869 -16.572 -16.6231 -12.4235 -12.8525 -8.667001 -9.777 -10.1765 -8.5065 
-19.6233 -21.9205 -21.2705 -16.7706 -16.1355 -13.66 -12.0758 -11.8073 -10.1765 
-2.925 -6.403 -1.7695 -3.982 -3.959 -2.356 -3.8355 -4.5515 -1.934 -4.748 
-7.9665 -6.6235 -6.080501 -5.6075 -5.6375 -6.584001 -8.589001 -5.364501 -6.061 
-8.185 -12.1717 -7.524001 -7.419 -8.891001 -10.4855 -9.899001 -10.3163 
-13.7532 -13.6152 -9.510501 -10.8313 -13.1439 -11.7955 -14.8906 
-15.1967 -15.6017 -12.8852 -15.0842 -14.4539 -16.7871 
-3.2615 -5.369 -5.1845 -3.1385 -5.7565 -1.7695 -3.875 0 -3.676 -3.959 -2.5045 -5.177 0 
-8.8265 -11.1355 -7.4095 -7.9635 -6.202 -5.567 -3.875 -3.676 -7.168 -5.9545 -7.741501 -5.177 
-15.145 -13.3605 -12.6109 -8.377501 -8.719501 -5.567 -6.865001 -7.168 -9.467501 -11.9135 -7.741501 
-17.37 -18.5619 -13.0249 -10.426 -8.719501 -8.273001 -10.634 -9.467501 -15.7767 -11.9135 
-22.5714 -18.9759 -15.0734 -10.426 -11.7151 -12.5798 -12.9335 -15.7767 -15.7767 
