-4.759 
n/a 
n/a 
n/a 
n/a 
-4.759 
n/a 
n/a 
n/a 
n/a 
-4.759 
n/a 
n/a 
n/a 
n/a 
-4.759 
n/a 
n/a 
n/a 
n/a 
-3.1715 -4.6555 -2.8645 -2.645 -2.4285 -3.689 -2.8645 -3.486 -3.319 -1.7565 -4.0395 -4.1485 -4.5795 -2.9705 -2.8645 -6.823 -4.698 0 
-5.9845 -7.406501 -5.2085 -5.1595 -4.762 -7.394 -7.124 -5.7975 -4.165 -6.035 -7.7085 -8.904 -7.913 -4.6335 -10.451 -7.788001 -4.698 
-8.552 -10.281 -7.394 -5.283 -8.012501 -12.0467 -9.4625 -6.1045 -7.195001 -9.920501 -12.9566 -9.7215 -9.024 -12.4826 -11.6512 -7.788001 
-11.4613 -12.7863 -7.423 -8.4685 -12.7432 -14.3852 -9.8725 -8.988501 -10.7595 -15.2682 -13.7741 -10.162 -17.0059 -13.6828 -11.6512 
-13.9666 -12.8153 -11.0663 -13.3596 -15.0817 -14.7952 -12.8999 -12.7668 -16.1072 -16.0857 -14.2146 -18.9589 -18.2061 -13.6828 
-1.4985 -3.1715 -4.6555 -2.4945 -2.645 -2.4285 -3.689 -1.7565 -1.4985 -3.486 -3.519 -1.756 -4.5795 -2.186 -2.664 -4.452 -2.356 -3.098 -2.871 -3.8495 -4.698 0 
-3.994 -5.9845 -6.093501 -4.6775 -5.1595 -4.762 -5.64 -2.4195 -3.5655 -6.474 -4.981 -6.7425 -7.065001 -3.8555 -5.413 -6.639 -5.195001 -4.554 -7.3875 -7.804501 -4.698 
-6.898 -7.349 -8.118001 -6.615 -5.283 -6.366 -6.486 -4.824501 -6.5135 -7.654 -11.0181 -8.785 -8.6675 -6.585 -7.491 -9.278501 -5.9975 -8.846001 -11.9011 -7.804501 
-8.1855 -9.595501 -9.646001 -6.6235 -7.1825 -6.928 -7.9585 -7.519001 -7.671501 -14.1435 -13.0606 -10.5109 -11.7558 -8.519501 -9.8335 -10.1775 -10.396 -13.5668 -11.9011 
-10.553 -11.1159 -9.649501 -8.933001 -7.8715 -8.750501 -11.2748 -8.766001 -14.1886 -16.186 -14.7865 -13.5992 -13.6903 -10.411 -10.7911 -14.576 -15.1168 -13.5668 
-3.468 -2.674 -2.645 -2.4285 -3.689 -3.486 -4.456 -1.756 -12.16972 -2.8645 -3.7285 -3.545 -5.133 -3.519 -1.7565 -3.5435 0 
-5.5775 -4.9565 -5.1595 -4.762 -7.857 -7.904 -5.426001 -14.93432 -15.03422 -7.239 -7.309 -8.446 -8.17 -4.4175 -4.913 -3.5435 
-7.849 -7.115 -5.283 -8.2665 -12.6134 -8.905001 -19.41232 -17.79882 -19.40872 -11.4177 -12.7226 -11.9926 -8.224501 -6.2705 -4.913 
-9.684 -7.1665 -8.324 -13.2219 -13.6144 -22.96992 -22.27682 -22.17332 -23.58742 -16.8313 -16.2692 -12.0471 -8.3205 -6.2705 
-9.72 -9.891001 -13.3002 -14.2229 -27.67932 -25.83442 -26.65132 -26.35202 -29.00102 -20.3779 -16.3237 -12.1431 -8.3205 
-3.468 -3.5435 -3.152 -3.7875 -2.645 -2.4285 -3.689 -3.8225 -4.456 -3.098 -4.5795 -4.0935 -3.7285 -3.545 -4.698 0 
-5.6995 -6.654 -6.095 -6.073 -5.1595 -4.762 -6.213 -7.8 -7.599501 -8.4665 -9.4215 -7.8835 -7.309 -8.1635 -4.698 
-8.893001 -10.1765 -8.457001 -8.099 -5.283 -8.0395 -9.874001 -11.3541 -13.387 -13.3627 -13.3779 -12.0202 -10.004 -8.1635 
-12.4939 -12.5385 -10.8214 -8.186 -8.229501 -11.7847 -13.7315 -17.1416 -18.2832 -17.3191 -17.5146 -14.7152 -10.004 
-14.8559 -14.9029 -10.9084 -11.4103 -12.1307 -15.6422 -19.519 -22.0378 -22.2396 -21.4558 -20.2096 -14.7152 
