-4.759 
n/a 
n/a 
n/a 
n/a 
-4.759 
n/a 
n/a 
n/a 
n/a 
-4.759 
n/a 
n/a 
n/a 
n/a 
-4.759 
n/a 
n/a 
n/a 
n/a 
-3.6385 -1.934 -3.8315 -4.8515 -2.3335 -2.95 -2.9805 -3.7875 -3.383 -4.763 -5.0295 -1.756 -5.025 0 -6.328 -3.074 -4.763 0 
-5.1365 -6 -9.040501 -7.063 -4.8245 -5.2005 -7.304501 -6.915501 -6.363 -9.668 -6.613 -6.4605 -5.025 -6.328 -9.069 -8.222 -4.763 
-8.991501 -10.322 -11.438 -10.195 -6.404 -9.959001 -10.7495 -9.647501 -11.5984 -11.3977 -9.384501 -6.4605 -8.942 -9.069 -14.5364 -8.222 
-13.6999 -12.9973 -14.57 -11.7745 -11.6183 -13.404 -13.4815 -14.8829 -13.3281 -14.1692 -9.384501 -10.8223 -11.9658 -14.5364 -14.5364 
-16.3752 -16.1293 -16.1495 -16.9888 -15.0633 -16.136 -18.7169 -16.6126 -16.0996 -14.1692 -14.0493 -13.8461 -17.4332 -14.5364 
-3.5455 -1.4985 -4.53 -3.8405 -1.7565 -3.6385 -5.025 0 -6.328 -1.756 -1.4985 -5.188 -3.325 -1.4985 -4.1455 -5.0215 -3.2 -2.742 -2.674 -4.5785 -6.0385 
-3.91 -5.501 -6.716001 -4.563 -5.035 -8.364 -5.025 -6.328 -7.289 -3.0405 -6.384001 -7.9585 -3.898 -5.503 -6.7815 -6.368 -5.3115 -4.275 -7.6835 -8.884501 
-6.799 -7.4455 -7.915 -8.9215 -10.4713 -8.364 -8.942 -7.289 -8.2745 -7.9675 -8.819 -8.435 -8.738501 -7.268001 -7.166501 -9.283501 -6.9505 -9.005501 -12.2557 
-8.0065 -8.189 -12.3787 -15.105 -10.4713 -13.2444 -9.611501 -8.2745 -13.6365 -9.9505 -9.0165 -13.8771 -10.8023 -7.4705 -10.647 -10.0325 -11.9066 -13.6711 
-8.68 -12.7239 -18.5622 -15.105 -15.3517 -13.9139 -10.7045 -13.6365 -15.6195 -10.0515 -14.741 -15.9409 -11.0048 -10.673 -11.396 -15.823 -16.5722 
-4.426 -1.7565 -1.4985 -3.0835 -4.7285 -4.1555 -3.147 -1.4985 -3.135 -3.1385 -2.7415 -3.711 -3.8315 0 -5.025 0 0 -6.328 0 -6.328 0 0 -1.756 -3.711 -4.361 -4.126 -1.934 -6.0525 -2.95 0 
-5.47 -2.4195 -3.535 -6.042 -8.4455 -5.77 -4.88 -6.4025 -4.8745 -6.375501 -7.732 -6.912001 -3.8315 -5.025 -5.025 0 -6.328 -6.328 -6.328 -6.328 0 -1.756 -5.469501 -7.690001 -8.255501 -5.647 -9.803 -10.123 -2.95 
-5.9535 -4.6785 -6.335501 -9.523001 -9.541501 -7.053 -9.58 -8.210501 -8.545501 -11.514 -11.2522 -6.912001 -8.765 -5.025 -5.025 -6.328 -6.328 -8.7755 -6.328 -6.328 -1.756 -5.469501 -9.249001 -11.9981 -9.6075 -14.0726 -13.9531 -10.123 
-8.021 -7.476501 -10.0095 -10.7035 -10.8245 -12.4238 -11.505 -11.9171 -13.9242 -15.0342 -11.2522 -12.2851 -8.765 -5.025 -8.942 -6.328 -8.7755 -8.7755 -6.328 -7.289 -5.469501 -9.249001 -13.8129 -13.3501 -18.1035 -18.2227 -13.9531 
-9.983001 -11.3061 -11.3 -11.9865 -16.1953 -14.3488 -15.2116 -17.2958 -17.4444 -15.0342 -16.6253 -12.2851 -8.765 -8.942 -8.942 -8.7755 -8.7755 -8.7755 -7.289 -11.6793 -9.249001 -13.8129 -15.1649 -21.8461 -22.2536 -18.2227 
-3.135 -1.7565 -3.1385 -2.229 -1.934 -3.9335 -1.7565 -3.8315 -1.7695 -3.3165 -1.4985 -3.498 -1.7565 -3.8315 0 -8.410501 0 -6.016 -6.328 -3.737 -5.725 0 
-3.9195 -4.388 -4.6125 -4.573 -7.166 -5.68 -5.5375 -6.460001 -4.0585 -5.419001 -4.0295 -4.005 -5.5375 -3.8315 -8.410501 -8.410501 -6.016 -12.7084 -9.242001 -9.380501 -5.725 
-8.227 -6.147501 -8.370501 -10.019 -9.0165 -9.961501 -7.8675 -8.636001 -5.947001 -8.358001 -4.188 -8.7375 -5.5375 -13.1384 -8.410501 -14.8839 -12.7084 -15.6224 -15.5419 -9.380501 
-8.924001 -9.5795 -13.9795 -11.9879 -13.4066 -12.2915 -10.199 -11.0557 -8.8225 -8.658501 -8.8745 -8.7375 -15.4108 -13.1384 -14.8839 -21.5763 -15.6224 -21.9223 -15.5419 
-12.7002 -15.4269 -15.9484 -16.378 -15.7366 -14.623 -12.8263 -13.9312 -9.179501 -13.568 -8.8745 -18.8204 -15.4108 -19.6118 -21.5763 -24.4903 -21.9223 -21.9223 
