-4.759 
n/a 
n/a 
n/a 
n/a 
-4.759 
n/a 
n/a 
n/a 
n/a 
-4.759 
n/a 
n/a 
n/a 
n/a 
-4.759 
n/a 
n/a 
n/a 
n/a 
-1.4985 -2.688 -3.5865 -9.448501 -1.934 -5.3885 -2.229 -7.9975 -3.4425 
-3.702 -6.224 -14.2704 -9.811001 -6.4035 -7.854 -10.8215 -11.1415 
-7.297 -17.6487 -14.6329 -14.6659 -8.945001 -16.7099 -13.9655 
-18.9353 -18.0112 -19.4878 -17.2074 -17.9091 -19.8539 
-19.2978 -22.8661 -22.0293 -26.1715 -21.0531 
-14.852 -2.688 -3.5865 0 -10.3985 -1.934 -5.3885 0 
-18.264 -6.224 -3.5865 -10.3985 -12.4625 -6.4035 -5.3885 
-17.4248 -6.224 -15.2204 -12.4625 -16.932 -6.4035 
-17.4806 -18.5987 -17.2844 -16.932 -16.932 
-29.8553 -20.6627 -21.7539 -16.932 
-2.688 -3.5865 -1.934 -7.9975 0 -5.3885 
-6.224 -5.4235 -9.588 -7.9975 -5.3885 
-8.244 -13.9169 -9.588 -8.607 
-16.9954 -13.9169 -10.1445 
-16.9954 -14.4734 
-20.2405 -10.7545 -8.5705 
-32.3144 -19.572 
-36.7567 
n/a 
n/a 
