-4.759 
n/a 
n/a 
n/a 
n/a 
-4.759 
n/a 
n/a 
n/a 
n/a 
-4.759 
n/a 
n/a 
n/a 
n/a 
-4.759 
n/a 
n/a 
n/a 
n/a 
-7.989501 -7.977 -4.248 -4.5845 -2.229 -4.2245 -5.565 -8.7215 -4.0555 -2.9905 0 
-16.4863 -13.1182 -9.545 -5.886001 -6.2335 -9.283501 -10.368 -13.1714 -5.1245 -2.9905 
-21.6275 -18.4152 -11.1853 -10.4425 -11.7947 -14.8891 -14.8179 -14.2404 -5.1245 
-26.9245 -20.0555 -15.7418 -16.0037 -17.4003 -19.339 -15.8869 -14.2404 
-28.5648 -24.612 -21.303 -21.6093 -21.8502 -20.408 -15.8869 
-6.56 -1.7565 -7.187 0 -1.4985 -3.8385 -1.7565 -5.3745 -4.891 -1.7565 -5.1845 -6.262 
-6.903501 -9.8927 -7.187 -1.4985 -4.778501 -4.716001 -6.5 -7.061501 -6.8725 -6.580501 -8.6805 
-16.0547 -9.8927 -11.2189 -4.778501 -5.202 -9.951 -8.8485 -7.1715 -7.181 -8.797001 
-16.0547 -13.9246 -14.4989 -5.202 -10.6796 -10.0585 -9.0345 -7.185 -8.812 
-20.0866 -17.2046 -14.9224 -10.6796 -10.7871 -10.4445 -9.069 -8.821501 
-5.3745 -4.891 -1.7565 -5.1845 -6.844 -3.757 -8.2425 -5.142 
-7.061501 -6.8725 -6.580501 -6.9655 -10.4675 -13.0465 -14.0173 
-7.1715 -7.181 -7.1625 -10.543 -19.757 -18.8213 
-7.185 -7.202001 -10.9478 -19.8325 -25.5318 
-7.2055 -11.0969 -20.2373 -25.6073 
-5.1845 -6.262 -3.046 -4.5845 -3.8385 -12.16972 -5.4355 
-8.6805 -9.995501 -8.1215 -7.906501 -16.95402 -17.60522 
-12.8552 -15.452 -11.8759 -21.27762 -22.38952 
-18.3117 -19.2064 -25.24702 -26.71312 
-22.0661 -32.57752 -30.68252 
