-4.759 
n/a 
n/a 
n/a 
n/a 
-4.759 
n/a 
n/a 
n/a 
n/a 
-4.759 
n/a 
n/a 
n/a 
n/a 
-4.759 
n/a 
n/a 
n/a 
n/a 
-6.3215 -8.918501 -3.9075 -4.0455 -12.16972 
-16.1284 -13.04 -7.219 -16.78862 
-20.2499 -16.3515 -20.72912 
-23.5614 -29.86162 
-37.07152 
-6.3215 -2.186 -4.06 -1.934 -1.4985 -4.142 -4.3215 -1.7565 -8.248 -3.9075 0 
-8.5 -4.672 -4.483 -2.6125 -5.0295 -8.246 -5.7605 -9.6475 -9.134 -3.9075 
-10.4185 -5.13 -4.937 -5.665 -8.387501 -8.473001 -10.2035 -10.0695 -9.134 
-10.8765 -5.522 -7.152501 -10.434 -8.496 -13.497 -10.2885 -10.0695 
-11.2685 -7.6235 -12.2585 -10.7465 -13.55 -13.582 -10.2885 
-6.3215 -2.186 -4.99 -2.5045 -8.904 -3.9075 -4.1875 0 
-8.5 -5.502 -6.1635 -12.1035 -10.8215 -6.9425 -4.1875 
-10.2485 -6.6515 -16.2263 -14.021 -13.8565 -6.9425 
-11.8464 -16.8729 -18.1438 -17.056 -13.8565 
-22.0678 -18.7904 -21.1788 -17.056 
-8.248 -3.9075 -2.186 -3.958 -1.934 -6.3215 
-9.134 -5.9785 -5.228 -5.497 -7.453 
-11.3876 -8.551001 -6.468 -11.7692 
-13.9601 -10.2335 -13.1988 
-15.6426 -17.2319 
