-4.759 
n/a 
n/a 
n/a 
n/a 
-4.759 
n/a 
n/a 
n/a 
n/a 
-4.759 
n/a 
n/a 
n/a 
n/a 
-4.759 
n/a 
n/a 
n/a 
n/a 
-2.3615 -2.186 -1.4985 -3.535 -4.0075 -4.7075 -2.0935 -5.3435 -1.7565 -1.4985 -6.645 0 -6.939 0 -12.16972 
-3.5005 -3.339 -4.255 -5.993 -9.6555 -6.706 -6.622 -7.785501 -2.4195 -6.879001 -6.645 -6.939 -6.939 -12.16972 
-4.3105 -5.657 -6.225501 -12.5782 -12.0566 -12.0973 -9.099001 -8.3545 -7.443501 -6.879001 -8.317501 -6.939 -19.90652 
-6.455501 -7.388 -13.1699 -14.9793 -17.4479 -14.5743 -9.733001 -13.6451 -7.443501 -8.904 -8.317501 -19.90652 
-8.6425 -14.6754 -15.571 -20.3706 -19.9249 -15.2083 -15.3458 -13.6451 -9.363001 -8.904 -21.95722 
-2.3615 -2.186 -1.4985 -4.342 -4.5095 -2.9705 -2.7765 -2.489 -3.7855 -2.3345 -1.4985 -6.645 0 -12.16972 0 -12.16972 -12.16972 -1.756 -3.4155 -3.1385 0 
-3.5005 -3.339 -4.7365 -7.573 -7.316 -4.677 -3.495 -4.789001 -5.0075 -3.233 -6.879001 -6.645 -12.16972 -12.16972 -12.16972 -24.33944 -13.92572 -5.2205 -6.1125 -3.1385 
-4.3105 -5.7135 -8.319 -11.6311 -9.055 -4.966 -6.002 -6.1095 -5.5495 -8.665 -6.879001 -19.60132 -12.16972 -24.33944 -24.33944 -26.09544 -17.39022 -7.5035 -6.1125 
-6.8005 -9.227 -12.9661 -13.3701 -9.197001 -7.505 -7.287001 -6.577 -11.3343 -8.665 -20.04072 -19.60132 -24.33944 -36.50916 -26.09544 -29.55994 -19.67322 -7.5035 
-9.8415 -14.0735 -14.7051 -13.5121 -11.898 -8.952001 -8.093 -12.894 -11.3343 -21.89112 -20.04072 -31.77104 -36.50916 -38.26516 -29.55994 -31.84294 -19.67322 
-2.3615 -2.186 -1.4985 -3.826 -5.0195 -2.0935 -1.4985 -3.1385 -2.5195 -1.4985 -6.645 0 -4.2235 -8.77 -1.756 -3.3715 -1.7565 -1.4985 -3.4155 -3.1385 0 
-3.5005 -3.339 -4.4325 -9.500501 -7.226501 -2.9725 -4.2575 -5.074 -3.1695 -6.879001 -6.645 -4.2235 -14.4385 -9.728001 -4.6545 -4.3215 -2.4195 -4.4155 -6.1125 -3.1385 
-4.3105 -6.105 -10.259 -11.8465 -8.278501 -5.5795 -6.5525 -5.964 -8.297501 -6.879001 -11.08 -14.4385 -15.3965 -12.7201 -5.7085 -4.7025 -5.211 -7.219 -6.1125 
-6.6475 -12.3655 -12.7586 -12.8985 -11.0671 -8.257 -7.0215 -11.5272 -8.297501 -11.5194 -21.295 -15.3965 -18.3886 -13.7741 -6.108 -7.2175 -8.012 -7.219 
-13.2588 -14.8651 -13.8106 -15.6871 -13.7446 -8.776 -12.7157 -11.5272 -13.0941 -21.7344 -22.253 -18.3886 -19.4426 -14.1736 -8.668501 -9.394 -8.012 
-3.1495 -2.4945 -1.4985 -3.681 -2.9705 -1.4985 -6.645 0 -6.939 0 -4.5735 -6.2055 -1.756 -4.6335 -3.1385 -3.465 -1.7695 -4.597 -1.7695 -1.4985 -3.1385 
-4.459 -3.9315 -4.9615 -5.784 -4.186 -6.879001 -6.645 -6.939 -6.939 -4.5735 -8.8055 -7.414 -5.6515 -7.5635 -5.617001 -3.665 -5.044 -6.7755 -2.7955 -4.2575 
-5.194 -6.49 -6.5655 -7.424001 -9.461 -6.879001 -8.317501 -6.939 -10.048 -8.8055 -9.6225 -11.8357 -8.5115 -10.4505 -5.8545 -6.7845 -7.207 -7.43 -5.4345 
-6.942 -7.969 -8.091001 -13.1294 -9.461 -8.904 -8.317501 -10.048 -14.412 -9.6225 -14.229 -14.6957 -11.6645 -10.5775 -9.095 -8.972501 -7.8605 -9.869 
-8.321 -9.419001 -14.0328 -13.1294 -11.6084 -8.904 -12.0987 -14.412 -15.229 -14.229 -17.089 -17.8487 -11.7915 -13.818 -11.538 -9.748501 -10.3535 
