-4.759 
n/a 
n/a 
n/a 
n/a 
-4.759 
n/a 
n/a 
n/a 
n/a 
-4.759 
n/a 
n/a 
n/a 
n/a 
-4.759 
n/a 
n/a 
n/a 
n/a 
-7.689 -4.111 -2.645 -4.114 -2.7295 -2.7765 -4.2635 -1.4985 -3.16 -2.9775 -1.934 -2.9995 -3.6885 -2.3345 -3.3425 -5.8865 
-13.1132 -6.58 -6.474 -6.5885 -4.065 -5.9045 -4.9175 -4.0625 -4.6715 -5.035 -4.2175 -6.018 -6.29 -4.554 -9.1695 
-15.5822 -9.484501 -9.199501 -8.195001 -6.7405 -6.669001 -8.323 -5.8255 -6.696 -7.328501 -6.5655 -8.386 -7.994 -10.8858 
-18.4867 -12.8112 -10.093 -9.925001 -7.4445 -9.9855 -9.463501 -7.608 -8.956501 -9.795501 -8.580501 -9.721001 -14.4808 
-21.8134 -13.7047 -12.191 -11.5028 -10.8482 -11.126 -11.447 -9.317 -10.523 -11.7845 -9.831501 -16.5888 
-4.58 -6.3345 -4.111 -4.138 -3.264 -1.7565 -4.932 -5.022 -4.996 -2.4265 -4.2175 -4.3925 -4.996 -3.818 -3.3255 -5.8865 -2.9995 -3.6885 -2.7765 -2.489 -4.816 -2.264 -1.4985 -3.432 0 
-7.691 -10.5975 -7.523 -5.3975 -3.6125 -7.744 -8.05 -8.095501 -7.6665 -6.4265 -9.335001 -9.2875 -8.7155 -7.2065 -9.4285 -9.6665 -6.018 -6.5305 -3.495 -5.6005 -7.483001 -2.9195 -4.829 -3.432 
-10.647 -14.4735 -10.1 -5.4155 -9.719501 -9.732 -11.9483 -11.0496 -12.3663 -11.8606 -14.5276 -13.2954 -12.4118 -13.5947 -13.5445 -12.7896 -8.289001 -6.864501 -6.390501 -7.993001 -7.905001 -5.3665 -4.829 
-14.6306 -17.0505 -10.1135 -10.167 -11.9541 -14.6375 -14.9024 -15.7494 -17.8004 -17.0532 -18.5355 -16.9917 -18.8 -17.7107 -16.6676 -15.0606 -8.488501 -9.203 -8.508 -8.356001 -10.8758 -5.3665 
-17.2076 -17.064 -14.865 -13.9806 -16.8596 -17.5916 -19.6022 -21.1835 -22.993 -21.0611 -22.2318 -23.3799 -22.916 -20.8338 -18.9386 -15.2601 -11.1716 -10.4275 -8.869 -11.6268 -10.8758 
-7.689 -3.5795 -3.3715 -4.1395 -4.4385 -1.934 -2.4265 
-12.5817 -6.3145 -6.887501 -9.0495 -6.26 -4.6645 
-15.3167 -9.838 -12.5803 -11.3462 -9.080001 
-18.8402 -15.6412 -14.877 -14.1662 
-24.6434 -17.9379 -17.697 
-4.58 -6.3345 -4.4105 -3.17 -4.0145 -3.8235 -4.4525 -4.934 -3.188 -4.7365 -3.8235 -4.4525 -3.86 -3.8235 -4.761 -1.7695 -4.934 -1.934 -2.688 -2.871 -4.6555 -5.8865 -1.7695 -1.4985 -2.9995 -3.6885 -1.7695 -4.556 -4.435 0 
-7.691 -11.423 -7.689 -7.9815 -7.8855 -7.9355 -11.117 -10.0965 -7.4125 -8.0755 -7.9355 -8.034 -8.419001 -8.422001 -6.4945 -5.386 -7.2385 -4.282 -5.292 -8.269501 -11.8328 -7.9255 -2.7955 -6.492001 -6.018 -5.663 -5.0945 -10.784 -4.435 
-13.8303 -14.7015 -13.1727 -12.2343 -12.8591 -15.058 -16.2795 -14.321 -11.4327 -12.8195 -11.975 -13.0958 -13.3571 -9.8675 -10.8 -7.7045 -10.2979 -8.408501 -11.1517 -16.0142 -13.8718 -9.392 -7.831501 -9.686001 -7.376 -9.091001 -11.7959 -10.784 
-17.1088 -20.1852 -17.4255 -17.2079 -19.9816 -20.2205 -20.504 -18.3412 -16.1767 -16.859 -17.0368 -18.0339 -14.8026 -14.3134 -13.1185 -10.8613 -14.4244 -14.7334 -18.8964 -18.0532 -15.3383 -14.6282 -11.1891 -10.246 -11.644 -16.121 -11.7959 
-22.5925 -24.438 -22.3991 -24.3304 -25.1441 -24.445 -24.5242 -23.0852 -20.2162 -21.9208 -21.9749 -19.4794 -19.2485 -16.6319 -16.2753 -14.9878 -20.7493 -22.4781 -20.9354 -19.5197 -20.5745 -17.9858 -11.7491 -14.9996 -18.674 -16.121 
