-4.759 
n/a 
n/a 
n/a 
n/a 
-4.759 
n/a 
n/a 
n/a 
n/a 
-4.759 
n/a 
n/a 
n/a 
n/a 
-4.759 
n/a 
n/a 
n/a 
n/a 
-3.0835 -3.8195 -2.7415 -4.0925 -1.934 -4.034 -2.4265 -5.3225 -3.091 -4.7015 -2.5685 -3.2295 -1.4985 -3.188 
-6.305 -5.97 -5.328 -5.2985 -5.035 -6.6385 -6.819 -7.523 -6.7695 -7.597001 -4.661 -3.844 -3.619 
-7.7845 -7.369 -5.962 -7.049 -6.982 -11.956 -9.975 -11.8525 -9.834001 -8.266001 -4.894 -5.1895 
-9.185 -7.8815 -7.6845 -9.106001 -12.5307 -15.112 -14.5169 -14.917 -10.6635 -8.3065 -5.231 
-9.672001 -9.7875 -9.682501 -14.5997 -15.6867 -19.6539 -17.5814 -15.7465 -10.704 -8.387001 
-3.0835 -5.644 0 -2.8645 -3.6975 -1.934 -4.034 
-8.9855 -5.644 -2.8645 -8.0085 -5.568 -5.035 
-8.9855 -8.3455 -8.0085 -10.6735 -7.467 
-12.1634 -13.8905 -10.6735 -12.5725 
-17.7084 -16.5555 -12.5725 
-3.091 -3.0835 -3.8195 -3.7555 -4.6335 -1.934 -4.034 -1.756 -3.091 -4.7155 -4.4755 -2.5685 -3.2295 -1.4985 -3.188 0 
-4.956 -6.305 -7.7985 -8.953 -5.7045 -5.035 -5.5175 -4.2995 -6.797501 -7.995001 -6.844 -4.661 -3.844 -3.619 -3.188 
-7.248 -9.9455 -13.1752 -9.9925 -8.6145 -6.118 -8.0915 -8.043501 -8.316501 -9.613001 -7.0025 -4.894 -5.1895 -3.619 
-11.0455 -15.3666 -14.2147 -13.0095 -10.004 -8.468 -12.1401 -9.024501 -10.147 -9.682501 -7.173 -5.231 -5.1895 
-16.4666 -16.4061 -17.2317 -14.399 -12.5744 -12.7362 -13.1211 -10.6215 -10.288 -9.873001 -7.704 -5.231 
-3.0835 -3.7955 -2.7415 -4.0865 -1.934 -4.034 -3.0415 -2.5685 -6.315001 -1.4985 -3.188 -4.4895 -2.7455 -3.091 -4.4695 
-6.3835 -5.9915 -6.055 -5.8935 -5.035 -7.203501 -5.7015 -8.969 -8.470501 -3.619 -6.8065 -5.977 -5.024 -6.2805 
-7.854001 -9.317501 -7.157001 -8.0835 -7.517 -9.731001 -12.6574 -10.1395 -10.6885 -7.080501 -8.031 -8.065001 -8.246 
-11.2846 -11.4039 -10.2988 -10.2925 -9.9635 -16.7517 -13.8279 -12.3575 -14.15 -8.23 -10.064 -11.448 
-13.371 -14.5457 -12.5078 -12.739 -17.0178 -17.9222 -16.0459 -15.819 -15.2995 -10.4105 -13.447 
