-4.759 
n/a 
n/a 
n/a 
n/a 
-4.759 
n/a 
n/a 
n/a 
n/a 
-4.759 
n/a 
n/a 
n/a 
n/a 
-4.759 
n/a 
n/a 
n/a 
n/a 
-3.9345 -1.7695 -1.4985 -3.522 -3.793 -1.934 -2.9195 -3.515 0 -6.1435 -4.758 -4.732 -1.4985 -4.193 -1.7565 -3.5315 
-3.94 -2.7955 -4.7705 -6.104 -4.752 -5.259 -6.7245 -3.515 -6.1435 -9.838 -9.852501 -5.618001 -4.594501 -4.7225 -5.2425 
-4.4455 -6.0055 -7.6045 -6.5835 -7.472 -9.4445 -6.7245 -10.2535 -9.838 -15.1323 -10.9289 -8.003 -4.7895 -7.242001 
-6.8105 -8.698501 -7.9055 -9.8735 -10.298 -9.4445 -14.3452 -13.948 -15.1323 -16.2087 -13.3139 -8.015501 -7.302001 
-9.2805 -8.952001 -11.3159 -12.6645 -10.298 -17.1846 -18.0397 -19.2423 -16.2087 -18.5937 -13.3264 -9.819501 
-2.5045 -3.543 -1.4985 -3.522 -3.793 -1.934 -5.517 0 -3.6215 -2.6615 -3.748 -4.2985 -3.1385 -4.758 -1.934 -2.3615 -4.221 -4.732 -3.5315 -4.129 0 
-5.323 -5.62 -4.7705 -6.104 -4.752 -7.0905 -5.517 -3.6215 -5.9135 -5.403501 -8.59 -8.297501 -6.6485 -6.0375 -3.539 -6.219501 -9.1525 -7.428 -8.4915 -4.129 
-5.8685 -8.189501 -7.6045 -6.5835 -8.5755 -7.0905 -10.1595 -5.9135 -7.6035 -10.7495 -12.835 -12.0453 -7.866001 -7.5635 -7.0085 -11.7538 -12.0805 -12.301 -8.4915 
-8.591001 -11.2645 -7.9055 -9.772 -8.5755 -12.2434 -12.6397 -7.6035 -13.1835 -14.9945 -16.5828 -13.2628 -9.088501 -10.5325 -12.6128 -14.6818 -16.9535 -12.301 
-11.7044 -11.5655 -11.2144 -9.772 -13.8862 -14.7236 -14.3297 -13.1835 -17.4285 -18.7423 -17.8003 -14.4853 -11.9933 -16.1368 -15.5408 -19.5548 -16.9535 
-3.9345 -1.7695 -1.4985 -3.522 -3.793 -2.264 -5.517 0 -2.7455 -2.6615 -3.748 -9.325001 -4.449 -4.758 -1.934 -2.3615 -4.221 -4.732 -3.5315 -4.129 0 
-3.94 -2.7955 -4.7705 -6.104 -4.9295 -7.818001 -5.517 -2.7455 -5.253 -5.403501 -14.357 -14.3246 -7.916 -6.0375 -3.539 -6.219501 -9.1525 -7.428 -8.4915 -4.129 
-4.4455 -6.0055 -7.6045 -6.975 -10.089 -7.818001 -8.371 -5.253 -7.0375 -16.4129 -19.3566 -17.7916 -8.802001 -7.5635 -7.0085 -11.7538 -12.0805 -12.301 -8.4915 
-6.8105 -8.698501 -8.5585 -12.4283 -10.089 -10.2585 -11.1215 -7.0375 -18.3927 -21.4125 -22.8236 -18.6776 -10.7575 -10.5325 -12.6128 -14.6818 -16.9535 -12.301 
-9.2805 -9.559 -13.9472 -12.4283 -12.6659 -13.009 -12.906 -18.3927 -23.3923 -24.8795 -23.7096 -20.6331 -13.7265 -16.1368 -15.5408 -19.5548 -16.9535 
-3.9345 -1.7695 -2.664 -3.522 -3.793 -1.934 -5.517 0 -4.347 -2.6615 -3.748 -6.1435 -2.674 -4.758 -1.934 -2.3615 -4.369 -2.925 -1.7695 -1.4985 -3.584 -1.7565 -3.5315 0 
-3.94 -4.185 -4.9235 -6.104 -4.752 -7.0905 -5.517 -4.347 -5.866 -5.403501 -8.3745 -8.0165 -6.1945 -6.0375 -3.539 -6.01 -8.092501 -3.71 -2.7955 -4.755 -4.8765 -5.2425 -3.5315 
-5.759 -6.2555 -6.723 -6.5835 -8.5755 -7.0905 -10.7335 -5.866 -7.2745 -9.832001 -9.487 -11.6728 -7.219501 -7.5635 -6.7995 -9.384501 -8.685 -4.726 -5.851501 -5.043 -8.129 -5.2425 
-6.7545 -7.578501 -6.969 -9.772 -8.5755 -12.8174 -12.2525 -7.2745 -12.0352 -11.0051 -13.4441 -12.6978 -7.7615 -8.748 -10.6215 -9.811001 -9.696001 -7.594 -6.022 -8.1805 -8.129 
-7.764 -7.898001 -10.021 -9.772 -14.4602 -14.3364 -13.661 -12.0352 -13.2083 -14.9622 -14.4691 -13.2398 -8.7665 -13.9226 -11.048 -11.13 -12.7826 -7.7075 -10.0955 -8.1805 
