-4.759 
n/a 
n/a 
n/a 
n/a 
-4.759 
n/a 
n/a 
n/a 
n/a 
-4.759 
n/a 
n/a 
n/a 
n/a 
-4.759 
n/a 
n/a 
n/a 
n/a 
-3.291 -3.468 -1.7565 -3.473 -1.934 -3.691 -2.229 -4.3185 -3.1715 -1.7565 -3.873 -4.7765 -3.748 -4.702 0 
-7.8725 -4.7385 -6.304 -5.931 -4.8225 -5.0855 -6.8715 -6.553 -4.207 -5.002 -9.312 -7.476 -6.243 -4.702 
-8.855 -10.115 -8.439501 -9.164001 -6.530001 -10.6875 -9.293001 -8.186001 -8.48 -11.1186 -12.2543 -9.416 -6.243 
-14.8587 -12.3929 -11.9635 -11.0247 -12.6444 -13.109 -11.2368 -13.0382 -14.9074 -14.0609 -14.1943 -9.416 
-17.1366 -15.9169 -13.8242 -17.1391 -15.0659 -15.0528 -16.089 -19.4656 -17.8497 -16.0009 -14.1943 
-4.3185 -4.4995 -1.7695 -2.489 -1.4985 -4.4665 -3.1715 -1.934 -1.4985 -2.791 -1.756 -3.1435 -3.873 -3.4425 -4.2715 -4.7765 -3.748 -4.702 
-10.038 -5.291 -3.1405 -3.9675 -4.729 -7.6815 -5.1815 -2.6125 -4.3645 -4.6785 -4.1365 -6.766 -6.015 -7.751 -9.622 -7.476 -6.243 
-10.5805 -5.79 -4.568 -6.2955 -7.968 -8.436001 -5.7925 -4.900001 -5.429501 -7.134 -8.099 -8.0205 -9.951 -13.3361 -12.3885 -9.416 
-11.0795 -6.559 -6.6995 -9.824 -8.7405 -8.618 -7.5295 -5.776 -7.265501 -11.6249 -9.499001 -12.2999 -15.5361 -16.1026 -14.3285 
-11.8485 -8.736 -10.316 -10.3315 -8.881001 -9.682501 -8.533501 -8.222501 -12.0196 -13.0249 -14.1112 -17.885 -18.3026 -18.0426 
-3.6705 0 -3.17 -5.59 -1.7565 -1.4985 -2.95 -4.259 -3.2775 -4.8125 -2.5045 -6.57 0 -1.756 -3.4915 -2.7415 -4.9345 -1.934 -4.0955 -7.631001 -3.098 -1.8085 -3.7375 -4.3355 -3.9535 -4.375 -3.4775 0 -4.4885 -4.127 -5.515 -2.356 -6.134 -1.7565 -4.5735 -3.9675 -1.756 -7.365 
-3.6705 -3.17 -7.5235 -7.84 -2.4195 -3.9285 -8.0725 -8.151001 -7.57 -6.919 -7.839001 -6.57 -1.756 -4.838 -6.375 -6.129 -6.118 -6.1625 -10.2535 -10.209 -4.5555 -3.8995 -7.8745 -8.446501 -7.916501 -7.5215 -3.4775 -4.4885 -9.2575 -7.660001 -7.825001 -7.871 -6.327 -5.6355 -7.1785 -4.9775 -8.981501 
-6.0495 -7.5235 -9.626 -8.3335 -4.956 -8.901501 -10.2595 -10.259 -8.419001 -10.238 -7.839001 -7.863 -4.838 -8.237 -9.056001 -6.9685 -10.204 -10.3745 -10.3065 -10.262 -5.2545 -7.9255 -10.2285 -10.298 -10.2235 -7.5215 -8.0115 -9.2575 -10.2935 -9.755501 -10.2925 -7.951001 -9.174001 -8.2915 -8.0255 -13.3326 
-9.779501 -9.626 -9.935 -9.376 -9.420501 -10.281 -10.3135 -10.2785 -10.31 -10.238 -8.679001 -10.316 -8.237 -10.0745 -9.616 -10.3035 -10.3825 -10.386 -10.322 -10.271 -9.772 -10.2325 -10.307 -10.308 -10.2235 -10.238 -10.304 -10.2935 -10.315 -10.307 -10.314 -10.168 -10.1815 -8.869 -16.677 
-10.2895 -9.935 -10.1615 -10.3055 -10.2935 -10.3135 -10.3235 -10.328 -10.31 -10.3365 -10.368 -10.385 -10.0745 -10.328 -10.3765 -10.384 -10.394 -10.3975 -10.332 -10.28 -10.256 -10.312 -10.317 -10.308 -10.3065 -10.3125 -10.314 -10.315 -10.325 -10.317 -10.324 -10.3 -10.246 -17.7067 
-2.5195 -1.4985 -4.821 -1.7565 -5.025 -4.39 0 -4.3185 -2.9705 -2.186 -4.794 -3.433 -1.7565 -3.691 -2.186 -1.4985 -4.4665 -3.1715 -2.8645 -1.4985 -3.873 -3.4425 -1.7565 -4.7765 -3.748 -4.702 0 
-3.1695 -6.1335 -5.8865 -6.435501 -10.151 -4.39 -4.3185 -7.546 -3.89 -6.253 -7.843 -4.1845 -4.930501 -5.832 -3.339 -4.729 -7.6815 -5.634 -4.3545 -4.7405 -6.015 -4.5535 -6.738 -7.476 -6.243 -4.702 
-7.724 -6.37 -11.2129 -11.7721 -10.151 -9.2075 -7.546 -8.2875 -7.5885 -9.338501 -8.26 -8.593 -6.787001 -6.955 -5.893 -7.968 -10.335 -6.924 -8.2755 -6.982 -6.951 -9.437 -8.408 -9.416 -6.243 
-7.9775 -11.849 -16.5495 -11.7721 -15.5971 -12.96 -8.2875 -12.1666 -11.0916 -9.664501 -12.7595 -11.3637 -7.883501 -9.2825 -8.984 -10.6595 -11.625 -11.4846 -10.006 -7.576 -10.7025 -11.5654 -10.6215 -9.416 
-13.5777 -17.1856 -16.5495 -17.2182 -19.3496 -13.7015 -12.1666 -15.6697 -11.4176 -14.3774 -15.5302 -12.4602 -10.3894 -12.6269 -11.8555 -11.9495 -16.1856 -13.2151 -10.2475 -11.7387 -12.8309 -13.7789 -10.6215 
