-4.759 
n/a 
n/a 
n/a 
n/a 
-4.759 
n/a 
n/a 
n/a 
n/a 
-4.759 
n/a 
n/a 
n/a 
n/a 
-4.759 
n/a 
n/a 
n/a 
n/a 
-3.9225 -3.676 -2.229 -3.304 -4.39 0 -1.4985 -2.915 -2.9705 -2.7415 -5.008 -2.3345 -3.7875 -3.991 -2.356 -3.345 -6.5465 
-7.139 -4.593 -5.842 -7.871 -4.39 -1.4985 -4.1675 -5.5755 -4.512 -6.7045 -6.251501 -5.5375 -7.899 -4.761 -4.841001 -10.168 
-7.145 -7.588 -11.041 -7.871 -6.0765 -4.1675 -6.709001 -7.253 -8.505501 -7.837 -9.836 -10.243 -8.9355 -7.3795 -12.177 
-9.3025 -14.2902 -11.041 -9.3255 -8.986501 -6.709001 -8.179501 -9.554001 -9.186001 -10.688 -14.5437 -10.4425 -11.5684 -15.1295 
-16.8061 -14.2902 -12.4955 -12.3165 -11.9734 -8.179501 -10.138 -10.5345 -12.2018 -15.3957 -14.7432 -13.0754 -19.3184 
-3.676 0 -2.229 -3.304 -3.468 0 -4.855 -2.915 -3.991 -2.0935 -3.6055 -3.468 
-3.676 -2.229 -5.842 -5.782001 -3.468 -4.855 -6.391 -7.8155 -6.003 -4.7925 -8.442 
-4.593 -5.842 -8.172001 -5.782001 -8.8955 -6.391 -12.0939 -9.569501 -8.3475 -8.9735 
-7.588 -8.172001 -8.172001 -12.0255 -9.936001 -12.0939 -13.8479 -12.321 -12.9561 
-8.967501 -8.172001 -14.7777 -13.066 -15.8499 -13.8479 -16.5994 -16.9296 
-5.008 -2.915 -4.3425 -1.7565 -3.345 -3.1715 -1.7565 -3.676 -2.229 -3.304 -3.468 0 
-6.772501 -7.8105 -7.2105 -4.365 -5.613501 -4.207 -4.4345 -4.593 -5.842 -5.782001 -3.468 
-12.5048 -11.2759 -9.6555 -6.6885 -7.394501 -7.224 -5.472 -7.588 -8.172001 -5.782001 
-15.9702 -13.7209 -12.1306 -8.233001 -10.1345 -7.8075 -8.222 -8.967501 -8.172001 
-18.4152 -16.196 -13.6751 -11.3458 -10.718 -11.2511 -9.218501 -8.967501 
-1.934 -1.4985 -3.304 -3.468 -1.7565 -3.676 -1.756 -3.345 -3.1715 -2.8645 -3.7555 -3.1435 -3.759 -1.7565 -4.0045 
-2.6125 -5.3485 -5.782001 -4.7385 -4.4345 -5.0365 -5.1225 -5.613501 -5.634 -5.647 -6.325 -6.5665 -4.5295 -5.224 
-6.329 -6.47 -7.2885 -5.0245 -5.903501 -8.6595 -7.495501 -6.9905 -8.785001 -7.673 -10.6372 -7.1185 -8.840501 
-7.203001 -7.9235 -8.7465 -6.3365 -9.2045 -10.6735 -8.472 -10.504 -10.2985 -12.286 -11.1892 -11.6881 
-8.729 -9.0605 -9.861 -9.3505 -11.4745 -11.65 -11.9743 -12.0175 -15.0549 -12.838 -15.7588 
