-4.759 
n/a 
n/a 
n/a 
n/a 
-4.759 
n/a 
n/a 
n/a 
n/a 
-4.759 
n/a 
n/a 
n/a 
n/a 
-4.759 
n/a 
n/a 
n/a 
n/a 
-2.3345 -3.3425 -1.4985 -4.919 -3.458 -1.4985 -3.535 -4.6805 -1.7565 -6.557 -2.925 -4.5275 -3.277 0 -1.756 -2.925 -3.9535 -1.7695 -5.039 -2.985 -3.519 
-4.554 -4.0125 -6.824 -6.0465 -4.063 -4.8385 -8.8915 -5.617 -7.653501 -9.631001 -6.923 -7.1085 -3.277 -1.756 -4.2585 -5.863 -5.098001 -5.5315 -6.7755 -5.976501 
-5.1225 -10.1225 -7.956001 -7.1235 -7.559501 -9.434501 -10.219 -12.8706 -9.964001 -13.9442 -9.024 -7.1085 -4.6335 -4.2585 -7.0775 -6.7565 -8.822001 -7.1335 -9.2675 
-11.4959 -11.2545 -8.292001 -11.2286 -12.2915 -10.7605 -17.397 -15.1811 -14.7234 -16.0452 -9.024 -8.630501 -5.9155 -7.0775 -7.7705 -10.586 -10.468 -9.705501 
-12.6279 -11.5905 -12.5183 -15.9606 -13.6175 -17.9385 -19.7075 -19.9405 -16.8244 -16.0452 -10.543 -10.4855 -8.767 -7.7705 -11.714 -12.232 -13.04 
-2.925 -5.039 -1.4985 -3.5645 -4.6055 -3.458 -1.4985 -3.535 -5.6655 0 -1.756 -4.7925 -3.277 -1.756 -4.331 -1.7695 -3.335 -2.985 -4.6195 -2.264 -3.277 
-7.1235 -5.621 -4.884 -7.265 -5.8385 -4.063 -4.8385 -9.4995 -5.6655 -1.756 -6.509 -7.455 -4.6335 -5.5245 -4.925 -4.5005 -5.911 -6.571 -6.769 -5.0915 
-7.786 -8.9525 -8.3915 -9.372001 -6.3175 -7.559501 -11.0352 -9.4995 -6.7545 -6.509 -8.027 -9.005 -8.0155 -5.998 -7.0645 -6.2275 -9.767 -8.757501 -9.3955 
-11.3755 -12.6036 -10.533 -9.9075 -10.1635 -13.8922 -11.0352 -10.288 -12.1501 -8.027 -10.5975 -12.4816 -8.320001 -8.535 -8.677501 -10.0375 -11.9519 -11.5714 
-15.0266 -14.7451 -11.0685 -13.7443 -16.6172 -13.8922 -11.8237 -15.8744 -13.6681 -10.5975 -14.0741 -12.7861 -11.002 -10.382 -12.7191 -12.2224 -14.7658 
-3.3425 -1.4985 -5.764 -3.458 -1.4985 -3.535 -5.6655 -1.7565 -6.557 0 -2.925 -5.9375 -3.277 -1.756 -3.321 -3.9535 -4.9295 -3.277 -3.882 0 
-4.0125 -7.057501 -6.7965 -4.063 -4.8385 -9.4995 -6.4855 -7.653501 -6.557 -2.925 -7.277501 -8.231501 -4.6335 -4.0055 -6.5175 -9.029501 -8.311001 -6.391 -3.882 
-9.788501 -8.660001 -6.860001 -7.559501 -11.0352 -10.3597 -13.2805 -7.653501 -9.631001 -7.277501 -10.298 -9.087001 -6.1495 -7.018 -12.1345 -12.6322 -11.7902 -6.391 
-11.391 -9.194 -11.7833 -13.8922 -11.8954 -17.1547 -13.2805 -9.964001 -14.2987 -10.298 -11.3915 -10.7605 -9.273001 -12.697 -15.7372 -16.1114 -11.7902 
-11.925 -14.2825 -18.116 -14.7524 -18.6904 -17.1547 -15.591 -15.0779 -17.3192 -11.3915 -13.065 -13.884 -15.0226 -16.2997 -19.2164 -16.1114 
-1.4985 -4.602 -3.458 -3.948 -3.535 -5.6655 -2.7415 -5.686 -2.3345 -7.746 -1.756 -2.925 -3.7905 -4.377 -2.3345 -3.3425 -1.4985 -5.043 -1.756 -5.4235 -3.7075 0 
-5.2275 -6.187 -6.358 -6.927 -9.4995 -8.290501 -7.602 -7.574501 -9.261001 -8.973001 -4.2585 -5.532001 -7.4905 -7.47 -4.554 -4.0125 -6.411 -6.2675 -6.154 -8.311501 -3.7075 
-7.1155 -9.797501 -9.838501 -13.4249 -12.1647 -13.2942 -8.078501 -15.1028 -10.276 -11.5703 -7.0865 -8.937 -9.547501 -9.231001 -5.1225 -8.6715 -7.460501 -6.6315 -8.3275 -8.311501 
-10.728 -13.3246 -16.3364 -16.0901 -17.1684 -13.7707 -16.5804 -16.1178 -12.8733 -14.3983 -10.223 -11.0608 -11.3745 -9.938001 -9.922501 -8.7945 -7.716001 -8.342 -8.3275 
-14.2551 -19.8225 -19.0016 -21.0938 -17.6449 -22.2726 -17.5954 -18.7151 -15.7013 -17.5348 -12.3468 -12.8878 -12.0815 -14.8914 -10.107 -8.832001 -8.707001 -8.342 
