-4.759 
n/a 
n/a 
n/a 
n/a 
-4.759 
n/a 
n/a 
n/a 
n/a 
-4.759 
n/a 
n/a 
n/a 
n/a 
-4.759 
n/a 
n/a 
n/a 
n/a 
-10.1015 -4.261 -1.934 -4.1855 -3.291 -3.5965 -4.4895 -3.0835 -3.1335 -1.934 -3.188 -3.0835 -2.915 -2.5045 -4.0765 -2.3345 -3.135 -3.213 
-14.4939 -7.0255 -5.408 -8.2095 -7.1825 -8.4755 -7.4545 -6.288 -5.0035 -5.387 -6.215 -6.6085 -5.22 -6.582001 -5.283 -5.141 -5.864 
-17.2584 -10.7547 -9.481001 -12.5438 -12.4763 -11.7113 -11.339 -8.0935 -7.614 -8.5695 -10.2485 -9.323501 -10.368 -8.356001 -8.9835 -8.735001 
-20.9876 -14.8277 -13.9231 -17.8376 -15.7121 -15.5958 -13.1445 -11.0638 -12.3977 -12.8894 -13.1785 -14.8985 -12.142 -12.6839 -12.8579 
-25.0606 -19.2698 -19.2169 -21.0734 -19.5966 -17.4013 -16.1148 -15.8475 -16.7176 -15.8194 -18.7535 -16.6725 -16.4699 -16.5583 
-1.934 -4.1855 0 -6.277 -4.156 -3.2955 -1.8085 -3.291 -3.5965 -2.5045 -1.4985 -3.0835 -3.188 -2.229 -3.16 -3.1335 -1.756 -1.7695 -5.623 -4.1865 -5.487 -1.756 -2.9805 -3.2955 -1.7695 -3.5185 -3.0835 -3.188 -2.229 -2.911 -3.974 -3.6245 0 
-5.408 -4.1855 -6.277 -6.327001 -8.168501 -5.239 -5.8365 -7.1825 -6.2215 -3.583 -3.535 -5.7815 -4.279 -5.03 -5.268 -4.562 -3.963 -6.117001 -10.533 -9.4515 -6.9145 -4.3555 -5.6305 -3.9425 -4.134 -7.317 -5.7815 -4.279 -5.6145 -4.4735 -7.917 -3.6245 
-5.408 -9.515 -6.327001 -9.555501 -9.2165 -9.358 -8.934 -9.587 -7.389501 -5.4425 -6.070001 -8.015 -7.9145 -7.7475 -7.0335 -6.2255 -8.134 -11.2702 -15.798 -11.4216 -10.092 -7.0105 -6.028 -5.655 -7.941 -10.5035 -8.015 -8.6295 -6.587 -8.744 -7.917 
-10.1675 -9.521 -9.555501 -10.196 -10.2935 -10.2875 -11.6111 -11.0296 -9.381001 -8.244 -8.414001 -11.9667 -11.1996 -9.444 -8.9525 -11.1993 -13.4158 -16.5352 -17.7681 -14.5991 -12.747 -7.452001 -8.466001 -9.8105 -11.5623 -12.737 -12.6817 -9.292001 -10.4265 -8.744 
-10.188 -13.0653 -10.196 -10.307 -10.333 -13.4006 -13.0537 -13.0211 -12.4225 -10.1075 -12.1043 -15.2518 -12.8961 -11.3818 -14.2445 -16.4811 -18.6808 -18.5053 -20.9456 -17.2541 -13.1885 -10.1292 -12.9123 -13.5108 -13.7958 -17.4037 -13.3442 -13.4901 -10.4265 
-10.638 -4.156 -1.934 -12.16972 -3.2955 -1.934 -1.8085 -3.5965 -2.0935 -1.4985 -2.9645 -1.7565 -8.773001 -2.0935 -1.4985 -3.188 -4.0005 -3.5965 -3.3255 -3.188 -3.0785 
-15.249 -6.619 -15.11012 -15.46522 -4.2285 -3.2685 -4.795 -5.7415 -2.9725 -4.1725 -3.7825 -11.0145 -11.1397 -2.9725 -3.619 -4.969501 -7.6705 -6.884501 -6.974501 -6.878 
-17.712 -20.22492 -18.40562 -16.39822 -5.518 -5.9715 -6.672 -6.881001 -5.389 -4.2115 -13.6929 -13.3812 -12.0187 -5.522 -5.421 -8.4685 -11.5529 -11.3105 -10.4595 
-31.31792 -23.52042 -19.33862 -17.68772 -8.152 -8.197001 -7.8245 -9.449 -5.438 -14.1599 -16.0596 -14.2602 -14.5682 -6.907001 -9.0175 -12.4719 -15.9789 -14.7955 
-34.61342 -24.45342 -20.62812 -20.32172 -9.8395 -9.8625 -10.0605 -9.504001 -15.7642 -16.5266 -16.9386 -16.8097 -15.9532 -10.7025 -13.0857 -16.8979 -19.4639 
-10.1015 -4.156 -1.934 -4.1855 -3.158 -3.291 -2.9645 -1.4985 -3.5965 -3.1335 -1.756 -3.473 -3.1335 -4.1865 -3.432 -4.7615 0 
-14.3889 -6.619 -5.408 -7.298 -6.509 -6.9175 -3.957 -4.746 -6.3585 -4.562 -5.3385 -5.8755 -7.0465 -7.476501 -9.012001 -4.7615 
-16.8519 -9.5305 -9.370001 -11.5116 -10.341 -7.347 -6.743501 -8.2165 -7.5115 -7.562 -7.6425 -10.7025 -11.0699 -14.0643 -9.012001 
-19.7634 -13.5477 -13.7186 -15.3436 -10.437 -10.7495 -10.13 -9.542001 -9.264501 -9.2095 -12.9693 -14.7259 -17.6577 -14.0643 
-23.7806 -17.8963 -17.5506 -15.4396 -14.7063 -14.136 -11.6653 -11.18 -11.6682 -14.7277 -16.9927 -21.3137 -17.6577 
