-4.759 
n/a 
n/a 
n/a 
n/a 
-4.759 
n/a 
n/a 
n/a 
n/a 
-4.759 
n/a 
n/a 
n/a 
n/a 
-4.759 
n/a 
n/a 
n/a 
n/a 
-3.488 -2.1715 0 -3.4185 -1.7565 -1.4985 -4.628 -5.939 -4.698 0 -7.79 -7.561501 0 -6.2035 
-4.8925 -2.1715 -3.4185 -4.2475 -2.4195 -6.298 -5.9615 -7.812 -4.698 -7.79 -11.1415 -7.561501 -6.2035 
-4.8925 -5.9285 -4.2475 -4.482 -7.0315 -6.5895 -7.8475 -7.812 -13.6874 -11.1415 -11.1415 -14.4822 
-9.801001 -7.328501 -4.482 -8.748 -7.463 -8.7805 -7.8475 -17.7056 -17.0389 -11.1415 -18.0622 
-11.4506 -7.574 -8.748 -9.411 -9.411 -8.7805 -18.0005 -21.0571 -17.0389 -18.0622 
-10.6255 -3.4185 -1.7565 -4.698 -12.16972 -9.866501 -4.675 
-14.044 -4.2475 -5.5475 -18.06712 -22.03622 -14.6659 
-14.873 -6.2225 -19.26882 -27.93362 -26.83562 
-16.848 -20.32942 -29.13532 -32.73302 
-30.95492 -30.19592 -33.93472 
-3.488 -2.1715 0 -4.628 -5.939 -4.698 -3.4185 -9.229501 -10.8475 -4.493 0 
-4.8925 -2.1715 -4.628 -5.9615 -7.812 -7.448001 -13.5798 -20.3386 -15.3405 -4.493 
-4.8925 -7.223001 -5.9615 -7.8475 -11.4662 -18.0233 -24.6889 -24.8316 -15.3405 
-10.4265 -8.678501 -7.8475 -11.7611 -22.0415 -29.1324 -29.1819 -24.8316 
-12.1414 -10.8883 -11.7611 -22.3364 -33.1506 -33.6254 -29.1819 
-6.899 -4.698 -3.4185 -3.741 -9.229501 -7.691 -2.7415 -5.452 -2.264 -3.488 -2.1715 0 
-10.523 -7.448001 -6.871 -13.5395 -17.1821 -12.2103 -6.344501 -7.115 -4.790501 -4.8925 -2.1715 
-13.6872 -9.871501 -16.9461 -21.4921 -21.7014 -15.8133 -7.6715 -9.106 -5.945001 -4.8925 
-16.1107 -20.1376 -24.8987 -26.0114 -25.3044 -17.1403 -9.318001 -10.4765 -5.945001 
-26.3768 -28.0902 -29.418 -29.6144 -26.6314 -18.7868 -10.61 -10.4765 
