-4.759 
n/a 
n/a 
n/a 
n/a 
-4.759 
n/a 
n/a 
n/a 
n/a 
-4.759 
n/a 
n/a 
n/a 
n/a 
-4.759 
n/a 
n/a 
n/a 
n/a 
-3.9725 -2.7415 -4.3465 -1.4985 -3.8685 0 -1.756 -3.539 -1.7565 -1.4985 -3.8685 -2.9805 -4.567 -4.3285 -2.9805 -3.5095 -2.4265 -2.7415 -1.8085 -3.9725 -5.054 -5.678 0 
-6.3315 -8.283 -5.372001 -4.916 -3.8685 -1.756 -5.2365 -5.9005 -2.4195 -4.916 -6.193501 -7.2435 -10.4855 -7.511001 -6.650001 -4.561 -3.681 -3.891 -5.728 -9.0905 -11.622 -5.678 
-12.2202 -9.369 -9.005001 -4.916 -5.283 -5.2365 -7.813001 -6.441 -6.1095 -7.1165 -11.0589 -13.3958 -13.668 -11.4291 -7.933001 -5.627 -4.626 -7.33 -11.3974 -15.9661 -11.622 
-13.3062 -13.0892 -9.005001 -6.338 -9.330501 -7.813001 -8.4245 -10.4425 -8.203501 -12.2967 -17.2112 -16.5783 -17.5861 -12.7121 -8.752501 -6.449 -8.8575 -13.3782 -18.273 -15.9661 
-17.0264 -13.0892 -10.7335 -10.8411 -12.0882 -8.4245 -12.5462 -12.5365 -13.5719 -18.449 -20.3937 -20.4964 -18.8691 -13.5316 -9.462501 -10.389 -15.1017 -20.2538 -18.273 
-2.9805 -3.013 -5.651501 -3.465 -4.2675 -2.9995 -3.8685 -2.8965 -3.1575 -3.9725 0 -3.074 -2.9805 -3.013 -5.651501 -3.465 -3.429 -2.9995 -4.4195 -5.084 -3.1575 -3.9725 
-6.143001 -8.529501 -6.666501 -8.1635 -5.864 -6.374001 -7.1965 -4.4055 -7.726 -3.9725 -3.074 -6.274 -6.143001 -8.529501 -6.666501 -7.443 -5.6005 -7.413 -10.4265 -7.1315 -7.726 
-10.5455 -11.3185 -13.5295 -10.5975 -8.9785 -8.252501 -7.571 -8.657001 -7.726 -7.311501 -6.274 -10.085 -10.5455 -11.3185 -12.7815 -9.7335 -9.379001 -14.0182 -12.474 -12.0738 
-11.7905 -14.5032 -16.3303 -13.712 -11.1328 -8.266001 -12.3115 -8.657001 -11.4396 -10.051 -10.085 -14.2719 -11.7905 -13.7552 -14.3882 -13.5914 -16.18 -16.0657 -17.4163 
-17.037 -17.4346 -19.4448 -15.8663 -11.1463 -13.1953 -12.3115 -12.5216 -14.1791 -13.862 -14.2719 -15.9019 -16.289 -15.4925 -18.2461 -20.3924 -18.2275 -21.008 
-6.727 -6.6445 0 -1.4985 -6.864 -3.9725 -1.756 -3.091 -4.284 -9.9495 -4.101 -1.7695 -6.5875 -1.756 -5.7735 -5.816 -1.7695 -1.4985 -4.3055 -7.472 -2.0935 -1.8085 -4.2245 -1.4985 -4.3055 -4.559 -2.985 -4.0165 
-11.117 -6.6445 -1.4985 -7.8675 -8.775001 -5.5515 -4.2995 -4.863 -10.821 -14.1569 -4.6905 -8.519 -8.2725 -7.0835 -10.2085 -6.828001 -2.7955 -4.7155 -8.9455 -10.2185 -3.385 -5.6165 -6.136 -4.7155 -8.616 -7.486 -6.771501 
-11.117 -9.213 -7.8675 -9.040001 -10.2135 -6.8275 -5.423 -11.7116 -15.0284 -14.7464 -10.411 -10.096 -13.9296 -11.6033 -11.4321 -7.527 -5.935 -10.259 -11.8132 -11.6856 -7.399001 -7.693 -8.0865 -8.720001 -10.4345 -8.910501 
-13.6855 -15.6186 -9.040001 -10.5435 -11.4895 -8.053 -12.3656 -15.919 -15.6179 -20.4669 -11.988 -15.7531 -18.4494 -12.8269 -12.1311 -7.974501 -11.8743 -13.1267 -13.2803 -15.6996 -9.120501 -9.93 -12.7282 -10.5975 -12.1134 
-20.0911 -16.7911 -10.5435 -11.8195 -12.715 -15.4716 -16.573 -16.5085 -21.3384 -22.0439 -17.6451 -20.2729 -19.673 -13.5259 -12.5786 -14.6004 -14.742 -14.5938 -17.2943 -17.4211 -10.661 -14.5717 -14.6057 -12.2764 
-2.9805 -4.331 -3.098 -3.9725 -3.275 0 -4.567 -3.465 -1.7695 -2.8965 -2.9995 -3.275 0 -2.9805 -4.2425 -2.3085 -3.0805 -1.4985 -2.871 -1.7565 -1.4985 -4.2245 -1.934 -2.3615 -3.3975 
-5.2865 -7.417001 -7.5485 -7.559 -3.275 -4.567 -5.8745 -3.665 -4.497 -6.742001 -6.426 -3.275 -2.9805 -7.245 -5.978001 -3.7245 -4.9235 -4.316 -3.5385 -2.4195 -5.2345 -4.929 -3.539 -5.857 
-8.387501 -12.5247 -11.6248 -7.559 -8.117001 -5.8745 -6.0965 -8.453501 -8.453501 -10.8001 -6.426 -6.5155 -7.245 -8.432 -7.35 -5.3305 -6.747 -6.0265 -3.7675 -6.667001 -5.733 -6.9285 -6.856 
-13.6076 -16.601 -11.6248 -12.9852 -10.2435 -6.0965 -10.66 -12.7502 -13.6264 -10.8001 -9.3795 -11.2376 -8.432 -10.034 -8.333501 -6.838 -8.982 -6.275001 -8.3655 -8.087001 -7.7605 -10.434 
-17.6839 -16.601 -17.051 -15.1117 -10.4275 -10.66 -14.9567 -17.9231 -13.6264 -13.7536 -14.2608 -12.4246 -10.034 -11.1853 -10.06 -9.0575 -9.3005 -9.614501 -9.1125 -9.543501 -11.3982 
