-4.759 
n/a 
n/a 
n/a 
n/a 
-4.759 
n/a 
n/a 
n/a 
n/a 
-4.759 
n/a 
n/a 
n/a 
n/a 
-4.759 
n/a 
n/a 
n/a 
n/a 
-3.488 
n/a 
n/a 
n/a 
n/a 
-3.488 0 -4.721 -7.190001 -3.193 
-3.488 -4.721 -8.616 -9.156 
-9.5625 -8.616 -9.592501 
-13.5587 -9.592501 
-14.5352 
-3.488 0 -4.721 -7.190001 -3.193 
-3.488 -4.721 -8.616 -9.156 
-9.5625 -8.616 -9.592501 
-13.5587 -9.592501 
-14.5352 
-12.699 -12.16972 0 0 
-26.80972 -12.16972 0 
-26.80972 -12.16972 
-26.80972 
n/a 
