-4.759 
n/a 
n/a 
n/a 
n/a 
-4.759 
n/a 
n/a 
n/a 
n/a 
-4.759 
n/a 
n/a 
n/a 
n/a 
-4.759 
n/a 
n/a 
n/a 
n/a 
-8.214001 -3.8665 -3.098 0 -3.511 -1.7695 -3.5015 -3.013 -5.651501 -3.3785 -4.668 -2.9805 -2.229 -8.110001 0 
-12.6393 -8.396 -3.098 -3.511 -5.814 -5.0115 -6.9125 -8.529501 -6.4335 -8.6085 -7.900001 -4.2145 -9.1815 -7.3215 
-17.1688 -8.396 -7.5395 -5.814 -10.1725 -9.2775 -12.2438 -11.0545 -12.7715 -12.4255 -9.336 -13.263 -9.4305 
-17.1688 -13.2351 -9.953501 -10.1725 -14.4385 -14.4908 -13.3643 -13.4773 -17.2493 -13.8615 -18.7013 -13.387 
-22.0079 -15.6491 -14.4238 -14.4385 -19.6518 -15.6113 -18.0704 -18.0841 -18.6853 -23.2268 -18.7013 
-4.567 -3.3785 -8.214001 -3.399 -3.098 0 -1.756 -3.091 -3.8245 -3.5015 
-5.4965 -12.8323 -12.1718 -5.2825 -3.098 -1.756 -4.2995 -6.620501 -7.5075 
-15.4129 -16.7901 -14.0553 -5.2825 -4.558 -4.2995 -8.4125 -9.5515 
-19.3707 -18.6736 -14.0553 -6.886001 -7.3405 -8.4125 -11.3369 
-21.2542 -18.6736 -15.6588 -9.126 -11.7547 -11.3369 
-12.16972 -4.244 -3.098 0 -3.3155 -2.9805 -3.511 -3.152 -2.6165 -3.9205 
-16.41372 -6.818001 -3.098 -3.3155 -4.773 -7.128 -7.844501 -4.6295 -5.491 
-18.98772 -6.818001 -6.3495 -4.773 -8.811501 -10.7175 -9.5375 -7.1455 
-18.98772 -10.038 -8.5065 -8.811501 -12.7678 -12.4105 -12.1061 
-22.20772 -12.2678 -12.9272 -12.7678 -14.4608 -14.9791 
-8.214001 -3.511 -1.7695 -2.664 -2.9705 -3.5015 -3.013 -5.651501 -3.3785 -2.3335 -2.4265 0 
-12.2838 -5.814 -4.185 -7.52 -6.943 -6.9125 -8.529501 -6.4335 -4.4185 -3.913 -2.4265 
-14.5868 -8.232 -9.719501 -11.6545 -9.022501 -12.2438 -11.0545 -9.637501 -5.809 -3.913 
-17.0048 -14.3871 -13.909 -13.734 -15.1356 -13.3643 -10.2105 -10.706 -5.809 
-23.1599 -18.5766 -15.9885 -19.8471 -16.2561 -14.9218 -11.6916 -10.7386 
