-4.759 
n/a 
n/a 
n/a 
n/a 
-4.759 
n/a 
n/a 
n/a 
n/a 
-4.759 
n/a 
n/a 
n/a 
n/a 
-4.759 
n/a 
n/a 
n/a 
n/a 
-3.106 0 -2.9965 -4.1395 0 -5.957 -12.16972 
-3.106 -2.9965 -7.410501 -4.1395 -5.957 -18.74132 
-5.2235 -7.410501 -7.410501 -10.7335 -18.74132 
-10.0925 -7.410501 -14.6173 -23.51782 
-10.0925 -14.6173 -27.40162 
-3.106 -1.7695 -2.9965 -3.9355 -9.529501 -12.16972 
-5.533 -4.8865 -7.052 -14.4745 -23.35932 
-6.838 -7.992001 -18.4644 -27.62682 
-10.4877 -19.8466 -31.24872 
-22.3423 -32.63092 
-2.925 -1.7695 -3.106 -1.7695 -2.9965 -1.934 -16.18422 0 
-3.71 -5.384501 -5.533 -4.8865 -5.558001 -18.97792 -17.08842 
-6.372 -6.6155 -6.838 -7.015501 -23.52682 -19.44732 
-8.918 -8.827001 -8.674001 -25.42232 -23.60422 
-9.6075 -10.6735 -27.24762 -25.42232 
-2.5195 -3.106 -1.7695 -2.9965 -4.1395 0 -10.0555 -12.16972 
-5.831 -5.533 -4.8865 -7.410501 -4.1395 -10.0555 -22.34702 
-6.6005 -6.838 -8.469501 -7.410501 -15.3524 -22.34702 
-7.932 -10.9652 -8.469501 -19.2362 -27.64392 
-12.4644 -10.9652 -20.544 -31.52772 
