-4.759 
n/a 
n/a 
n/a 
n/a 
-4.759 
n/a 
n/a 
n/a 
n/a 
-4.759 
n/a 
n/a 
n/a 
n/a 
-4.759 
n/a 
n/a 
n/a 
n/a 
-2.0935 -12.16972 -3.8905 0 -1.756 -12.16972 -4.231 -5.131 -1.7695 -3.8905 -4.4385 -3.757 -6.648 0 
-15.25422 -16.06022 -3.8905 -1.756 -14.93432 -16.40072 -9.688501 -6.5025 -5.2345 -8.969501 -8.555 -11.117 -6.648 
-19.14472 -16.06022 -5.1525 -14.93432 -19.16532 -21.85822 -11.3318 -7.8505 -10.7311 -13.437 -16.0116 -11.117 
-19.14472 -17.32222 -19.56782 -19.16532 -24.62282 -23.50152 -12.6798 -13.5225 -15.1986 -20.8936 -16.0116 
-20.40672 -31.73754 -23.79882 -24.62282 -26.26612 -24.84952 -18.3518 -17.99 -22.6552 -20.8936 
-1.4985 -4.3055 -1.7565 -6.648 -2.186 -3.8905 -1.7565 -12.16972 -1.756 -4.72 -1.7565 -1.4985 -10.2775 -10.738 
-4.7155 -5.182 -7.935 -8.585501 -5.779 -5.3285 -14.87542 -13.92572 -6.9095 -6.2485 -2.4195 -12.8698 -10.8025 
-5.647 -12.7911 -9.906 -12.7723 -7.822001 -19.75462 -16.63142 -19.07922 -8.5715 -6.5775 -13.9816 -13.3948 
-13.7123 -14.7621 -13.9936 -14.8153 -22.48832 -21.51062 -21.78492 -20.74122 -8.967 -18.9956 -14.5066 
-15.6833 -18.8497 -16.0366 -29.48162 -24.24432 -26.66412 -23.44692 -21.13672 -21.0805 -19.5206 
-6.648 -2.5045 -6.089 -2.5045 -12.16972 -3.8905 0 -1.756 -3.8385 -3.1385 -1.7565 -12.16972 0 
-9.4405 -9.076 -8.231501 -15.36922 -16.06022 -3.8905 -1.756 -5.517 -7.7915 -4.861 -14.87542 -12.16972 
-16.3418 -11.4033 -21.57662 -19.25972 -16.06022 -5.1525 -5.517 -9.925 -9.6225 -18.85052 -14.87542 
-18.6691 -24.74842 -25.46712 -19.25972 -17.32222 -9.767 -9.925 -11.8202 -23.83762 -18.85052 
-32.01422 -28.63892 -25.46712 -20.52172 -21.93672 -14.3614 -11.8202 -26.03532 -23.83762 
-4.3055 -6.341 -2.186 -1.4985 -2.871 -1.7565 -1.4985 -3.8905 -1.7565 -12.16972 -1.756 -4.2245 -1.7565 -12.16972 -3.288 -3.1385 0 
-7.64 -8.0935 -3.339 -4.316 -3.5385 -2.4195 -5.518001 -5.3285 -14.87542 -13.92572 -6.158 -5.277 -14.87542 -15.45772 -6.632 -3.1385 
-8.926001 -8.8545 -5.399 -6.0265 -3.7675 -6.504001 -5.892 -19.75462 -16.63142 -18.32772 -6.699 -19.31612 -18.16342 -18.80172 -6.632 
-9.568501 -11.0381 -6.9585 -6.275001 -8.709001 -7.066 -20.54152 -21.51062 -21.03342 -18.86872 -20.98072 -22.60412 -21.50742 -18.80172 
-11.8045 -12.5976 -7.1485 -10.411 -9.779 -22.06392 -22.29752 -25.91262 -21.57442 -33.15044 -24.26872 -25.94812 -21.50742 
