-4.759 
n/a 
n/a 
n/a 
n/a 
-4.759 
n/a 
n/a 
n/a 
n/a 
-4.759 
n/a 
n/a 
n/a 
n/a 
-4.759 
n/a 
n/a 
n/a 
n/a 
-2.925 -3.074 -2.674 -1.4985 -4.4385 -1.7565 -5.1435 -3.115 -1.4985 -3.6135 -5.16 0 
-4.9325 -4.7925 -3.998 -5.331 -5.339001 -7.0055 -8.0345 -4.2305 -4.4525 -8.0875 -5.16 
-5.899 -5.7445 -7.886001 -5.516 -10.5135 -9.391001 -9.788501 -6.8595 -8.539001 -8.0875 
-6.916 -9.3835 -8.0635 -10.6465 -12.899 -11.3778 -12.5159 -11.0866 -8.539001 
-10.6368 -9.399501 -13.316 -13.032 -14.8858 -14.1052 -16.743 -11.0866 
-3.1495 -2.4945 -3.074 -4.877 -3.115 -2.3335 -1.7565 -2.664 -5.1435 -3.115 -1.4985 -3.6135 -5.16 0 
-4.459 -4.4205 -7.6695 -6.3015 -4.7415 -4.618 -3.9595 -6.828 -8.0345 -4.2305 -4.4525 -8.0875 -5.16 
-6.6695 -8.502001 -9.1265 -8.4995 -6.186501 -6.3525 -7.8795 -8.883 -9.788501 -6.8595 -8.539001 -8.0875 
-10.5325 -9.995501 -11.4215 -9.012501 -7.709001 -9.779 -9.93 -10.75 -12.5159 -11.0866 -8.539001 
-12.026 -12.0503 -11.9345 -10.4185 -10.057 -11.8295 -12.0238 -13.4774 -16.743 -11.0866 
-3.1495 -3.6245 -2.4945 -5.1435 -4.877 -3.183 -3.115 -1.4985 -3.6135 -5.16 0 
-6.764501 -6.2285 -8.904501 -8.253 -8.231501 -4.7715 -4.2305 -4.4525 -8.0875 -5.16 
-7.648 -12.7813 -10.348 -12.0923 -8.425501 -5.5815 -6.8595 -8.539001 -8.0875 
-14.3162 -14.2248 -14.1873 -12.2863 -9.1265 -7.875 -11.0866 -8.539001 
-15.7597 -18.0641 -14.3813 -12.9873 -11.4644 -12.4961 -11.0866 
-3.45 -2.4945 -3.074 -1.934 -5.1435 -4.577 -3.115 -2.3335 -1.7565 -1.4985 -3.6135 -2.871 
-5.354 -4.4205 -4.93 -7.555 -10.2595 -7.7775 -4.7415 -4.618 -2.4195 -4.4525 -6.0005 
-7.759 -6.3525 -10.8776 -13.148 -13.46 -8.979501 -6.186501 -5.106 -5.553 -6.3405 
-9.389501 -12.9083 -16.4706 -16.3485 -14.662 -9.156501 -6.793 -8.3555 -8.101001 
-16.2677 -18.5013 -19.6711 -17.5505 -14.839 -9.8205 -9.7735 -10.749 
