-4.759 
n/a 
n/a 
n/a 
n/a 
-4.759 
n/a 
n/a 
n/a 
n/a 
-4.759 
n/a 
n/a 
n/a 
n/a 
-4.759 
n/a 
n/a 
n/a 
n/a 
-1.934 -3.458 -2.743 -4.6335 -4.761 0 -3.994 -1.7695 -2.3335 -6.2695 0 -4.704 -3.8375 0 -1.756 -5.8405 -4.567 -2.4945 -4.0925 -2.5045 -3.177 -2.6615 -2.356 -3.824 0 
-5.207 -6.267 -7.2195 -9.8675 -4.761 -3.994 -4.3645 -4.46 -9.3315 -6.2695 -4.704 -6.3775 -3.8375 -1.756 -7.898 -6.172501 -7.391001 -5.8835 -6.0465 -6.273 -4.5905 -5.875501 -6.7005 -3.824 
-8.317 -11.9469 -12.9921 -9.8675 -9.451 -4.3645 -6.4695 -12.0414 -9.3315 -10.8415 -6.3775 -6.3775 -5.325 -7.898 -8.1625 -8.870501 -11.02 -7.686501 -10.5975 -7.908 -7.643001 -9.634501 -6.7005 
-13.7403 -17.7195 -12.9921 -14.6161 -10.2081 -6.4695 -14.3973 -12.0414 -14.2931 -12.515 -6.3775 -7.9635 -12.4328 -8.1625 -9.8275 -12.6593 -12.823 -12.2603 -12.2325 -11.3823 -11.636 -9.634501 
-19.5129 -17.7195 -17.7407 -15.3732 -12.3131 -14.3973 -14.3973 -17.003 -15.9666 -12.515 -7.9635 -15.5147 -12.6973 -9.8275 -13.7227 -14.4623 -17.3968 -13.8953 -15.7068 -15.3753 -11.636 
-1.4985 -3.5025 -4.111 -2.743 -3.5965 -3.664 -1.7695 -5.2975 -3.447 -2.8965 -4.161 -1.756 -2.915 -4.118 -4.236 0 -5.068 -2.925 -2.882 -2.489 -3.936 -1.4985 -3.188 -2.925 -2.882 -3.013 -2.3615 -2.356 -2.4285 -3.4945 -1.4985 -2.9645 -1.7565 -3.441 0 -4.5505 -1.756 -4.7945 -4.0865 0 -4.4985 -2.264 -1.4985 -3.8585 0 
-4.16 -7.226 -8.39 -6.8475 -6.045 -4.894 -6.4645 -7.241 -6.540501 -6.304 -5.212 -4.516 -7.6265 -7.8695 -4.236 -5.068 -6.0295 -4.7805 -3.631 -7.288501 -4.263 -3.619 -5.952001 -4.7805 -5.7665 -4.620501 -5.309 -5.029 -5.257501 -4.538 -4.1725 -3.7825 -5.19 -3.441 -4.5505 -5.7375 -6.318 -7.316501 -4.0865 -4.4985 -4.548 -2.9195 -4.796 -3.8585 
-7.269501 -11.7602 -12.7175 -10.264 -7.4875 -7.993001 -7.504 -9.696 -8.604 -7.585501 -7.339 -9.079 -10.209 -7.8695 -8.573 -6.0295 -7.09 -5.384 -8.507501 -7.532001 -5.761 -6.146 -7.933001 -7.0135 -7.145 -6.2485 -8.302 -5.322001 -6.265501 -6.1235 -4.2115 -7.1465 -5.19 -6.629001 -5.7375 -7.118001 -8.295 -7.316501 -8.2255 -4.548 -4.8395 -6.615 -4.796 
-11.8441 -16.0877 -16.134 -11.7065 -10.403 -8.6695 -9.9445 -10.0435 -9.989501 -10.0605 -10.2135 -10.249 -10.209 -10.238 -9.107 -7.09 -7.2425 -9.6085 -8.869 -9.4125 -8.145 -8.1555 -10.051 -8.1265 -8.692 -8.720501 -8.370501 -6.3885 -7.252501 -6.127501 -7.7605 -7.1465 -8.705501 -7.891001 -7.118001 -9.0565 -8.295 -10.19 -8.2475 -4.8395 -7.497 -6.615 
-16.1716 -19.5042 -17.5765 -14.622 -10.525 -10.5125 -10.193 -10.583 -10.6025 -10.2285 -10.2565 -10.249 -10.262 -10.2465 -9.335501 -7.2425 -9.884501 -9.702001 -9.927501 -10.244 -10.006 -10.11 -10.2095 -9.102 -9.344001 -8.767 -8.913501 -7.259501 -7.254001 -10.0275 -7.7605 -10.2185 -9.354 -9.186501 -9.0565 -9.0565 -10.2325 -10.202 -8.3745 -7.497 -7.497 
-3.9485 -2.356 -2.743 -5.181 -7.846 0 -4.704 -3.8375 -1.756 -5.8405 -4.567 -3.074 -3.9285 -2.9705 -3.882 -2.6615 -5.181 -1.934 -1.4985 -3.254 0 
-4.311 -5.844 -6.565001 -14.2006 -7.846 -4.704 -6.3775 -5.325 -7.898 -6.172501 -7.755501 -5.4325 -7.017 -5.271501 -7.309501 -8.762501 -6.606 -2.6125 -4.4095 -3.254 
-7.954 -9.9645 -16.7332 -14.2006 -13.4292 -6.3775 -7.9635 -12.4328 -8.1625 -9.458 -9.948001 -7.934 -8.830001 -9.38 -14.0461 -10.0715 -7.462 -5.405 -4.4095 
-12.4037 -20.1957 -16.7332 -19.7838 -15.1027 -7.9635 -15.5147 -12.6973 -10.442 -11.7619 -12.7167 -9.8405 -13.0607 -16.1534 -15.3551 -11.3369 -10.7551 -5.405 
-22.6349 -20.1957 -22.3164 -21.4573 -16.6887 -15.5147 -15.7792 -14.9768 -13.8683 -14.5306 -14.6232 -14.2408 -19.8341 -17.4624 -16.6205 -14.63 -10.7551 
-1.934 -3.458 0 -1.8085 -3.254 -1.7565 -2.6615 -4.367 -2.743 -4.389 -4.761 0 -1.756 -7.846 0 -5.6385 -3.8375 -1.756 -5.8405 -4.567 -2.7415 -4.0925 0 
-5.207 -3.458 -1.8085 -4.394 -4.0065 -4.645 -7.837001 -7.5525 -7.629 -8.6 -4.761 -1.756 -9.491501 -7.846 -5.6385 -9.911 -5.325 -7.898 -6.172501 -6.7335 -5.328 -4.0925 
-5.207 -5.0385 -4.394 -4.528 -6.884 -9.67 -10.674 -12.7289 -12.6086 -8.6 -5.87 -9.491501 -9.491501 -14.3637 -9.911 -11.3985 -12.4328 -8.1625 -8.287001 -9.808001 -5.328 
-7.0725 -8.418 -4.528 -7.133501 -12.5026 -12.6108 -15.8504 -17.7085 -12.6086 -9.6855 -14.4931 -9.491501 -16.4838 -18.6362 -11.3985 -18.5063 -12.6973 -10.5842 -11.6299 -9.808001 
-9.7705 -8.8125 -7.133501 -12.9377 -15.4434 -17.7872 -20.83 -17.7085 -13.6941 -18.5236 -14.4931 -16.4838 -20.7563 -20.1237 -18.5063 -18.7708 -15.119 -13.9271 -11.6299 
