-4.759 
n/a 
n/a 
n/a 
n/a 
-4.759 
n/a 
n/a 
n/a 
n/a 
-4.759 
n/a 
n/a 
n/a 
n/a 
-4.759 
n/a 
n/a 
n/a 
n/a 
-7.539001 -3.2795 -3.685 0 -3.5855 -3.3825 -2.4945 -4.8385 -4.157 
-11.046 -7.724501 -3.685 -3.5855 -7.475 -6.1665 -6.405001 -7.382 
-15.491 -7.724501 -7.9455 -7.475 -10.5745 -9.611 -9.5845 
-15.491 -12.3958 -12.4214 -10.5745 -14.019 -12.8535 
-20.1623 -16.8717 -15.5209 -14.019 -17.2615 
-1.4985 -6.9985 -4.8225 -3.5645 -4.8135 -1.934 -3.8905 0 -4.293 -1.934 -3.5855 -3.6445 -2.8645 -4.3905 -4.3065 -1.934 -3.8905 0 
-7.8605 -10.4035 -8.5865 -7.5885 -5.637001 -5.5175 -3.8905 -4.293 -5.2995 -5.251 -7.118501 -6.252501 -6.193501 -9.569 -5.317501 -5.5175 -3.8905 
-11.6945 -14.1675 -13.0029 -8.153 -6.758501 -5.5175 -10.0925 -5.2995 -8.775001 -8.906501 -9.536 -10.0475 -11.855 -9.836 -6.522 -5.5175 
-15.4585 -18.5839 -13.5674 -8.819 -6.758501 -12.2711 -11.3912 -8.775001 -12.7211 -11.661 -13.3198 -15.746 -12.122 -11.1247 -6.522 
-19.8749 -19.1484 -14.2334 -8.819 -13.5639 -13.5698 -14.8667 -12.7211 -15.4756 -15.4448 -19.0183 -16.013 -13.4107 -11.1247 
-1.934 -10.7895 -4.7615 -3.8905 -4.385 0 -3.5855 -4.293 0 -3.0365 -3.074 -4.2065 -2.264 -1.4985 -4.963 0 
-13.7299 -15.551 -9.872001 -8.9855 -4.385 -3.5855 -8.252001 -4.293 -3.0365 -5.981501 -6.3415 -7.5925 -2.9195 -7.0065 -4.963 
-18.4914 -20.6615 -15.183 -8.9855 -8.698501 -8.252001 -8.252001 -7.2465 -5.981501 -9.9658 -9.786501 -8.267 -8.85 -7.0065 
-23.6019 -25.9725 -15.183 -13.5 -13.6092 -8.252001 -11.9575 -9.734 -9.9658 -13.4108 -10.556 -14.6775 -8.85 
-28.9129 -25.9725 -19.6975 -18.4107 -13.6092 -11.9575 -14.445 -13.7183 -13.4108 -14.1803 -16.9665 -14.6775 
-6.9985 -3.6825 -4.339 -1.7565 -2.847 -3.8905 0 -4.2665 -3.898 0 -3.6245 -3.4915 -4.3065 -2.356 -4.2655 -2.186 -4.911 0 
-9.712 -8.416 -4.919 -5.161 -6.383 -3.8905 -4.2665 -8.515 -3.898 -3.6245 -4.5955 -6.98 -6.405001 -6.7185 -5.908 -6.506001 -4.911 
-14.4455 -9.923 -8.1615 -8.407001 -6.383 -9.0655 -8.515 -8.515 -7.91 -4.5955 -7.5785 -9.7775 -9.812501 -8.2755 -10.865 -6.506001 
-15.9525 -13.2927 -10.3815 -8.407001 -12.0186 -13.4988 -8.515 -12.753 -8.7995 -7.5785 -11.046 -13.3922 -11.4359 -13.5467 -10.865 
-19.3222 -15.5127 -10.3815 -14.3766 -16.4519 -13.4988 -12.753 -13.6425 -11.9921 -11.046 -14.6607 -15.0156 -16.7071 -13.5467 
