-4.759 
n/a 
n/a 
n/a 
n/a 
-4.759 
n/a 
n/a 
n/a 
n/a 
-4.759 
n/a 
n/a 
n/a 
n/a 
-4.759 
n/a 
n/a 
n/a 
n/a 
-3.321 -3.6825 -3.8385 -3.74 -1.7695 -4.6675 -3.634 -3.9875 -1.4985 -6.557 
-7.933 -7.4575 -7.988501 -4.2995 -5.024 -8.353001 -7.399 -4.653 -8.1955 
-12.1694 -12.2255 -8.500501 -6.785 -8.643001 -12.4236 -8.455 -11.9078 
-16.9374 -12.7375 -11.253 -10.304 -12.908 -13.4796 -15.9768 
-17.4494 -15.49 -14.772 -14.799 -13.964 -21.0014 
-3.819 -1.4985 -4.2605 -2.7415 -5.0575 -2.3345 -1.4985 -3.6825 -3.8385 0 -2.4265 -4.3465 -4.28 -1.7695 -4.77 -1.4985 -3.6885 -3.9875 -1.4985 -3.1715 -3.518 0 
-4.844 -4.8355 -6.2085 -6.7035 -6.2865 -3.233 -4.87 -7.4575 -3.8385 -2.4265 -5.9305 -7.249001 -5.027 -5.084 -5.460001 -4.307 -7.725 -4.653 -3.994 -5.772 -3.518 
-7.955 -6.5085 -9.623501 -7.61 -6.748001 -6.4 -8.814501 -7.4575 -6.333 -5.9305 -9.335001 -7.612501 -9.3915 -5.6505 -6.317 -8.7015 -8.325 -7.6505 -6.1475 -5.772 
-9.087001 -9.972 -10.4965 -8.205501 -10.071 -10.6335 -8.814501 -10.57 -9.525001 -9.335001 -9.759001 -12.0236 -9.862 -6.476 -11.1911 -9.23 -11.4731 -10.174 -6.1475 
-12.8629 -10.754 -11.092 -11.5931 -14.4697 -10.6335 -12.3308 -13.762 -13.0707 -9.759001 -14.2299 -12.4941 -11.1167 -11.4897 -11.7196 -12.3781 -13.9966 -10.174 
-3.383 -3.3235 -3.9205 -2.5045 -1.8085 -3.8385 -1.7565 -4.085 -4.4015 -3.8685 -1.7695 -3.8805 -3.2295 -6.557 0 
-4.9265 -4.8795 -4.449 -3.3625 -5.535 -4.716001 -5.935 -7.8755 -9.345 -5.2975 -5.6375 -5.9075 -9.354 -6.557 
-6.643 -6.502501 -5.658 -6.9115 -6.558001 -10.3545 -9.9355 -13.4426 -10.906 -8.906501 -6.411 -12.6286 -9.354 
-8.356501 -7.039001 -9.302001 -7.711 -12.6385 -14.355 -15.638 -15.0036 -14.515 -9.38 -13.4109 -12.6286 
-8.877501 -11.1444 -10.2007 -14.2313 -16.639 -20.0575 -17.199 -18.6126 -14.9885 -16.6797 -13.4109 
-9.048 -3.3785 -1.4985 -3.6825 0 -4.1685 -1.7695 -6.557 -1.7565 -3.2895 0 
-12.7689 -4.6165 -4.87 -3.6825 -4.1685 -5.6415 -8.764 -9.941 -5.3275 -3.2895 
-14.0069 -8.127001 -4.87 -7.5165 -5.6415 -13.7676 -12.263 -13.6056 -5.3275 
-17.5174 -8.127001 -7.936501 -8.751 -13.7676 -17.2666 -15.9276 -13.6056 
-17.5174 -11.5863 -10.0398 -18.3149 -17.2666 -20.9312 -15.9276 
