-4.759 
n/a 
n/a 
n/a 
n/a 
-4.759 
n/a 
n/a 
n/a 
n/a 
-4.759 
n/a 
n/a 
n/a 
n/a 
-4.759 
n/a 
n/a 
n/a 
n/a 
-7.2935 -4.0555 -3.222 -1.4985 -3.97 -4.288 -5.1845 -2.186 -2.857 -4.394 0 -2.857 -5.308 0 -2.857 -4.3285 0 -3.2615 -6.118001 -5.5785 -5.6565 -2.3345 -1.4985 -6.144 -7.2935 -3.5745 -5.651501 -3.264 -4.011 -2.7455 -2.4265 
-10.523 -5.5095 -3.7835 -5.476 -8.627501 -9.9755 -7.895 -4.678 -5.6695 -4.394 -2.857 -7.9515 -5.308 -2.857 -6.749001 -4.3285 -3.2615 -9.045501 -6.894001 -12.1064 -7.5255 -3.233 -6.455 -10.7335 -10.172 -9.1155 -8.543501 -6.2775 -5.394 -4.4735 
-11.977 -6.1605 -7.764 -10.6875 -14.6048 -12.8482 -9.431001 -7.66 -5.6695 -7.2275 -7.9515 -7.9515 -7.901 -6.749001 -6.749001 -7.2045 -9.045501 -9.221001 -14.0833 -13.9754 -8.938001 -7.5045 -11.3053 -13.612 -14.3061 -11.733 -10.0095 -6.687 -6.1605 
-12.628 -10.9214 -13.3551 -16.6648 -17.4775 -14.3842 -13.3048 -7.66 -7.5725 -12.8266 -7.9515 -10.2235 -12.2302 -6.749001 -9.440001 -13.4955 -9.221001 -16.6765 -15.9523 -15.3879 -13.3967 -12.5772 -14.1838 -17.7461 -17.4091 -12.03 -11.092 -7.8345 
-17.3889 -16.5125 -19.3324 -19.5375 -19.0135 -18.258 -13.3048 -9.491501 -13.474 -12.8266 -10.2235 -14.5527 -12.2302 -9.440001 -15.8214 -13.671 -16.6765 -18.5455 -17.3648 -19.8466 -18.4694 -15.4557 -18.3179 -20.8491 -18.8531 -12.578 -11.905 
-8.863001 -12.16972 -4.712 0 -5.308 0 -4.3285 0 -3.97 -1.7695 -3.3435 -1.7695 -5.34 -7.2935 0 -6.118001 -5.5785 -5.452 -1.7695 -4.7995 -1.4985 -1.7695 -4.644 0 
-21.61672 -16.88172 -4.712 -5.308 -5.308 -4.3285 -4.3285 -3.97 -6.354 -5.041 -5.263 -5.955 -13.9415 -7.2935 -6.118001 -6.894001 -10.013 -7.837 -5.770501 -5.6675 -5.666 -6.942 -4.644 
-26.32872 -16.88172 -11.1686 -5.308 -10.8025 -4.3285 -8.207001 -6.354 -9.2675 -7.26 -9.818001 -15.0797 -13.9415 -14.0739 -6.894001 -11.9899 -12.7776 -12.3052 -6.570001 -10.504 -11.1717 -6.942 
-26.32872 -23.33832 -11.1686 -10.8025 -10.8025 -8.207001 -11.079 -9.2675 -11.7465 -11.9576 -19.1063 -15.0797 -20.7219 -14.8499 -11.9899 -14.7545 -17.2458 -13.1047 -11.6299 -16.0097 -11.1717 
-32.78532 -23.33832 -16.6631 -10.8025 -14.681 -11.079 -13.9925 -11.7465 -16.4441 -21.2459 -19.1063 -21.8601 -21.4979 -19.9458 -14.7545 -19.2227 -18.0453 -18.1646 -17.1356 -16.0097 
-8.35 -1.756 -5.1845 -2.4945 -2.857 -4.394 -2.3335 -3.264 -2.3345 -8.0625 0 -3.034 -1.4985 -3.8405 -1.7565 -6.118001 -5.5785 -7.1195 0 
-10.4675 -7.0085 -8.622001 -5.2795 -5.6695 -6.5275 -5.231501 -5.9415 -10.304 -8.0625 -3.034 -3.947 -4.7545 -4.563 -7.869501 -6.894001 -9.9725 -7.1195 
-15.72 -9.0305 -11.6556 -8.509501 -7.652 -9.3955 -8.352 -14.3982 -10.304 -11.8307 -3.947 -7.5295 -5.365 -11.8372 -8.163501 -10.1945 -9.9725 
-17.742 -12.3009 -14.8856 -10.8888 -10.0065 -12.769 -16.9909 -14.3982 -14.2434 -12.7437 -7.5295 -7.826 -12.6824 -12.1312 -11.6426 -10.1945 
-21.0124 -15.5309 -17.2649 -13.2433 -13.683 -21.4079 -16.9909 -18.3376 -15.1564 -16.3262 -7.826 -15.3506 -12.9764 -15.6103 -11.6426 
-3.958 -3.091 -3.6825 -2.3345 -4.4615 -5.1845 -2.5045 -3.091 -4.394 0 -5.86 0 -4.3285 0 -3.851 -1.7695 -4.675 -1.7565 -7.7235 -5.5785 0 -3.091 -3.8465 -4.305 -2.5045 -2.9805 -3.354 -3.4045 -3.898 -1.934 -6.262 -3.8275 
-6.7885 -6.0125 -6.168 -6.6035 -9.26 -8.093 -5.2025 -6.074 -4.394 -5.86 -5.86 -4.3285 -4.3285 -3.851 -4.0015 -6.1425 -5.6675 -10.19 -9.6425 -5.5785 -3.091 -7.1205 -7.617001 -5.892 -4.5965 -6.074 -5.7055 -7.6955 -5.5505 -8.4075 -10.0965 
-9.856501 -8.283501 -9.894 -12.3248 -12.2639 -11.201 -8.327001 -6.074 -11.3036 -5.86 -9.956 -4.3285 -8.1675 -4.0015 -9.133 -8.1785 -15.0184 -12.2834 -9.6425 -7.9855 -7.1205 -11.5106 -9.356501 -8.9335 -7.642 -7.474 -8.394 -9.587501 -12.7336 -12.6322 
-12.1075 -10.7495 -15.7097 -15.3287 -15.3719 -14.3255 -8.327001 -13.6302 -11.3036 -9.956 -9.956 -8.1675 -8.359501 -9.133 -10.5135 -17.751 -17.1118 -12.2834 -12.1697 -12.8054 -11.5106 -13.2501 -12.4348 -12.1628 -8.695001 -10.7713 -10.6465 -17.0042 -16.9583 
-14.5735 -16.5652 -18.7136 -18.4367 -18.4964 -14.3255 -16.1956 -13.6302 -15.3996 -9.956 -13.9984 -8.359501 -13.702 -10.5135 -20.086 -19.8444 -17.1118 -14.8106 -16.9896 -17.1955 -13.2501 -16.3284 -15.6641 -13.2158 -12.2205 -13.0238 -18.0632 -21.2289 
