-4.759 
n/a 
n/a 
n/a 
n/a 
-4.759 
n/a 
n/a 
n/a 
n/a 
-4.759 
n/a 
n/a 
n/a 
n/a 
-4.759 
n/a 
n/a 
n/a 
n/a 
-2.925 -2.674 -3.2495 -4.042 -4.743 -9.2565 
-4.1785 -5.2115 -7.446 -8.081501 -13.4 
-6.582 -9.518001 -10.13 -17.7681 
-11.3041 -10.689 -20.1792 
-12.4751 -21.334 
-2.925 -2.674 -3.2495 -4.1285 -3.736 -3.5725 -3.1015 0 -12.16972 0 -3.002 0 
-4.1785 -5.2115 -6.7585 -7.107 -7.4345 -7.305 -3.1015 -12.16972 -12.16972 -3.002 -3.002 
-6.582 -8.474501 -10.634 -10.6095 -11.5822 -7.305 -16.18302 -12.16972 -15.17172 -3.002 
-10.2925 -12.6076 -14.1365 -14.7572 -11.5822 -20.78132 -16.18302 -15.17172 -15.17172 
-14.4256 -16.1101 -18.2842 -14.7572 -25.05852 -20.78132 -19.18502 -15.17172 
-3.1015 -2.9805 -2.8645 -2.341 -4.004 0 -8.4995 0 -3.0015 
-5.3885 -4.3245 -5.8695 -6.391 -4.004 -8.4995 -8.4995 -3.0015 
-6.5035 -7.605 -9.154 -6.391 -13.4727 -8.4995 -11.7542 
-9.2845 -10.018 -9.154 -16.4925 -13.4727 -11.7542 
-11.7245 -10.018 -19.4403 -16.4925 -16.7274 
-2.3615 -3.6765 -2.7415 -5.09 -2.356 -3.2495 -4.042 -3.928 0 -8.4995 0 -3.0015 0 
-5.1605 -5.9515 -6.722 -6.0015 -4.909 -7.446 -6.919001 -3.928 -8.4995 -8.4995 -3.0015 -3.0015 
-7.1065 -10.0065 -7.118001 -7.7555 -9.303 -10.9318 -6.919001 -13.6071 -8.4995 -11.7542 -3.0015 
-11.3569 -10.707 -8.639501 -12.7735 -13.1176 -10.9318 -17.4117 -13.6071 -11.7542 -11.7542 
-12.0574 -12.2285 -13.7973 -16.5881 -13.1176 -21.4245 -17.4117 -16.8618 -11.7542 
