-4.759 
n/a 
n/a 
n/a 
n/a 
-4.759 
n/a 
n/a 
n/a 
n/a 
-4.759 
n/a 
n/a 
n/a 
n/a 
-4.759 
n/a 
n/a 
n/a 
n/a 
-1.934 -2.3615 -1.7695 -7.654 -1.7565 -1.4985 -12.16972 -2.5195 -4.5845 -1.4985 -3.6505 -1.7565 -6.668 
-3.539 -4.6245 -9.404501 -8.9505 -2.4195 -14.76202 -14.68922 -6.9255 -6.7685 -4.8975 -5.3655 -9.344001 
-7.36 -11.6455 -9.4255 -9.5535 -15.87382 -17.28152 -19.09522 -9.139 -10.6875 -5.772501 -13.4976 
-14.9006 -13.6319 -10.5626 -23.31072 -18.39332 -21.68752 -21.30872 -13.226 -11.5625 -14.1518 
-16.6932 -14.3184 -24.36232 -25.83022 -22.79932 -23.90102 -25.39572 -14.101 -19.9418 
-2.3615 -3.9285 -1.4985 -9.3505 0 -3.6505 -2.3335 -2.7415 -5.456 -1.7695 -4.544 -12.16972 0 -2.5195 -1.4985 -5.3745 -4.891 
-6.2775 -5.3205 -11.9428 -9.3505 -3.6505 -5.733 -4.2725 -6.868 -6.316 -5.208 -17.76752 -12.16972 -2.5195 -3.1695 -6.2355 -7.061501 
-7.0805 -15.9068 -11.9428 -13.1422 -5.733 -7.4045 -8.377001 -7.7335 -9.31 -18.94852 -17.76752 -14.68922 -3.1695 -8.323501 -7.2945 
-17.811 -15.9068 -15.7345 -15.2247 -7.4045 -11.8426 -9.029501 -10.5535 -23.39512 -18.94852 -20.28702 -15.33922 -8.323501 -9.064 
-17.811 -19.6985 -17.817 -16.8962 -11.8426 -12.4951 -12.2389 -24.63862 -23.39512 -21.46802 -20.93702 -20.49322 -9.064 
-3.9225 -2.3615 -1.4985 -8.528501 -4.0695 -1.7695 -4.544 -1.4985 -3.1715 -1.7565 -12.16972 -2.5195 -1.4985 -5.3745 -4.891 -2.186 -3.074 -3.9285 
-6.6375 -4.913 -11.1208 -13.3532 -5.325 -5.208 -5.429 -3.994 -4.207 -14.87542 -14.68922 -3.1695 -6.2355 -7.061501 -7.785 -4.156 -5.4325 
-9.372001 -14.7359 -15.9455 -14.6087 -8.160501 -5.7495 -8.160001 -4.613 -18.47412 -17.39492 -15.33922 -8.323501 -7.2945 -10.2755 -9.7705 -6.32 
-19.3333 -19.5606 -17.201 -17.4442 -8.769 -8.397 -8.451 -19.22812 -20.99362 -18.04492 -20.49322 -9.064 -10.442 -12.261 -12.0345 
-24.158 -20.8161 -20.0365 -18.0527 -11.5595 -8.7165 -23.60392 -21.74762 -21.64362 -23.19892 -21.23372 -12.2843 -12.4275 -14.525 
-6.7815 -4.1985 -3.9595 -1.7695 -4.544 -12.16972 -5.74 -2.9705 -2.186 -1.934 -3.4985 -1.7565 -4.891 -3.074 -3.9285 0 
-11.8186 -6.3725 -4.9785 -5.208 -17.76752 -17.90972 -8.55 -3.89 -4.0835 -5.409 -4.622 -7.001501 -8.042001 -5.4325 -3.9285 
-13.9926 -6.8025 -8.6715 -18.94852 -23.50752 -20.71972 -9.227501 -5.7145 -6.712 -5.915 -10.5325 -10.204 -10.7345 -5.4325 
-14.4226 -10.575 -22.61122 -24.68852 -26.31752 -21.39722 -10.7035 -8.7735 -7.145 -12.5583 -13.735 -12.8965 -10.7345 
-18.1951 -24.51472 -28.35122 -27.49852 -26.99502 -22.87322 -13.7625 -8.9075 -14.1051 -15.7608 -16.4275 -12.8965 
