-4.759 
n/a 
n/a 
n/a 
n/a 
-4.759 
n/a 
n/a 
n/a 
n/a 
-4.759 
n/a 
n/a 
n/a 
n/a 
-4.759 
n/a 
n/a 
n/a 
n/a 
-2.3615 -3.6215 -3.7965 -4.071 -3.0435 0 -7.418 -3.0435 0 -3.883 0 -4.0045 0 -2.915 -3.433 0 -3.4005 0 -3.6485 0 -3.7695 -1.756 -4.455 -4.415 0 
-6.204 -7.486501 -7.7135 -6.1565 -3.0435 -7.634 -11.138 -3.0435 -3.883 -3.883 -4.0045 -4.0045 -2.915 -4.682 -3.433 -3.4005 -3.4005 -3.6485 -3.6485 -3.7695 -5.33 -5.4095 -8.290001 -4.415 
-8.89 -11.6341 -9.998001 -6.1565 -11.8492 -9.899 -9.899 -5.0225 -3.883 -7.0935 -4.0045 -6.563001 -4.682 -4.682 -5.821 -3.4005 -6.464 -3.6485 -8.2355 -5.33 -8.17 -9.124001 -8.290001 
-13.1084 -13.9186 -9.998001 -15.0829 -14.1142 -9.899 -12.4766 -5.0225 -7.0935 -7.0935 -6.563001 -7.81 -4.682 -7.104001 -5.821 -6.464 -6.464 -8.2355 -9.283501 -8.17 -12.2949 -9.124001 
-15.3929 -13.9186 -19.0294 -17.3479 -14.1142 -12.4766 -12.4766 -7.3855 -7.0935 -11.1398 -7.81 -7.81 -7.104001 -7.104001 -9.416 -6.464 -10.3545 -9.283501 -12.3353 -12.2949 -12.2949 
-2.3615 -3.6215 -3.5795 -3.0435 0 -3.399 -3.673 0 -3.961 0 -5.394 0 -3.433 0 -3.4005 0 -4.0215 0 -3.9155 -1.756 -4.455 
-6.204 -7.5365 -6.7025 -3.0435 -3.399 -3.735 -3.673 -3.961 -3.961 -5.394 -5.394 -3.433 -3.433 -3.4005 -3.4005 -4.0215 -4.0215 -3.9155 -4.9395 -5.4095 
-8.692 -10.4425 -6.7025 -6.145 -3.735 -3.735 -6.95 -3.961 -9.816501 -5.394 -7.442 -3.433 -5.821 -3.4005 -7.251 -4.0215 -8.785501 -4.9395 -10.0645 
-11.5906 -10.4425 -10.1465 -6.1675 -3.735 -6.974 -6.95 -9.816501 -9.816501 -7.442 -7.442 -5.821 -5.821 -7.251 -7.251 -8.785501 -10.01 -10.0645 
-11.5906 -13.8865 -10.192 -6.1675 -6.974 -6.974 -13.3459 -9.816501 -12.1607 -7.442 -10.7175 -5.821 -9.9355 -7.251 -12.9474 -10.01 -15.3598 
-1.934 -2.3615 -3.6215 -3.5005 -2.3615 -3.962 -3.6905 0 -7.602 -3.0435 0 -3.883 0 -2.915 -3.433 0 -3.4005 0 -3.6485 0 -4.298 -1.756 -5.083 
-3.539 -6.204 -6.9465 -6.138 -5.599 -6.906 -3.6905 -7.0835 -9.882501 -3.0435 -3.883 -3.883 -2.915 -4.682 -3.433 -3.4005 -3.4005 -3.6485 -3.6485 -4.298 -5.6265 -6.537 
-6.8495 -9.2405 -10.0675 -9.892 -9.409 -6.906 -10.341 -9.562 -9.562 -5.0225 -3.883 -6.2625 -4.682 -4.682 -5.821 -3.4005 -6.464 -3.6485 -8.3765 -5.6265 -7.611001 
-9.6925 -12.3819 -13.8215 -13.702 -9.409 -14.1623 -12.8195 -9.562 -12.9044 -5.0225 -6.2625 -7.0605 -4.682 -7.104001 -5.821 -6.464 -6.464 -8.3765 -9.948501 -7.611001 
-12.8197 -16.1359 -17.6315 -13.702 -17.0117 -16.6408 -12.8195 -12.9044 -12.9044 -8.471001 -7.0605 -7.0605 -7.104001 -7.104001 -9.416 -6.464 -12.1036 -9.948501 -12.1772 
-2.3615 -8.4195 -3.325 -3.535 -3.0435 0 -3.399 -3.673 0 -3.579 0 -4.0045 0 -2.915 0 -6.9245 0 -3.6485 0 -3.4765 -1.756 -7.370501 -3.6215 
-10.862 -11.9133 -7.4005 -4.3085 -3.0435 -3.399 -3.735 -3.673 -3.579 -3.579 -4.0045 -4.0045 -2.915 -2.915 -6.9245 -6.9245 -3.6485 -3.6485 -3.4765 -4.9025 -9.55 -11.6608 
-14.3558 -15.9888 -8.0485 -4.3085 -6.145 -3.735 -3.735 -6.9645 -3.579 -7.7075 -4.0045 -6.563001 -2.915 -10.2335 -6.9245 -10.4425 -3.6485 -8.7305 -4.9025 -13.8181 -13.9181 
-18.4313 -16.6368 -8.0485 -8.037001 -6.1675 -3.735 -7.063 -6.9645 -7.7075 -7.7075 -6.563001 -6.563001 -10.2335 -10.2335 -10.4425 -10.4425 -8.7305 -10.341 -13.8181 -18.1862 
-19.0793 -16.6368 -12.2474 -8.0815 -6.1675 -7.063 -7.063 -11.9852 -7.7075 -10.6266 -6.563001 -14.6967 -10.2335 -13.9043 -10.4425 -15.5245 -10.341 -19.2566 -18.1862 
