-4.759 
n/a 
n/a 
n/a 
n/a 
-4.759 
n/a 
n/a 
n/a 
n/a 
-4.759 
n/a 
n/a 
n/a 
n/a 
-4.759 
n/a 
n/a 
n/a 
n/a 
-2.6165 -3.098 -1.934 -4.088 -1.756 -2.8965 -3.8225 -4.6555 -3.959 -3.922 -1.4985 -3.8735 -2.186 -1.4985 -4.6365 -2.871 0 
-4.283 -4.746 -4.9295 -5.1965 -3.751 -6.1905 -7.008 -8.9445 -9.749001 -5.7895 -6.3715 -5.949 -3.339 -5.3015 -7.3665 -2.871 
-5.722 -8.01 -5.539001 -7.678 -6.864 -9.883 -9.324 -14.8787 -11.7829 -11.1915 -9.14 -7.04 -6.138 -7.4285 -7.3665 
-8.509501 -8.8265 -8.3325 -10.0575 -10.702 -10.557 -15.3202 -16.9126 -17.1849 -13.96 -10.287 -9.697001 -8.415501 -7.4285 
-9.4285 -11.4244 -10.243 -15.0635 -11.376 -16.5532 -17.3541 -22.3146 -19.9534 -15.107 -12.944 -11.9905 -8.415501 
-2.3615 0 -2.6165 -3.098 -1.934 -3.8735 0 -2.872 -3.074 -3.8225 -4.6555 -3.959 -4.1485 -4.088 -5.2925 0 -2.186 -3.383 -4.5735 -5.209 
-2.3615 -2.6165 -4.283 -4.746 -4.885 -3.8735 -2.872 -4.5415 -6.6225 -7.008 -8.9445 -6.998 -8.567 -9.725 -5.2925 -2.186 -4.438 -6.971 -9.679001 
-5.456 -4.283 -5.722 -7.524 -4.885 -6.6815 -4.5415 -8.4505 -10.422 -9.324 -12.1277 -9.333 -14.5724 -9.725 -7.591 -4.438 -8.143001 -12.4785 
-6.515 -5.722 -8.032001 -7.524 -7.074501 -7.8395 -8.4505 -12.2892 -12.738 -12.5692 -14.4627 -15.6156 -14.5724 -12.0801 -9.602 -8.143001 -14.2411 
-8.3525 -8.032001 -8.032001 -8.09 -8.219501 -12.1141 -12.2892 -14.6052 -15.9832 -14.9042 -20.7453 -15.6156 -16.9275 -14.0911 -13.4712 -14.2411 
-2.3615 -2.186 -3.4915 -4.2045 -3.321 -4.0745 -1.7695 -3.8735 0 -4.088 -2.4285 -2.8965 -3.8225 -4.6555 -3.4635 -7.488 0 
-3.5005 -4.979 -6.442 -7.156 -6.648 -5.6095 -5.578001 -3.8735 -4.088 -6.649 -4.1405 -6.1905 -7.008 -9.580001 -8.040501 -5.354 
-6.486 -7.531 -8.225 -11.1156 -8.274 -9.436501 -5.578001 -7.8595 -6.649 -8.797501 -7.4175 -9.883 -12.2941 -16.2363 -10.044 
-9.786 -9.370001 -12.5554 -12.7416 -12.4822 -9.436501 -9.6 -10.1505 -8.797501 -10.504 -11.5428 -15.4391 -18.9504 -16.2363 
-11.7404 -13.8748 -14.1814 -16.9498 -12.4822 -13.8747 -12.0056 -12.299 -10.504 -15.8603 -17.0989 -22.0954 -18.9504 
-2.3615 -2.186 -3.383 -3.5905 -4.0745 -3.321 -3.8735 -1.756 -4.834 -3.959 0 
-3.5005 -4.438 -5.951 -8.449 -7.591001 -7.9475 -5.3865 -6.3405 -7.1085 -3.959 
-5.7175 -7.0905 -10.702 -12.5311 -13.0435 -9.0325 -10.1465 -8.497001 -7.1085 
-8.3255 -12.4875 -14.7841 -17.9836 -14.1285 -14.0107 -12.303 -8.497001 
-13.9543 -16.5696 -20.2366 -19.0686 -19.1067 -16.1672 -12.303 
