-4.759 
n/a 
n/a 
n/a 
n/a 
-4.759 
n/a 
n/a 
n/a 
n/a 
-4.759 
n/a 
n/a 
n/a 
n/a 
-4.759 
n/a 
n/a 
n/a 
n/a 
-2.9325 -4.526 -6.5 -4.1585 -3.595 -2.7415 -1.4985 -3.7745 -4.1835 -1.7565 -8.252501 -6.178 0 
-7.863501 -12.014 -10.1595 -5.3685 -6.068501 -4.063 -4.753 -6.5915 -5.512 -9.2425 -9.246501 -6.178 
-15.9931 -15.6735 -11.3695 -7.981501 -7.172501 -7.3005 -6.95 -6.997 -13.5348 -10.123 -9.246501 
-19.6526 -16.8835 -13.9825 -9.0775 -10.0855 -8.493 -7.187 -15.3258 -14.4153 -10.123 
-20.8626 -19.4965 -15.0785 -12.1139 -11.7366 -8.649 -15.629 -16.2063 -14.4153 
-6.178 -2.186 -2.5685 -2.7455 -2.9325 -3.5745 -6.5 -3.8905 -6.519001 -1.7695 -3.974 -1.8085 -5.044 -3.4625 -1.934 -1.4985 -4.7515 
-7.828501 -4.79 -4.593 -4.736 -5.2895 -11.3439 -11.1647 -9.989 -8.490001 -5.805 -5.931 -5.522 -6.7305 -4.565 -2.6125 -4.8385 
-10.341 -5.3725 -6.528 -7.93 -13.5561 -16.0086 -17.2632 -12.2088 -12.7533 -6.6715 -9.607 -7.099 -7.081 -5.1315 -5.792 
-10.505 -7.432 -9.302 -16.3022 -18.2208 -22.1071 -19.483 -16.4721 -13.6198 -10.3885 -10.704 -7.378 -7.7305 -8.713 
-12.5645 -10.168 -17.8954 -20.9669 -24.3193 -24.3269 -23.7463 -17.3386 -17.3368 -11.4855 -10.983 -7.9515 -11.5934 
-1.4985 -3.89 -2.9705 -6.5 -4.6505 -1.7695 -3.595 -2.186 -9.223001 
-5.176001 -6.199 -10.703 -10.802 -5.9595 -4.741 -5.940001 -12.6194 
-7.151 -14.5621 -15.005 -12.111 -7.038 -6.862 -16.6638 
-15.6593 -18.8641 -16.314 -13.1895 -9.76 -17.675 
-19.9613 -20.1731 -17.3925 -15.9115 -20.858 
-7.093 -2.186 -2.5685 -2.7455 -2.9325 -6.5 -3.264 -1.7695 -3.2345 -6.519001 -4.0585 0 
-9.400001 -4.79 -4.593 -4.736 -10.411 -8.982 -4.908 -3.713 -10.2755 -10.533 -4.0585 
-12.1368 -5.3725 -6.528 -12.3939 -13.1624 -10.8876 -7.266 -10.4675 -14.2895 -10.533 
-12.7193 -7.432 -14.6605 -15.1453 -15.068 -13.2456 -14.2845 -14.4815 -14.2895 
-14.7788 -15.4293 -17.4119 -17.0509 -17.426 -20.2641 -18.2985 -14.4815 
