-4.759 
n/a 
n/a 
n/a 
n/a 
-4.759 
n/a 
n/a 
n/a 
n/a 
-4.759 
n/a 
n/a 
n/a 
n/a 
-4.759 
n/a 
n/a 
n/a 
n/a 
-3.647 -2.186 -1.8085 -3.3035 -1.934 -3.676 0 
-5.8125 -3.164 -4.7455 -5.076 -4.7985 -3.676 
-7.0085 -5.9835 -6.3875 -6.868 -4.7985 
-8.726001 -7.837 -9.2425 -6.868 
-10.341 -10.533 -9.2425 
-4.426 -1.7565 -1.4985 -3.6115 -4.7285 -4.1555 -3.147 -3.647 -2.186 -2.871 -1.7565 -1.4985 -3.9235 -1.934 -3.676 0 
-5.47 -2.4195 -4.081 -6.5495 -8.4455 -5.77 -6.981 -5.8125 -4.247 -3.5385 -2.4195 -4.814 -5.6035 -4.7985 -3.676 
-5.9535 -5.180501 -6.670501 -9.978001 -9.541501 -9.665001 -8.6835 -8.01 -4.411 -3.7675 -5.5365 -6.545001 -7.8225 -4.7985 
-8.462501 -7.797 -10.054 -11.0524 -13.4365 -11.3845 -10.6595 -8.1185 -4.5655 -7.8365 -7.0865 -10.1185 -7.8225 
-10.2375 -11.2985 -11.1648 -14.9474 -15.156 -13.3605 -10.71 -8.22 -8.806 -10.5411 -10.5425 -10.1185 
-3.647 -2.186 -2.664 -3.9235 -1.934 -3.676 
-5.8125 -3.8555 -5.1895 -5.6035 -4.7985 
-7.5835 -6.304501 -6.859 -7.8225 
-10.757 -7.826 -10.114 
-12.2785 -11.582 
-3.647 -2.186 -1.8085 -3.3035 -4.06 -2.5045 -3.676 0 
-5.8125 -3.164 -4.7455 -6.426001 -4.933001 -6.6695 -3.676 
-7.0085 -5.9835 -7.4205 -7.7035 -9.729501 -6.6695 
-8.726001 -8.27 -9.276 -12.5224 -9.729501 
-11.4857 -9.969501 -14.2419 -12.5224 
