-4.759 
n/a 
n/a 
n/a 
n/a 
-4.759 
n/a 
n/a 
n/a 
n/a 
-4.759 
n/a 
n/a 
n/a 
n/a 
-4.759 
n/a 
n/a 
n/a 
n/a 
-3.769 0 -1.7565 -4.2085 -3.1385 -2.4945 -3.982 -5.328 0 
-3.769 -1.7565 -5.6585 -7.394501 -4.588 -7.244 -8.679501 -5.328 
-5.3885 -5.6585 -9.054001 -8.863001 -9.9585 -12.2245 -8.679501 
-8.823001 -9.054001 -10.622 -14.3735 -14.939 -12.2245 
-12.5247 -10.622 -16.1325 -19.354 -14.939 
-2.645 -3.1575 -3.769 0 -1.7565 -3.691 -2.229 -4.02 -2.186 -5.541 -2.3345 -3.982 -3.582 -4.0455 -3.1385 0 
-3.72 -5.7255 -3.769 -1.7565 -4.930501 -5.0855 -5.6085 -5.624 -6.6355 -6.3795 -6.319 -7.6305 -6.9355 -7.335501 -3.1385 
-5.877501 -5.7255 -5.3885 -4.930501 -5.879001 -7.684501 -6.5565 -9.583 -6.9795 -10.322 -10.159 -9.9135 -9.727501 -7.335501 
-5.877501 -6.566 -8.979501 -5.879001 -7.968501 -8.580501 -10.8441 -9.8295 -11.0376 -14.162 -12.442 -12.8667 -9.727501 
-6.6525 -9.932501 -9.017 -7.968501 -9.101001 -13.1477 -11.0906 -13.9046 -14.8776 -16.445 -15.3952 -12.8667 
-1.934 -3.691 -2.645 -3.1575 -3.769 0 -3.1385 -3.152 -3.982 -5.328 0 
-4.8225 -6.631001 -3.72 -5.7255 -3.769 -3.1385 -5.219 -7.828501 -8.679501 -5.328 
-7.498001 -7.787 -5.877501 -5.7255 -6.7925 -5.219 -10.543 -12.7986 -8.679501 
-8.214001 -9.6385 -5.877501 -7.887001 -8.247001 -10.543 -15.5131 -12.7986 
-10.034 -9.6385 -7.903 -8.995001 -14.121 -15.5131 -15.5131 
-6.816 -2.229 -3.1385 -3.769 0 -3.6765 -3.7515 -3.982 -3.582 -4.2655 -4.9225 0 
-9.321501 -5.7405 -7.6895 -3.769 -3.6765 -6.833 -8.495001 -7.6305 -7.423501 -9.398001 -4.9225 
-12.948 -10.66 -7.6895 -8.070001 -6.833 -12.6113 -12.2599 -12.0498 -13.9092 -9.398001 
-17.8675 -10.66 -12.4039 -11.3217 -12.6113 -16.3762 -16.6792 -18.5355 -13.9092 
-17.8675 -15.3744 -15.6556 -17.1 -16.3762 -20.7955 -23.1649 -18.5355 
