-4.759 
n/a 
n/a 
n/a 
n/a 
-4.759 
n/a 
n/a 
n/a 
n/a 
-4.759 
n/a 
n/a 
n/a 
n/a 
-4.759 
n/a 
n/a 
n/a 
n/a 
-2.3585 -2.7765 -3.5395 -2.3615 -2.5045 -1.4985 -4.437 -2.3335 -6.022501 -3.594 -3.768 -4.064 -1.7565 -3.183 -3.594 -5.961 0 
-3.3835 -5.495501 -5.356 -5.006 -3.583 -5.5225 -6.1975 -8.052 -10.784 -5.2065 -8.242001 -4.3045 -5.364501 -7.623 -8.165 -5.961 
-5.723001 -7.233 -8.296 -6.284 -7.9395 -7.7555 -12.7248 -12.5725 -12.3965 -9.523001 -8.441 -5.943 -9.747001 -12.6578 -8.165 
-7.53 -9.366 -9.2775 -10.76 -10.233 -14.3182 -17.2453 -14.185 -16.713 -9.6685 -9.463 -10.388 -14.9604 -12.6578 
-9.536 -10.6425 -13.7995 -13.0535 -16.7957 -18.8387 -18.8578 -18.5015 -16.8585 -10.8941 -14.5124 -15.7894 -14.9604 
-4.064 -1.7565 -2.664 -4.571 -3.5095 -2.4265 -2.5045 -1.8085 -4.3225 -2.9705 -6.534 -1.4985 -3.486 -4.031 -2.5045 -2.664 -7.1915 0 
-4.3045 -3.9595 -6.543 -9.597 -4.561 -4.6185 -3.3625 -5.9135 -7.2415 -8.517501 -7.376501 -3.5655 -7.4085 -6.544 -4.074 -8.022501 -7.1915 
-6.29 -8.0035 -12.4948 -10.8389 -8.149 -5.1695 -7.671 -8.249001 -13.3389 -9.324 -8.746501 -7.505 -7.897 -8.337501 -9.986501 -8.022501 
-10.388 -14.0803 -13.7367 -14.4269 -8.7915 -9.184501 -9.622001 -14.4484 -14.1454 -10.587 -12.8494 -7.9635 -10.281 -14.705 -9.986501 
-16.4648 -15.3222 -17.3247 -15.0694 -12.9201 -11.2755 -16.1564 -15.2549 -15.4084 -14.6899 -13.3079 -10.28 -16.6485 -14.705 
-2.4265 -2.186 -2.6165 -3.098 -1.8085 -4.571 -1.756 -3.074 -4.2775 -4.3225 
-3.292 -3.5105 -4.283 -4.5555 -7.419001 -5.8845 -4.566 -7.318001 -8.666 
-4.443 -5.3935 -5.7985 -11.1442 -8.502001 -9.814501 -8.697001 -12.1455 
-6.289 -6.1775 -12.4844 -12.2272 -14.1166 -13.9665 -13.7199 
-7.255 -13.0598 -13.5674 -17.8418 -18.2686 -18.9894 
-2.3345 -4.288 -2.3615 -2.5045 -4.571 0 -4.115 -2.3615 -2.5045 -1.8085 -3.4865 -4.3225 
-5.621 -5.9435 -5.006 -8.360001 -4.571 -4.115 -5.6775 -5.006 -3.3625 -4.572001 -8.216001 
-7.245 -7.874001 -11.6283 -8.360001 -9.9455 -5.6775 -7.171 -5.589 -5.953 -8.713 
-9.554501 -15.1491 -11.6283 -14.3217 -11.5178 -7.171 -7.585001 -8.344501 -10.513 
-16.9954 -15.1491 -17.59 -15.894 -13.0113 -7.585001 -10.13 -13.0487 
