-4.759 
n/a 
n/a 
n/a 
n/a 
-4.759 
n/a 
n/a 
n/a 
n/a 
-4.759 
n/a 
n/a 
n/a 
n/a 
-4.759 
n/a 
n/a 
n/a 
n/a 
-1.8085 -4.293 -2.7765 -2.674 -2.925 -1.7695 -4.4325 -3.499 0 
-6.2015 -7.4055 -4.8275 -6.208 -3.71 -6.9585 -7.8935 -3.499 
-10.0475 -9.6525 -6.923 -6.2975 -7.9385 -10.1805 -7.8935 
-12.6447 -11.8996 -6.9295 -10.396 -11.4555 -10.1805 
-14.8918 -11.9061 -11.2972 -14.1492 -11.4555 
-4.293 -2.7765 -4.3185 -5.7865 -4.4325 -3.499 
-7.4055 -5.8745 -9.351 -10.016 -7.8935 
-10.8893 -9.740001 -13.6379 -13.679 
-14.7548 -14.0517 -17.3009 
-19.0665 -17.7147 
-7.6045 0 -5.7865 -4.4325 -3.499 -2.742 -3.333 
-7.6045 -5.7865 -10.016 -7.8935 -5.682 -7.47 
-14.0534 -10.016 -13.679 -10.2193 -10.621 
-18.2829 -13.679 -16.0048 -15.1583 
-21.9459 -16.0048 -20.9438 
-7.8075 0 -2.674 -2.925 -1.7695 -4.4325 -4.8755 0 
-7.375501 -2.674 -6.208 -3.71 -6.9585 -10.038 -4.8755 
-11.8137 -6.208 -6.2975 -7.9385 -12.9348 -10.038 
-15.7487 -6.2975 -10.396 -14.2098 -12.9348 
-15.8382 -10.396 -16.9035 -14.2098 
