-4.759 
n/a 
n/a 
n/a 
n/a 
-4.759 
n/a 
n/a 
n/a 
n/a 
-4.759 
n/a 
n/a 
n/a 
n/a 
-4.759 
n/a 
n/a 
n/a 
n/a 
-6.493 -11.5915 -3.1385 -3.0465 -5.3905 -1.7695 -3.8655 
-16.9505 -13.067 -5.625 -8.098001 -6.104 -5.6875 
-18.0918 -16.1653 -10.6095 -8.757501 -9.7095 
-21.5996 -21.6998 -11.269 -12.5904 
-26.9355 -22.3593 -15.1019 
-3.458 -6.493 0 -2.645 -3.1575 -7.751 -3.1385 -4.0555 -1.7695 -3.8655 0 
-8.415501 -5.0265 -2.645 -3.72 -10.556 -8.9735 -6.3625 -4.7475 -5.6875 -3.8655 
-8.1245 -8.669001 -3.72 -8.755501 -10.6715 -11.5975 -6.8595 -7.4965 -5.6875 
-12.8738 -9.006001 -8.662001 -9.687501 -12.4951 -12.0851 -9.576501 -7.4965 
-13.2108 -10.456 -9.676001 -12.6025 -12.8915 -15.1189 -9.576501 
-3.5455 -1.4985 -3.8405 -1.7565 -6.493 0 -2.645 -3.1575 -7.751 -3.1385 -2.229 -2.674 -4.06 -1.934 -3.8655 0 
-3.91 -4.7545 -4.563 -7.255001 -5.0265 -2.645 -3.72 -10.556 -8.9735 -4.6125 -5.629 -6.8155 -4.483 -4.9135 -3.8655 
-5.4455 -5.365 -9.498 -7.3535 -8.669001 -3.72 -8.755501 -10.6715 -12.03 -9.097001 -10.1855 -8.2335 -7.498001 -4.9135 
-5.984 -10.0275 -9.159 -10.1675 -9.006001 -8.662001 -9.687501 -12.9276 -17.0227 -13.6811 -11.6035 -11.3723 -7.498001 
-10.817 -10.0335 -12.0572 -10.7245 -10.456 -9.676001 -13.035 -17.8291 -21.6068 -15.0991 -14.7423 -11.3723 
-3.5455 -1.4985 -3.158 -6.493 -2.645 -3.321 -7.751 -4.9225 -2.4945 -3.9535 -5.081 -1.934 -3.8655 
-3.91 -4.178 -7.366 -8.5135 -5.660501 -11.041 -12.3065 -6.9525 -6.6715 -10.382 -6.212 -4.9135 
-5.429 -8.026001 -10.7055 -11.631 -14.3623 -16.8701 -14.3508 -11.4475 -13.8342 -11.513 -8.118501 
-9.169001 -10.7195 -13.2321 -21.4672 -19.8536 -18.7736 -18.8458 -18.6102 -14.9652 -13.4195 
-11.3715 -13.8163 -22.6969 -26.9585 -21.7571 -23.2686 -26.0085 -19.7412 -16.8717 
