-4.759 
n/a 
n/a 
n/a 
n/a 
-4.759 
n/a 
n/a 
n/a 
n/a 
-4.759 
n/a 
n/a 
n/a 
n/a 
-4.759 
n/a 
n/a 
n/a 
n/a 
-2.3085 -3.757 -3.6845 -3.845 -3.8405 -2.0935 -2.857 -3.9075 0 0 
-5.0825 -6.483 -7.9835 -6.504001 -5.434 -4.5085 -6.4065 -3.9075 0 
-7.472 -11.169 -11.2043 -8.431001 -8.467 -7.971001 -6.4065 -3.9075 
-12.6044 -14.3898 -13.1313 -11.6552 -12.1435 -7.971001 -6.4065 
-15.8252 -16.3168 -16.3555 -15.3317 -12.1435 -7.971001 
-2.3085 -3.0805 -3.757 -4.1685 -3.098 -3.689 -4.4525 -1.7695 -4.3285 0 
-3.7245 -6.008 -7.2465 -7.498501 -7.0465 -7.1965 -5.610001 -5.900001 -4.3285 
-6.06 -9.248501 -10.586 -11.98 -10.7934 -8.023001 -10.0965 -5.900001 
-9.2915 -12.7704 -15.0675 -15.7269 -11.6199 -12.5837 -10.0965 
-12.8202 -17.2519 -18.8144 -16.5534 -16.1806 -12.5837 
-2.3085 -3.757 -4.174 -3.689 -4.4525 -1.7695 -4.3285 0 
-5.0825 -6.9265 -7.697001 -7.1965 -5.610001 -5.900001 -4.3285 
-9.946 -10.634 -9.769001 -8.023001 -10.0965 -5.900001 
-13.6989 -12.706 -9.784 -12.5837 -10.0965 
-15.7709 -12.721 -14.3423 -12.5837 
-2.3085 -3.757 -3.6845 -3.535 -4.4525 -1.7695 -4.3285 
-5.0825 -6.483 -7.312 -7.7295 -5.610001 -5.900001 
-7.472 -10.4765 -12.0885 -8.825 -10.0965 
-11.9119 -15.253 -13.184 -13.5417 
-16.6884 -16.3485 -17.9007 
