-4.759 
n/a 
n/a 
n/a 
n/a 
-4.759 
n/a 
n/a 
n/a 
n/a 
-4.759 
n/a 
n/a 
n/a 
n/a 
-4.759 
n/a 
n/a 
n/a 
n/a 
-1.4985 -3.3755 -3.3255 -2.9705 -2.925 -4.0555 -2.7415 -3.9205 -2.5045 -4.758 -4.919 0 
-4.057 -5.365 -5.433001 -4.773 -5.4845 -7.446 -5.733 -4.449 -7.5535 -6.433001 -4.919 
-6.034 -7.915501 -6.8075 -7.464001 -8.731501 -10.7231 -6.186501 -8.816501 -9.744 -6.433001 
-8.465501 -9.6085 -9.4755 -9.527 -12.2244 -11.1766 -9.3815 -11.4024 -9.744 
-10.1465 -12.4001 -11.8041 -13.0965 -12.6779 -14.3716 -13.2666 -11.4024 
-3.1495 -4.0225 -3.3755 -3.849 -4.758 -4.919 0 
-7.55 -8.383 -7.9415 -8.313001 -6.433001 -4.919 
-12.0625 -13.7094 -12.4999 -9.515501 -6.433001 
-17.3889 -18.2678 -13.7024 -9.515501 
-21.9473 -19.4703 -13.7024 
-1.4985 -3.3755 -1.934 -2.9705 -2.925 -4.0555 -3.251 -3.1125 -3.849 -2.5045 -4.758 -4.919 
-4.057 -5.0985 -4.051 -4.773 -5.4845 -8.209 -4.28 -5.7235 -6.305 -7.5535 -6.433001 
-5.483 -5.5535 -5.348001 -7.464001 -9.4375 -9.427 -6.9135 -7.9385 -11.4576 -9.744 
-5.683 -6.818501 -8.331 -10.1765 -10.5345 -12.0987 -8.841001 -13.4413 -13.6481 
-6.9265 -9.642 -11.4631 -11.2735 -13.2062 -14.0262 -14.6364 -15.6318 
-1.4985 -4.0325 -2.925 -5.6495 -2.7415 -3.849 -2.5045 -4.758 -4.919 0 
-4.933001 -6.993001 -7.210001 -8.4645 -5.431 -6.305 -7.5535 -6.433001 -4.919 
-7.5135 -10.396 -9.619501 -11.3214 -7.509501 -11.4576 -9.744 -6.433001 
-10.6735 -12.8055 -12.6986 -13.3999 -13.1499 -13.6481 -9.744 
-13.083 -15.8846 -14.7771 -19.0403 -15.3404 -13.6481 
