-4.759 
n/a 
n/a 
n/a 
n/a 
-4.759 
n/a 
n/a 
n/a 
n/a 
-4.759 
n/a 
n/a 
n/a 
n/a 
-4.759 
n/a 
n/a 
n/a 
n/a 
-9.3585 -2.7415 -3.9515 -3.2875 -1.7565 -7.4885 -3.436 -8.345 
-12.2536 -7.875501 -5.783 -4.3315 -9.320001 -11.5517 -12.255 
-17.3876 -9.854501 -6.4065 -13.0884 -13.537 -21.0897 
-19.3666 -10.257 -16.1346 -17.3054 -23.075 
-19.7691 -19.9851 -20.3516 -26.8434 
-3.436 -3.8605 -4.6105 -9.3585 -2.7415 -1.4985 -3.9515 -1.7565 -6.864 -4.6825 
-8.186 -8.793 -13.7136 -12.2536 -4.063 -5.059 -5.368 -8.661 -8.668501 
-11.8505 -17.8974 -16.9775 -13.5751 -7.179 -5.839 -10.044 -10.2925 
-22.9952 -21.3599 -18.299 -16.6911 -7.29 -10.2275 -12.0859 
-25.8903 -22.6814 -21.415 -16.8021 -12.1295 -12.2938 
-9.3585 -2.7415 -1.4985 -3.9515 -3.2875 -1.7565 -6.864 -3.436 -3.8605 -4.747 0 
-12.2536 -4.063 -5.059 -5.783 -4.3315 -8.661 -11.0878 -8.186 -9.0165 -4.546 
-13.5751 -7.179 -6.233 -6.4065 -12.4294 -13.163 -15.8378 -11.74 -8.027 
-16.6911 -8.330501 -6.543 -15.4756 -16.9314 -17.913 -17.7138 -10.062 
-17.8426 -8.4385 -15.7571 -19.9776 -21.6814 -19.789 -17.7138 
-9.3585 -2.7415 -1.4985 -3.9515 -1.7565 -7.4885 -3.436 -8.400001 
-12.2536 -4.063 -5.059 -5.368 -9.320001 -11.5517 -10.586 
-13.5751 -7.179 -5.839 -13.7489 -13.537 -18.7017 
-16.6911 -7.29 -14.5503 -17.9659 -20.687 
-16.8021 -16.4523 -18.7673 -25.1159 
