-4.759 
n/a 
n/a 
n/a 
n/a 
-4.759 
n/a 
n/a 
n/a 
n/a 
-4.759 
n/a 
n/a 
n/a 
n/a 
-4.759 
n/a 
n/a 
n/a 
n/a 
-1.4985 -3.4225 -3.468 -2.186 -1.8085 -4.2245 -1.934 -3.6485 -4.3005 -1.934 -3.3635 0 -1.4985 -7.475501 -4.1395 -4.404 -3.54 -3.5215 -2.5045 -3.4915 -2.5045 -3.875 -3.543 -5.2125 -2.264 -5.1235 -3.326 0 
-3.9655 -3.628 -5.589 -3.164 -5.274 -4.929 -5.577 -7.1105 -5.415 -4.921 -3.3635 -1.4985 -8.836 -9.654501 -8.361 -6.4825 -5.189 -5.4595 -4.5405 -4.7465 -6.6085 -8.3715 -5.2555 -7.6315 -6.7535 -5.975 -3.326 
-4.053 -5.694 -6.61 -6.0845 -5.555 -7.59 -8.362 -8.212 -8.916 -4.921 -5.0395 -8.836 -9.975501 -10.1615 -10.1035 -8.796 -6.384 -6.3275 -4.8085 -8.948001 -10.061 -9.238501 -7.6455 -10.0995 -8.025001 -5.975 
-5.7135 -6.692 -8.9895 -6.162 -8.372001 -9.434501 -9.822001 -10.1465 -8.916 -5.9425 -10.213 -9.975501 -10.209 -10.173 -10.1695 -9.127001 -6.962 -6.8645 -9.019 -10.1 -10.091 -10.1005 -10.0995 -10.1055 -8.025001 
-6.7155 -8.9995 -9.0915 -8.9805 -9.668501 -10.0515 -10.154 -10.1465 -9.6125 -10.213 -10.221 -10.209 -10.217 -10.18 -10.1765 -9.184001 -7.4375 -9.898001 -10.0995 -10.11 -10.1265 -10.1215 -10.1055 -10.1055 
-3.676 -4.4565 -1.934 -2.688 -3.6485 -4.6505 0 -1.934 -3.3635 -2.0935 -3.3435 -4.1595 -3.326 -2.925 -4.404 -2.645 -3.1575 -3.54 -2.95 -1.7565 -3.875 -2.0935 -3.543 -3.6765 0 
-7.975 -6.2635 -4.282 -6.3435 -7.694 -4.6505 -1.934 -4.921 -5.976501 -4.938 -5.05 -6.1945 -6.607 -6.2695 -6.085001 -3.72 -5.4425 -6.191501 -4.3785 -5.1745 -6.0745 -6.5605 -5.0485 -3.6765 
-8.891001 -8.410501 -8.444501 -9.070001 -7.694 -5.227 -4.921 -6.843 -9.913 -6.9545 -7.0305 -10.1225 -10.0505 -7.7365 -6.3485 -5.6625 -8.915001 -9.101001 -9.650001 -7.3145 -11.1615 -8.6665 -5.0485 
-11.633 -12.8888 -11.5364 -9.070001 -9.052501 -8.526001 -6.843 -10.5425 -12.0199 -8.3465 -10.7175 -13.566 -11.5175 -8.224 -7.917 -9.084001 -10.3895 -14.9067 -11.9304 -12.7081 -13.2675 -8.6665 
-16.1113 -15.9807 -11.5364 -10.1635 -12.4561 -10.6014 -10.5425 -12.6494 -13.4119 -12.3119 -14.161 -15.033 -12.005 -9.4005 -12.5103 -10.703 -16.3606 -17.1871 -17.324 -14.8141 -13.2675 
-3.676 -2.186 -4.0885 -1.934 -2.688 -5.552 -1.934 -3.6485 -3.6445 -1.934 -3.3635 -2.925 -4.419 -4.347 -3.54 -3.5215 -2.645 -3.1575 -5.59 -2.264 -4.592 -4.7775 0 
-5.5015 -5.8685 -6.4955 -4.282 -7.113 -7.018 -5.577 -6.594501 -5.329 -4.921 -6.7705 -6.099501 -7.225 -6.4115 -5.189 -5.4615 -3.72 -7.810501 -7.727 -6.2325 -7.718 -4.7775 
-8.516001 -7.565001 -8.910501 -9.0655 -8.426001 -10.0315 -8.154 -8.186501 -8.526001 -7.2625 -10.6215 -9.083501 -9.023001 -7.506001 -6.583 -6.514 -8.636001 -9.709001 -12.1691 -9.793501 -7.718 
-9.107 -9.745001 -13.9768 -10.6605 -11.6255 -12.6857 -9.793 -11.4685 -10.9435 -11.2639 -13.6055 -10.5645 -10.477 -8.517 -7.4665 -10.411 -10.7897 -14.3513 -15.7301 -9.793501 
-12.6076 -15.0523 -15.5718 -13.86 -14.2797 -14.3247 -13.2098 -13.886 -14.9449 -14.2479 -15.0865 -12.0185 -11.488 -9.572001 -11.5849 -12.5647 -15.432 -17.9123 -15.7301 
-2.3615 -3.4515 -1.934 -4.089 -5.6535 -2.7835 -1.4985 -3.6035 -2.186 -4.3665 -3.5455 -1.4985 -3.383 -3.8315 -4.763 -1.7565 -4.477 -6.12 -6.438 -2.882 -3.074 -2.489 -3.2955 -1.7695 -4.8525 -4.477 -6.12 -6.438 -2.7415 -3.0835 -5.487 -1.934 -1.4985 -5.235 
-5.9225 -4.7655 -6.8155 -6.811501 -8 -3.7575 -4.7865 -5.475 -5.3395 -6.429 -3.91 -4.554501 -5.824 -5.806 -5.1985 -5.778 -7.136001 -8.887501 -8.613501 -4.559 -4.381 -3.979 -3.9425 -5.178 -8.396001 -7.136001 -8.887501 -8.361 -5.276 -8.2015 -6.328001 -2.6125 -5.5435 
-5.9845 -8.5485 -8.774501 -8.814501 -9.067 -6.622 -6.172 -6.705501 -7.522 -6.7555 -7.4575 -6.744 -7.1685 -5.9815 -7.2545 -7.1425 -11.9803 -11.3328 -9.801001 -5.061 -5.411 -4.5435 -6.3235 -8.734501 -11.4946 -11.9803 -11.0803 -10.6605 -8.755 -8.858 -6.893001 -5.870501 
-9.612 -9.788 -10.4345 -9.52 -12.0157 -7.2715 -6.9945 -9.0485 -7.964 -10.361 -8.304001 -7.350501 -7.401 -7.944 -8.9944 -13.0778 -14.4256 -12.5203 -9.948501 -6.047 -5.8245 -6.816 -9.788 -11.9097 -16.3389 -14.1731 -13.3798 -14.1395 -9.217 -9.452001 -10.155 
-10.8611 -11.613 -11.14 -12.4941 -12.6652 -8.8155 -9.4495 -9.4285 -11.6815 -10.621 -8.802501 -7.497001 -9.234 -9.9441 -14.9297 -15.5231 -15.6131 -12.6678 -10.426 -6.4985 -7.940001 -10.2075 -13.0492 -16.754 -18.5317 -16.4726 -16.8588 -14.6015 -9.694 -12.7314 
