-4.759 
n/a 
n/a 
n/a 
n/a 
-4.759 
n/a 
n/a 
n/a 
n/a 
-4.759 
n/a 
n/a 
n/a 
n/a 
-4.759 
n/a 
n/a 
n/a 
n/a 
-4.266 -12.16972 -4.658 0 -11.0555 -12.16972 -12.16972 0 -3.522 
-17.34352 -16.82772 -4.658 -11.0555 -23.22522 -24.33944 -12.16972 -3.522 
-22.00152 -16.82772 -16.4753 -23.22522 -35.39494 -24.33944 -15.69172 
-22.00152 -28.64502 -28.64502 -35.39494 -35.39494 -27.86144 
-33.81882 -40.81474 -40.81474 -35.39494 -38.91694 
-4.344 -12.16972 -4.658 0 -6.402 -1.7565 -5.1845 0 -3.522 
-17.49932 -16.82772 -4.658 -6.402 -8.994501 -6.580501 -5.1845 -3.522 
-22.15732 -16.82772 -11.117 -8.994501 -14.1863 -6.580501 -9.066 
-22.15732 -23.28672 -13.7095 -14.1863 -14.1863 -11.305 
-28.61632 -25.87922 -18.9013 -14.1863 -18.9108 
-3.522 0 -9.039001 -4.4995 -1.7695 -5.1845 0 -3.881 -2.3345 -3.758 0 -12.16972 
-3.522 -9.039001 -13.9457 -5.291 -7.4505 -5.1845 -3.881 -4.5275 -5.158 -3.758 -12.16972 
-13.3244 -13.9457 -14.7372 -11.7372 -7.4505 -9.711 -4.5275 -6.826 -5.158 -16.58172 
-18.2311 -14.7372 -21.1834 -11.7372 -12.398 -10.1835 -6.826 -6.826 -18.49552 
-19.0226 -21.1834 -21.1834 -16.6847 -12.8705 -12.482 -6.826 -20.50272 
0 -11.0555 -12.16972 -12.16972 0 0 -8.8605 -1.7695 -5.1845 0 -4.0385 -9.356501 -12.16972 
-11.0555 -23.22522 -24.33944 -12.16972 0 -8.8605 -9.757501 -7.4505 -5.1845 -4.0385 -14.1334 -22.04962 
-23.22522 -35.39494 -24.33944 -12.16972 -8.8605 -9.757501 -15.5415 -7.4505 -9.5305 -14.1334 -26.82652 
-35.39494 -35.39494 -24.33944 -21.03022 -9.757501 -15.5415 -15.5415 -12.2175 -19.8898 -26.82652 
-35.39494 -35.39494 -33.19994 -21.92722 -15.5415 -15.5415 -20.3085 -22.5768 -32.58292 
