-4.759 
n/a 
n/a 
n/a 
n/a 
-4.759 
n/a 
n/a 
n/a 
n/a 
-4.759 
n/a 
n/a 
n/a 
n/a 
-4.759 
n/a 
n/a 
n/a 
n/a 
-2.925 -3.998 -2.3335 -2.925 -2.674 -5.34 -1.756 -2.8645 -1.7695 -4.1665 -4.732 -2.985 -2.95 -1.7695 -2.9905 -1.7565 -2.3615 -4.958 0 
-5.7515 -5.1075 -4.0295 -4.1785 -7.906 -6.826 -4.3855 -4.4755 -5.055 -5.9465 -7.319 -5.371 -4.11 -6.079 -3.6185 -3.523 -6.994 -4.958 
-6.809501 -6.6715 -5.151 -9.0395 -9.305 -9.476501 -6.3395 -6.900001 -6.7275 -8.5115 -9.650001 -6.364 -8.791 -6.5465 -5.474 -8.0485 -6.994 
-7.73 -8.620001 -9.9405 -10.5645 -12.0469 -10.191 -8.572001 -8.613001 -9.259501 -10.757 -10.959 -11.379 -9.637501 -8.6265 -8.453 -8.0485 
-10.253 -13.4879 -11.4655 -13.3064 -12.7614 -12.4235 -10.0675 -11.2408 -11.5088 -12.066 -15.974 -12.2255 -11.7291 -12.2161 -8.453 
-2.3615 -2.95 0 -4.784 0 -6.034 0 -2.95 -4.164 -1.934 -2.8705 -4.889 0 
-4.4645 -2.95 -4.784 -4.784 -6.034 -6.034 -2.95 -7.3265 -5.572 -4.1055 -7.251 -4.889 
-4.4645 -8.512 -4.784 -12.0852 -6.034 -8.923 -7.3265 -9.2705 -7.8515 -7.827001 -7.251 
-9.781501 -8.512 -12.0852 -12.0852 -8.923 -13.6719 -9.2705 -11.639 -11.9024 -7.827001 
-9.781501 -16.1764 -12.0852 -14.9742 -13.6719 -15.6159 -11.639 -15.6899 -11.9024 
-1.934 -2.3615 -3.8405 -2.925 -3.152 -3.115 -4.899 -1.756 -4.1665 -2.0935 -1.4985 -3.301 -2.95 
-3.539 -5.371 -6.55 -4.203 -6.118 -8.998001 -6.8195 -5.6775 -4.934 -2.9725 -4.6235 -5.3325 
-6.410501 -7.639 -7.581 -6.868501 -12.3564 -10.8933 -10.7025 -6.0185 -5.498 -5.865 -7.3435 
-8.731001 -8.639501 -10.4517 -13.1989 -14.2517 -14.7763 -11.0435 -6.4895 -8.543 -8.3905 
-9.651501 -11.5464 -16.7821 -15.0942 -18.1347 -15.1173 -11.5145 -9.2085 -10.563 
-2.7295 -2.7765 -3.6785 -2.925 -3.998 0 -1.934 -2.3615 -2.95 0 -5.8945 0 -5.1375 0 -12.16972 
-4.065 -5.237 -5.2135 -5.7515 -3.998 -1.934 -3.539 -4.4645 -2.95 -5.8945 -5.8945 -5.1375 -5.1375 -12.16972 
-6.2145 -7.044 -8.321 -5.7515 -6.126 -3.539 -6.3285 -4.4645 -9.724501 -5.8945 -11.8872 -5.1375 -18.28382 
-8.484501 -10.4755 -8.321 -8.327001 -7.6055 -6.3285 -6.3285 -11.5182 -9.724501 -11.8872 -11.8872 -18.28382 
-12.0966 -10.4755 -11.1647 -9.932501 -10.1855 -6.3285 -13.9566 -11.5182 -15.824 -11.8872 -25.03352 
