-4.759 
n/a 
n/a 
n/a 
n/a 
-4.759 
n/a 
n/a 
n/a 
n/a 
-4.759 
n/a 
n/a 
n/a 
n/a 
-4.759 
n/a 
n/a 
n/a 
n/a 
-3.1495 -2.4945 -2.5685 -3.7855 -4.4105 -1.934 -1.8085 -4.4745 0 
-4.459 -4.6335 -6.859 -9.0985 -5.307 -3.2685 -6.033501 -4.4745 
-5.958 -7.75 -12.5434 -10.276 -6.5765 -7.700001 -6.033501 
-9.299001 -13.7876 -13.7209 -11.5607 -10.0345 -7.700001 
-15.7156 -14.9651 -15.0056 -15.0187 -10.0345 
-2.5685 -1.4985 -2.871 -4.0905 -3.7855 
-3.7015 -4.316 -6.259 -8.422501 
-7.366 -7.6365 -10.622 
-10.647 -12.3423 
-15.3528 
-6.4115 -1.934 -4.3975 -8.975 -3.5765 -3.634 
-7.831501 -6.607 -14.5031 -13.1701 -6.3425 
-12.9679 -17.1228 -18.6982 -15.9361 
-23.4837 -21.3179 -21.4642 
-27.6788 -24.0839 
-3.1495 -2.5685 -2.4945 -4.4105 -1.934 -3.872 -1.756 -3.7855 -1.7695 -2.791 
-6.428 -5.3665 -5.791 -5.307 -6.3875 -5.624001 -5.6055 -4.793 -4.385 
-8.0235 -9.037001 -6.4195 -9.102 -7.827001 -9.343 -6.716001 -6.442501 
-11.878 -9.535001 -10.553 -10.703 -11.9432 -9.613501 -8.51 
-12.376 -13.7991 -12.154 -14.8192 -12.2137 -11.5953 
