-4.759 
n/a 
n/a 
n/a 
n/a 
-4.759 
n/a 
n/a 
n/a 
n/a 
-4.759 
n/a 
n/a 
n/a 
n/a 
-4.759 
n/a 
n/a 
n/a 
n/a 
-7.103 -5.3375 0 -3.691 -4.455 0 -4.887 0 -3.331 0 -3.1495 -2.4945 -2.5685 -2.871 -1.7565 -1.4985 -3.668 -2.0935 -4.2665 -2.915 -3.433 -1.934 -3.691 
-8.087501 -5.3375 -3.691 -8.71 -4.455 -4.887 -4.887 -3.331 -3.331 -3.1495 -4.459 -4.6335 -5.915 -3.5385 -2.4195 -5.2425 -5.612 -5.830501 -6.257 -4.682 -5.207 -4.8225 
-8.087501 -9.543501 -8.71 -8.71 -9.9755 -4.887 -8.317 -3.331 -6.6065 -4.459 -5.958 -6.989501 -7.0055 -3.7675 -6.641001 -7.165 -9.7775 -7.344501 -9.291 -6.488501 -7.918 
-10.76 -14.8257 -8.71 -14.6789 -9.9755 -8.317 -8.317 -6.6065 -8.015 -5.958 -8.8035 -8.3725 -7.24 -8.1195 -8.893001 -11.5913 -11.3339 -10.76 -11.2379 -9.670501 
-16.0422 -14.8257 -14.6789 -14.6789 -13.5595 -8.317 -11.9549 -8.015 -9.438001 -8.8035 -9.400001 -9.061001 -11.8266 -10.3885 -13.6799 -13.1477 -14.7494 -12.7069 -14.4199 
-3.691 -3.4155 -3.5855 -2.4265 -3.2775 -2.5045 -7.103 -5.3375 0 -3.691 -4.455 0 -4.887 
-7.16 -7.2655 -6.312 -6.221 -3.678 -9.649501 -8.087501 -5.3375 -3.691 -8.71 -4.455 -4.887 
-11.8732 -9.581 -11.0125 -6.635 -10.038 -10.7004 -8.087501 -9.543501 -8.71 -8.71 -9.9755 
-14.1887 -14.4345 -11.4265 -13.3522 -11.1135 -10.7004 -10.76 -14.8257 -8.71 -14.6789 
-19.0422 -14.8485 -18.1437 -14.4277 -11.1135 -13.3729 -16.0422 -14.8257 -14.6789 
-3.135 -4.4525 -1.7565 -1.4985 -4.519 -1.7565 -3.433 -2.4945 -10.4975 0 -3.691 -4.519 0 -4.887 0 -3.331 0 
-7.22 -4.6715 -2.4195 -6.1675 -6.6395 -4.7085 -6.1775 -14.4202 -10.4975 -3.691 -9.512501 -4.519 -4.887 -4.887 -3.331 -3.331 
-9.3405 -5.560501 -7.032001 -7.03 -10.513 -7.4185 -18.626 -14.4202 -14.1885 -9.512501 -9.512501 -9.392 -4.887 -8.317 -3.331 
-10.1645 -9.9835 -8.3275 -11.2465 -13.223 -20.1102 -18.626 -18.1112 -20.01 -9.512501 -14.6161 -9.392 -8.317 -8.317 
-14.5875 -11.279 -12.8768 -13.9565 -25.9147 -20.1102 -22.317 -23.9327 -20.01 -14.6161 -14.6161 -13.2942 -8.317 
-7.103 -5.3375 0 -3.691 -4.455 0 -4.887 0 -3.331 0 -2.5685 -2.4945 -3.2825 -3.668 -1.7565 -2.688 -4.0865 0 
-8.087501 -5.3375 -3.691 -8.71 -4.455 -4.887 -4.887 -3.331 -3.331 -2.5685 -5.3665 -5.666 -6.526501 -4.660501 -4.2285 -5.3925 -4.0865 
-8.087501 -9.543501 -8.71 -8.71 -9.9755 -4.887 -8.317 -3.331 -5.6425 -5.3665 -8.820001 -9.720001 -6.7925 -7.724 -6.147501 -5.3925 
-10.76 -14.8257 -8.71 -14.6789 -9.9755 -8.317 -8.317 -5.6425 -9.1675 -8.820001 -13.0886 -9.933001 -9.882501 -9.856001 -6.147501 
-16.0422 -14.8257 -14.6789 -14.6789 -13.5595 -8.317 -10.9909 -9.1675 -12.7978 -13.0886 -13.3016 -13.3378 -12.0953 -9.856001 
