-4.759 
n/a 
n/a 
n/a 
n/a 
-4.759 
n/a 
n/a 
n/a 
n/a 
-4.759 
n/a 
n/a 
n/a 
n/a 
-4.759 
n/a 
n/a 
n/a 
n/a 
-3.135 -1.7565 -1.4985 -5.92 -4.1395 -3.152 -3.962 -3.17 -1.934 -5.1845 0 
-3.9195 -2.4195 -6.998501 -9.0185 -6.5745 -5.9475 -6.925 -5.81 -6.564 -5.1845 
-4.168 -7.835501 -9.632001 -11.6005 -9.698501 -8.884001 -8.8055 -11.1208 -6.564 
-9.848501 -10.459 -12.2226 -14.7245 -12.9202 -10.7335 -14.5395 -11.1208 
-12.592 -13.0496 -15.3466 -17.9462 -14.7697 -16.4675 -14.5395 
-4.157 -6.1965 -1.7565 -5.92 -3.9355 -3.4635 -1.7695 -4.2655 -2.4945 -3.4625 -3.962 -1.934 -5.1845 0 
-10.1815 -6.913 -7.259501 -7.935 -7.2255 -4.2045 -6.415501 -6.8475 -4.7105 -6.2585 -4.8165 -6.564 -5.1845 
-10.5305 -12.8832 -8.911501 -11.5236 -7.3415 -7.769001 -8.576 -9.123 -7.463 -7.2305 -9.915501 -6.564 
-16.5007 -14.5352 -12.5547 -11.6396 -10.0505 -9.713501 -11.0701 -11.9297 -8.2495 -12.6723 -9.915501 
-18.1527 -18.1784 -12.6707 -14.3486 -12.2366 -12.4436 -13.8768 -12.7162 -13.7347 -12.6723 
-1.8085 -3.845 -1.7565 -4.3435 -12.16972 -3.9355 -2.4945 -3.962 -1.934 -5.358 -3.594 -1.7565 -6.4735 
-3.9645 -4.13 -5.822001 -17.41882 -16.10522 -5.6745 -5.752 -4.8165 -7.322001 -8.2995 -5.572 -7.466001 
-4.156 -8.454 -19.63872 -21.35432 -17.84422 -8.8535 -6.640501 -10.5035 -10.6083 -10.0345 -12.1823 
-8.463501 -22.78932 -23.57422 -23.09332 -21.02322 -9.559 -12.6307 -13.7898 -12.3433 -16.8592 
-22.80562 -26.72482 -25.31322 -26.27232 -21.72872 -15.956 -15.917 -15.5248 -19.168 
-1.934 -5.1845 -4.2915 -4.0935 -3.4635 -1.7565 -1.4985 -4.2655 -1.7565 -5.92 -3.9355 
-6.564 -8.646 -8.665001 -8.1255 -7.1835 -2.4195 -5.9775 -6.026 -7.259501 -7.935 
-10.6465 -13.3523 -12.8882 -12.1797 -8.233001 -6.756001 -6.3995 -12.4774 -8.911501 
-15.3528 -17.5755 -16.9424 -13.2292 -12.6923 -7.4275 -13.3753 -14.1294 
-19.576 -21.6297 -17.9919 -17.6885 -13.3638 -14.6431 -15.0273 
