-4.759 
n/a 
n/a 
n/a 
n/a 
-4.759 
n/a 
n/a 
n/a 
n/a 
-4.759 
n/a 
n/a 
n/a 
n/a 
-4.759 
n/a 
n/a 
n/a 
n/a 
-1.7695 -4.0135 -1.4985 -4.6075 -2.5195 -4.5845 0 -4.1865 -3.5435 -3.43 -6.0885 -4.2995 0 
-4.613 -4.874 -6.0655 -6.7765 -6.9255 -4.5845 -4.1865 -6.517 -6.837 -9.360001 -8.9125 -4.2995 
-5.369 -9.016001 -8.173 -11.7027 -6.9255 -8.727001 -6.517 -8.808001 -13.1004 -12.378 -8.9125 
-9.26 -9.7325 -13.3212 -11.7027 -11.6694 -11.5883 -8.808001 -15.7346 -16.1184 -12.378 
-10.093 -15.0583 -13.3212 -16.4466 -14.5307 -13.8793 -15.7346 -18.7526 -16.1184 
-1.4985 -4.1865 -3.5435 -5.884501 -3.849 -4.0415 -4.1985 -1.7695 -3.0465 -4.875 -1.7565 -1.4985 -5.3745 -4.891 0 -3.8275 -3.7855 
-5.177 -6.517 -7.839001 -8.029501 -7.525001 -8.402 -4.901 -3.683 -5.0775 -4.9685 -2.4195 -6.2355 -7.061501 -4.891 -3.8275 -8.148001 
-6.6705 -10.513 -9.690001 -12.0739 -12.4417 -9.289001 -6.566 -5.400001 -5.083 -5.6785 -7.083001 -7.2945 -7.061501 -9.015501 -8.148001 
-10.5325 -12.364 -13.8126 -16.9906 -13.3287 -11.2212 -8.3345 -5.405 -5.808001 -10.778 -8.000001 -7.2945 -12.5782 -13.9042 
-12.3835 -16.4866 -18.7293 -17.8776 -15.2609 -12.9897 -8.339001 -6.153 -10.9887 -11.695 -8.000001 -13.3444 -17.4669 
-1.4985 -4.1865 -3.5435 -3.2955 -4.6075 -6.9945 -1.7695 -4.544 -1.4985 -4.6075 -1.7565 -1.4985 -5.3745 -4.891 
-5.177 -6.517 -7.2865 -7.7735 -12.69 -7.1835 -5.208 -5.429 -6.0655 -5.6745 -2.4195 -6.2355 -7.061501 
-6.6705 -9.913 -10.6095 -16.5604 -12.879 -10.057 -5.7495 -9.5515 -6.927001 -7.0345 -7.083001 -7.2945 
-9.991501 -13.254 -19.7174 -16.7494 -15.7525 -10.4395 -10.1985 -10.57 -7.792001 -12.4016 -8.000001 
-13.3467 -22.3619 -19.9064 -19.6229 -16.135 -14.8885 -11.3174 -11.435 -13.2799 -13.3186 
-4.1865 -3.5435 -3.9595 -4.1985 -1.7695 -3.0465 -4.891 -4.901 -2.3345 -4.345 
-6.517 -8.099 -6.504 -4.901 -3.683 -9.3545 -11.046 -7.208 -6.694 
-11.6195 -9.581 -6.5765 -6.566 -9.873501 -15.5793 -13.353 -11.9573 
-13.1015 -9.6505 -8.8485 -13.5083 -16.0983 -17.8863 -18.1023 
-13.171 -12.1719 -15.9214 -19.7331 -18.4053 -22.6356 
