-4.759 
n/a 
n/a 
n/a 
n/a 
-4.759 
n/a 
n/a 
n/a 
n/a 
-4.759 
n/a 
n/a 
n/a 
n/a 
-4.759 
n/a 
n/a 
n/a 
n/a 
-3.94 -3.522 0 -6.6585 -2.229 -4.7615 
-6.281 -3.522 -6.6585 -9.037001 -6.809 
-6.281 -11.142 -9.037001 -13.8584 
-14.4278 -13.5205 -13.8584 
-16.8063 -18.3419 
-4.0105 -3.522 0 -4.7615 -1.7565 -4.628 -4.743 
-8.1415 -3.522 -4.7615 -6.082 -6.107501 -4.7515 
-8.1415 -8.052501 -6.082 -9.651001 -6.281001 
-13.0656 -8.097501 -9.651001 -9.666501 
-13.1106 -10.553 -9.666501 
-3.0835 -3.473 0 -4.628 -4.743 -2.229 -12.16972 
-6.9355 -3.473 -4.628 -4.7515 -6.5015 -14.99372 
-6.9355 -8.226 -4.7515 -6.5135 -20.10862 
-12.4753 -8.899 -6.5135 -20.15702 
-13.1483 -10.718 -20.15702 
-4.0105 -3.522 0 -4.7615 -1.7565 -4.628 -4.743 0 
-8.1415 -3.522 -4.7615 -6.082 -6.107501 -4.7515 -4.743 
-8.1415 -8.052501 -6.082 -9.651001 -6.281001 -4.7515 
-13.0656 -8.097501 -9.651001 -9.666501 -6.281001 
-13.1106 -10.553 -9.666501 -9.666501 
