-4.759 
n/a 
n/a 
n/a 
n/a 
-4.759 
n/a 
n/a 
n/a 
n/a 
-4.759 
n/a 
n/a 
n/a 
n/a 
-4.759 
n/a 
n/a 
n/a 
n/a 
-1.4985 -4.285 -4.35 -1.7565 -1.4985 -3.995 -3.6615 -3.851 -1.7695 -5.383 -1.7565 -6.364 -1.934 -1.4985 -4.989 -4.418 0 -4.1115 -4.675 -3.6615 0 -7.9185 -1.7565 -5.898 
-4.774 -6.4325 -5.3865 -2.4195 -4.712 -7.127 -6.654 -4.0015 -7.535501 -6.632 -7.976 -7.549 -2.6125 -5.901501 -6.3745 -4.418 -4.1115 -6.957001 -9.378 -3.6615 -7.9185 -9.6975 -7.165 
-6.806 -7.509501 -6.2025 -5.2205 -8.026001 -9.8065 -6.6685 -8.0885 -8.4825 -9.744 -9.373 -8.218 -6.976 -6.925001 -6.3745 -8.7895 -6.957001 -12.0684 -9.378 -12.866 -9.6975 -15.4122 
-7.666 -7.833 -8.074501 -8.6995 -9.9055 -9.819 -10.467 -8.787001 -11.7611 -10.236 -9.845 -13.0471 -7.4455 -6.925001 -9.521001 -12.0986 -12.0684 -12.0684 -18.7083 -14.645 -15.4122 
-7.9335 -9.2985 -12.0659 -9.920501 -9.9095 -14.0715 -11.1655 -12.1618 -12.2531 -10.462 -14.8357 -13.5166 -7.4455 -10.034 -13.2873 -17.21 -12.0684 -21.3987 -20.4873 -20.3597 
-4.3845 -1.7565 -5.8585 -4.7715 0 -3.8875 -8.1055 0 -4.3845 -1.7565 -4.4525 -4.7715 -1.756 -3.974 -1.7565 -4.921 -4.935 -2.264 -3.995 -2.5195 -4.7885 -3.7345 -2.742 -4.0045 -2.264 -1.4985 -4.7885 -4.1455 -1.7565 -3.995 0 
-4.873 -7.7345 -11.4264 -4.7715 -3.8875 -13.124 -8.1055 -4.3845 -4.873 -6.2275 -8.686001 -5.895 -5.6235 -4.613 -6.4395 -9.380501 -6.6825 -4.972 -6.299 -6.3755 -5.866 -6.3085 -6.0855 -4.703001 -2.9195 -5.282001 -6.302001 -5.11 -5.423 -3.995 
-11.4828 -13.8548 -11.4264 -6.8475 -13.124 -13.124 -13.7616 -4.873 -9.7215 -11.1738 -9.975 -10.5537 -6.421 -10.185 -10.5135 -11.3736 -9.562 -7.4025 -8.392 -6.4365 -8.592501 -9.8085 -7.0415 -5.186 -6.3535 -6.639 -6.596 -7.788001 -5.423 
-17.6031 -13.8548 -13.5024 -16.8942 -13.124 -18.7801 -14.2501 -9.7215 -14.7904 -12.4628 -15.1219 -11.3512 -12.531 -14.259 -12.722 -14.2531 -10.648 -9.662001 -8.394501 -9.174001 -12.1175 -10.663 -7.4855 -9.719501 -7.309 -6.7995 -10.0995 -7.788001 
-17.6031 -15.9308 -23.5491 -16.8942 -18.7801 -19.2686 -19.0986 -14.7904 -16.0794 -17.6097 -15.9194 -17.4612 -16.605 -16.4675 -15.6015 -15.3391 -12.9075 -9.667001 -11.4044 -12.7378 -12.972 -11.107 -12.1368 -10.7374 -7.450001 -10.1105 -10.0995 
-1.4985 -3.2295 -4.35 -1.7565 -3.995 -2.186 -3.1125 -4.164 -3.433 -1.7565 -4.314 -3.9075 0 -7.9465 -1.7565 -1.4985 -4.1115 0 -4.25 -1.4985 -4.935 -4.7715 0 -1.4985 -3.9515 -1.7565 -1.4985 -3.6885 -5.6895 
-5.705501 -7.7475 -5.3865 -5.423 -5.7465 -6.9115 -5.73 -6.8535 -4.1845 -5.628 -7.8195 -3.9075 -7.9465 -9.0495 -2.4195 -4.843 -4.1115 -4.25 -6.1515 -6.160501 -8.274 -4.7715 -1.4985 -4.8235 -4.4625 -2.4195 -4.992001 -8.2255 
-9.2075 -9.152 -8.080001 -7.5575 -10.2865 -9.592501 -8.176001 -7.2885 -7.7615 -9.9405 -7.8195 -12.8778 -9.0495 -9.4995 -5.5165 -4.843 -9.022 -6.1515 -11.3143 -9.311501 -8.274 -6.1635 -4.8235 -4.896 -5.461 -5.863 -9.729 
-10.335 -11.8041 -9.458501 -12.2357 -13.4139 -12.0339 -8.569 -10.9547 -12.311 -9.9405 -17.5582 -13.9808 -9.4995 -12.7845 -5.5165 -9.311001 -11.1677 -11.3143 -14.4653 -9.311501 -9.818001 -10.016 -4.896 -5.7875 -8.620501 -9.928 
-12.9871 -13.1826 -14.3181 -15.3631 -15.8553 -12.4269 -12.2954 -15.5042 -12.311 -19.6792 -18.6612 -14.4308 -12.7845 -12.7845 -9.8715 -11.6329 -16.3305 -14.4653 -14.4653 -10.587 -13.7747 -10.2045 -5.7875 -8.8885 -12.8403 
-1.4985 -4.314 -4.5205 0 -1.4985 -3.8845 -4.87 0 -1.4985 -5.248 -3.8845 -1.756 -3.3715 -5.821 -3.2345 -3.6615 -1.934 -1.4985 -4.1455 -1.7565 -1.4985 -3.995 0 
-5.3815 -7.933001 -4.5205 -1.4985 -5.2735 -9.9835 -4.87 -1.4985 -6.368 -9.474501 -5.239 -4.6545 -9.3155 -9.796 -5.5705 -4.437 -2.6125 -4.870501 -5.11 -2.4195 -4.712 -3.995 
-8.639501 -7.933001 -6.093 -5.2735 -11.9877 -9.9835 -6.7 -6.368 -11.3905 -10.939 -8.35 -11.1039 -13.5981 -12.2512 -6.561 -5.0245 -6.5245 -5.3985 -5.3235 -5.2205 -4.712 
-8.639501 -9.6675 -9.774 -11.9877 -11.9877 -11.8925 -11.8519 -11.3905 -12.855 -14.05 -15.0842 -15.3865 -16.0533 -13.2417 -7.095 -8.0425 -7.297 -5.6005 -6.671 -5.2205 
-10.286 -13.4761 -16.581 -11.9877 -13.8967 -17.0444 -16.8744 -12.855 -15.966 -20.7842 -19.3668 -17.8417 -17.0438 -13.7757 -10.5506 -8.913501 -7.454 -6.712501 -6.671 
