-4.759 
n/a 
n/a 
n/a 
n/a 
-4.759 
n/a 
n/a 
n/a 
n/a 
-4.759 
n/a 
n/a 
n/a 
n/a 
-4.759 
n/a 
n/a 
n/a 
n/a 
-3.2615 -1.4985 -3.498 -1.7565 -1.4985 -3.6115 -3.188 -3.8275 -4.2085 -4.257 -2.186 -1.4985 -3.17 -5.3285 -4.257 -1.934 -1.4985 -3.188 0 
-4.032 -4.0295 -4.005 -2.4195 -4.081 -5.7875 -4.801 -8.001 -7.0495 -6.2325 -3.339 -3.7115 -8.5555 -8.5165 -6 -2.6125 -3.619 -3.188 
-5.903501 -4.188 -4.3765 -5.180501 -5.93 -5.8365 -8.318001 -10.163 -9.2395 -7.587 -4.888 -8.713 -11.9027 -8.844001 -6.687 -4.377 -3.619 
-5.923 -4.4925 -6.3655 -6.56 -5.9535 -8.618 -10.647 -12.353 -10.61 -8.838 -9.6085 -12.1148 -12.2302 -8.963 -7.729 -4.377 
-6.151 -6.419 -7.183001 -6.5775 -8.6765 -10.7495 -12.837 -13.7235 -11.861 -13.7353 -13.1171 -12.4423 -12.3492 -9.192 -7.729 
-6.0115 -3.7905 -1.7695 -3.6115 -3.188 -3.8275 -4.461 -4.0205 -3.515 -2.0935 -2.264 -2.4265 0 
-10.9172 -6.848001 -5.5385 -5.7875 -4.801 -7.3595 -8.517 -6.7025 -5.5205 -5.5115 -4.561 -2.4265 
-13.9747 -10.9138 -8.522 -5.8365 -9.204 -11.6195 -11.654 -8.561001 -9.078501 -8.522 -4.561 
-18.0405 -13.8973 -8.671501 -9.384501 -13.6446 -14.7565 -13.5125 -12.376 -12.484 -8.522 
-21.024 -14.0468 -12.4313 -13.9567 -16.7816 -16.615 -17.3275 -15.7815 -12.484 
-3.383 -5.409 -9.0745 -4.211 -2.3335 -3.6115 -3.188 -3.8275 -4.6285 
-7.205501 -15.3363 -13.5375 -5.5735 -6.194 -5.7875 -4.801 -8.024 
-17.5076 -19.7993 -14.9 -9.567 -9.335 -5.8365 -9.309001 
-21.9706 -21.1618 -18.8935 -12.8196 -9.587501 -9.366501 
-23.3331 -25.1553 -22.1461 -13.0721 -13.1175 
-2.5045 -1.4985 -3.498 -1.7565 -3.188 -3.8275 -3.741 0 -3.691 -4.6015 -1.4985 -5.3285 -4.257 -1.934 -1.4985 -3.188 0 
-3.1915 -4.0295 -4.005 -5.13 -4.801 -5.1015 -3.741 -3.691 -7.919001 -5.477 -5.535501 -8.5165 -6 -2.6125 -3.619 -3.188 
-4.454 -4.188 -6.536 -5.8125 -5.1285 -5.1015 -7.991 -7.919001 -8.968 -9.279 -8.706501 -8.844001 -6.687 -4.377 -3.619 
-4.526 -6.586501 -6.5895 -5.9795 -5.1285 -8.9285 -12.6356 -8.968 -13.0036 -12.5434 -9.023001 -8.963 -7.729 -4.377 
-7.142 -6.602 -6.716001 -5.9795 -8.932501 -13.8035 -13.6846 -13.0036 -16.268 -12.8599 -9.1315 -9.192 -7.729 
