-4.759 
n/a 
n/a 
n/a 
n/a 
-4.759 
n/a 
n/a 
n/a 
n/a 
-4.759 
n/a 
n/a 
n/a 
n/a 
-4.759 
n/a 
n/a 
n/a 
n/a 
-1.4985 -2.789 -4.985 -2.9705 -2.4945 -2.5045 -1.4985 -3.307 -1.7565 -7.193501 -8.385 -8.316 -4.367 -4.098 -4.985 -5.0075 -1.7695 -3.595 -1.756 -4.7475 -2.3615 -4.3755 -2.186 -3.5395 -2.5045 -9.206 0 
-5.402 -8.163 -7.714 -4.302 -4.891 -3.1915 -4.581 -4.8035 -8.448 -16.5711 -17.043 -13.0232 -8.5725 -9.068001 -10.575 -5.113 -4.741 -4.8 -5.337 -6.590001 -6.226501 -6.203 -6.745 -6.4025 -12.6279 -9.206 
-9.405001 -10.5035 -8.486 -6.784 -5.5745 -5.5535 -5.081501 -12.4062 -18.2208 -25.2291 -21.7502 -17.2287 -14.0533 -14.9176 -10.628 -7.3755 -5.7505 -8.5755 -7.533 -9.463 -7.7625 -11.2084 -9.8465 -17.0429 -12.6279 
-11.7997 -11.2755 -11.0626 -7.3015 -7.259501 -5.835001 -13.0266 -22.179 -26.8788 -29.9363 -25.9557 -22.7095 -19.9029 -14.9706 -12.8905 -8.233 -9.3975 -10.5325 -10.757 -10.675 -13.0745 -14.3099 -20.4869 -17.0429 
-12.5717 -13.8521 -11.5801 -8.955501 -7.295001 -14.2195 -22.7994 -30.837 -31.586 -34.1418 -31.4365 -28.5591 -19.9559 -17.2331 -13.748 -12.3012 -11.3833 -13.7565 -11.969 -15.987 -16.176 -24.9503 -20.4869 
-1.934 -1.4985 -4.098 -4.5475 -4.285 -2.789 -4.5475 -4.9395 -1.7695 -3.595 0 -4.7475 -2.3615 -3.849 -2.5045 -12.16972 
-2.6125 -6.834001 -8.9165 -9.964001 -7.6555 -7.529 -8.897501 -5.127501 -4.741 -3.595 -4.7475 -6.590001 -7.2445 -6.305 -15.59162 
-8.121 -10.5975 -14.6546 -13.4177 -12.5675 -12.2696 -9.080001 -7.2275 -4.741 -7.699501 -6.590001 -11.6812 -9.9805 -19.49572 
-12.0363 -16.791 -18.1083 -18.3297 -17.3081 -12.4521 -11.49 -7.2275 -8.5845 -9.582001 -11.6812 -14.4172 -23.17122 
-18.2298 -20.2447 -23.0203 -23.0703 -17.4906 -14.8621 -11.49 -10.7175 -10.3095 -14.7424 -14.4172 -27.60792 
-4.098 -4.472 -8.253 -9.613001 -8.316 -4.6805 -4.4595 -4.472 -2.3615 -2.186 -3.849 -2.5045 -12.16972 
-9.304501 -13.6988 -18.4102 -18.051 -13.3367 -10.181 -8.361 -7.088 -3.5005 -4.8565 -6.305 -15.59162 
-18.6897 -23.856 -26.8482 -23.0717 -18.8372 -14.0825 -10.7495 -7.772 -5.99 -7.104 -19.49572 
-28.8469 -32.294 -31.8689 -28.5722 -22.7387 -16.471 -11.4335 -10.0305 -8.515 -20.42452 
-37.2849 -37.3147 -37.3694 -32.4737 -25.1272 -17.155 -13.692 -12.7963 -21.89212 
-4.098 -4.6445 -8.253 -8.0655 -8.316 -3.307 -2.789 -4.6445 -2.3615 -8.7005 -1.7695 -12.16972 0 
-10.1725 -13.9863 -16.8627 -16.7891 -11.9632 -6.4985 -8.706 -6.653 -11.136 -9.796 -14.92142 -12.16972 
-19.5143 -22.596 -25.5863 -20.4363 -15.1547 -12.9537 -10.8637 -15.9913 -12.2315 -23.14872 -14.92142 
-28.124 -31.3196 -29.2335 -23.6278 -21.6099 -15.1114 -20.202 -17.0868 -25.58422 -23.14872 
-36.8476 -34.9668 -32.425 -30.083 -23.7676 -24.4497 -21.2975 -30.43952 -25.58422 
