-4.759 
n/a 
n/a 
n/a 
n/a 
-4.759 
n/a 
n/a 
n/a 
n/a 
-4.759 
n/a 
n/a 
n/a 
n/a 
-4.759 
n/a 
n/a 
n/a 
n/a 

n/a 
n/a 
n/a 
n/a 
-2.0935 -1.4985 -3.814 -3.06 -3.277 -3.0365 -2.186 -4.101 -3.8275 -1.934 -6.6585 -1.756 -3.074 -3.8275 -3.458 -4.7095 -5.1845 -4.348 -1.756 -6.899 -3.5435 -4.154 -1.4985 -5.1845 -6.844 -2.229 -3.766 -4.7345 -3.2895 -2.4285 -4.2775 -3.59 -4.944 0 
-2.9725 -4.198 -5.59 -5.0585 -5.79 -3.66 -6.7535 -7.710001 -5.2615 -7.809 -8.549 -4.566 -7.847501 -6.105 -7.861001 -8.9645 -9.622 -5.634 -8.814001 -8.7615 -7.282001 -4.6685 -6.5205 -6.9655 -9.139 -5.697001 -9.206501 -9.0035 -5.495 -6.3125 -7.607 -9.908501 -4.944 
-5.1435 -6.03 -6.335001 -7.565001 -6.559 -8.155001 -9.8785 -9.054501 -9.859 -9.307501 -10.7495 -9.495001 -10.3545 -9.848001 -12.3374 -14.062 -10.636 -13.4846 -10.7575 -12.687 -7.7335 -9.9805 -8.643001 -9.2025 -12.9218 -11.7025 -13.4895 -11.54 -10.495 -10.688 -14.4365 -9.908501 
-6.868 -6.3435 -8.2735 -8.3085 -11.4128 -9.945001 -10.557 -13.6546 -11.4151 -11.5228 -15.6785 -12.124 -14.0975 -14.3976 -17.4349 -15.076 -18.4866 -15.4281 -14.683 -13.1385 -13.2155 -12.103 -10.9582 -13.0317 -18.9273 -15.9855 -16.026 -16.54 -14.8705 -17.5175 -14.4365 
-6.9415 -8.277 -9.139 -13.3359 -13.2028 -10.557 -16.2041 -15.2107 -13.6304 -16.4518 -18.3075 -15.867 -18.6471 -19.4951 -18.4489 -22.9266 -20.4301 -19.3536 -15.1345 -18.6205 -15.338 -14.4182 -14.7874 -19.0372 -23.2103 -18.522 -21.026 -20.9155 -21.7 -17.5175 
-1.934 -3.669 -1.7565 -3.766 -4.189 -1.7565 -5.1845 -7.643 -2.4285 -5.43 -4.2775 -3.59 0 -2.664 -4.101 -4.6225 -2.7415 -4.4825 -2.5045 -4.628 -4.743 -2.0935 -1.4985 -3.814 -3.06 -3.277 -3.458 -1.8085 -8.4405 -7.3695 -1.756 -1.4985 -3.5435 0 
-5.8075 -5.46 -5.1285 -6.185 -4.7985 -6.580501 -9.794001 -11.136 -7.580501 -10.0285 -7.607 -3.59 -2.664 -5.3075 -8.425501 -6.692501 -8.028501 -6.14 -7.1925 -4.7515 -7.322001 -2.9725 -4.198 -5.59 -5.0585 -6.393001 -5.0385 -10.0645 -16.198 -8.3855 -3.0405 -4.2755 -3.5435 
-8.896001 -9.9805 -7.5235 -7.158 -10.2757 -10.0345 -13.548 -16.288 -12.3696 -13.551 -7.607 -6.792 -5.3075 -8.955 -10.451 -12.4361 -9.631001 -10.76 -8.241 -7.329 -8.1525 -5.1435 -6.03 -6.335001 -8.1995 -8.686501 -13.8355 -18.0718 -17.214 -9.26 -5.7305 -4.2755 
-13.3485 -12.4543 -9.053 -13.3672 -13.7297 -14.1753 -18.7 -21.0771 -15.8921 -13.551 -11.32 -9.9305 -8.955 -11.0721 -16.1946 -14.0386 -14.3062 -11.8085 -10.476 -8.161 -9.502501 -6.868 -6.3435 -9.7255 -10.76 -17.6107 -21.8428 -19.0878 -18.0885 -12.0048 -5.7305 
-15.8223 -13.9838 -15.1938 -16.8212 -17.8705 -19.3273 -23.4891 -24.5996 -15.8921 -17.264 -14.4585 -13.578 -11.0721 -16.8157 -17.7971 -18.7138 -15.3547 -14.0435 -11.308 -9.5155 -10.7615 -6.9415 -9.727 -12.3832 -19.6842 -25.618 -22.8588 -19.9623 -20.8333 -12.0048 
-3.766 -4.833 -2.4285 -3.7285 -4.87 -4.347 -2.5045 -3.06 -3.277 -1.934 -4.628 -6.739501 
-9.5485 -6.7065 -6.114 -8.625 -9.3725 -7.234 -5.6105 -5.0585 -4.8125 -5.9605 -10.6215 
-11.722 -11.55 -11.4279 -13.2615 -12.3327 -9.854 -7.653 -6.4145 -8.9175 -12.9808 
-16.5655 -16.8639 -16.0644 -16.2217 -14.9527 -11.8965 -9.6155 -10.459 -15.9432 
-21.8794 -21.5004 -19.0246 -18.8417 -16.9952 -13.859 -13.69 -17.3377 
