-4.759 
n/a 
n/a 
n/a 
n/a 
-4.759 
n/a 
n/a 
n/a 
n/a 
-4.759 
n/a 
n/a 
n/a 
n/a 
-4.759 
n/a 
n/a 
n/a 
n/a 
-2.3335 -3.8195 -2.0935 -7.568501 0 -3.432 -3.074 -3.2945 -4.2305 -1.4985 -3.432 -2.9775 -1.7695 -5.2125 0 
-6.500501 -6.066 -11.0465 -7.568501 -3.432 -7.0295 -7.315001 -7.482 -5.232 -4.829 -6.34 -4.6995 -7.6895 -5.2125 
-8.648001 -15.6026 -11.0465 -11.6371 -7.0295 -11.7849 -11.9549 -8.549 -8.8555 -8.302501 -8.5775 -12.0115 -7.6895 
-18.4776 -15.6026 -15.1151 -15.2346 -11.7849 -16.4248 -13.0219 -12.8599 -12.6436 -11.1774 -15.9641 -12.0115 
-18.4776 -19.6712 -18.7126 -19.99 -16.4248 -17.4918 -17.3328 -16.648 -15.5185 -18.564 -15.9641 
-2.4265 -3.423 -2.489 -1.4985 -3.213 -1.7565 -2.664 -3.8755 0 -1.8085 -3.0435 -2.4285 -2.8965 -3.9235 0 -1.756 -2.186 -4.5375 -4.3305 -1.7695 -3.135 -4.015 -3.7695 -2.4285 -4.0535 -2.9995 -3.4605 -2.7765 -4.3185 -1.8085 -5.557 -1.7695 -2.9995 -2.8965 -3.4605 0 -3.0415 -1.4985 -5.069 -3.458 -3.8755 -3.609 0 -2.5045 -5.0575 -2.3345 -1.4985 -3.2945 0 -2.882 -4.2125 -2.489 -5.831 0 
-4.7235 -4.122 -3.9675 -4.3955 -4.766 -3.9595 -4.763 -3.8755 -1.8085 -4.549 -5.234 -4.1405 -6.3655 -3.9235 -1.756 -3.986 -5.4895 -8.6035 -4.7 -4.779 -6.5365 -6.5705 -5.9285 -6.5005 -7.0165 -6.109 -6.1475 -5.8745 -5.34 -6.345 -6.4985 -4.358 -4.1905 -6.202001 -3.4605 -3.0415 -4.5735 -5.7005 -5.575 -6.516 -6.815001 -3.609 -2.5045 -6.868 -6.2865 -3.233 -4.303 -3.2945 -2.882 -6.349501 -6.008 -7.5085 -5.831 
-5.1355 -5.532 -7.0055 -5.009 -6.8515 -5.7215 -4.763 -6.5155 -4.549 -5.983 -6.922 -6.857 -6.3655 -5.2145 -3.986 -7.0085 -9.0185 -8.769 -7.832 -7.7145 -9.014001 -7.6875 -8.698501 -9.4755 -10.4675 -8.427 -9.147501 -6.907001 -8.597 -6.86 -8.577001 -5.532 -6.6135 -6.202001 -6.293 -4.5735 -8.261001 -5.968 -8.4715 -9.2775 -6.815001 -5.955 -6.868 -6.9895 -6.748001 -5.4985 -4.303 -5.9465 -6.349501 -6.8015 -9.2865 -7.5085 
-6.465 -8.423 -7.055 -6.9595 -8.3365 -5.7215 -6.955501 -8.635 -5.983 -7.9875 -7.893001 -6.857 -8.0535 -6.9355 -7.0085 -10.4765 -9.057 -10.419 -9.724501 -10.025 -9.97 -9.358001 -10.5975 -10.5985 -10.6235 -10.564 -10.131 -10.057 -8.8025 -8.8895 -9.776 -7.872 -6.6135 -8.942501 -7.936001 -8.261001 -8.606001 -8.8225 -10.494 -9.2775 -8.727 -10.3345 -6.9895 -7.4055 -8.21 -5.4985 -6.268001 -9.4525 -6.8015 -10.1075 -9.2865 
-9.014 -8.462501 -8.377501 -8.465 -8.3365 -8.008 -8.723001 -9.138 -7.9875 -8.89 -7.893001 -8.613501 -9.6105 -10.0035 -10.4765 -10.5 -10.5045 -10.4395 -10.377 -10.416 -10.4315 -10.5985 -10.617 -10.63 -10.6435 -10.582 -10.5605 -10.3275 -10.495 -10.0375 -10.184 -7.872 -9.1785 -10.322 -10.5745 -8.606001 -10.543 -10.553 -10.494 -10.4855 -10.586 -10.378 -7.4055 -8.620501 -8.21 -8.321501 -9.624001 -10.1195 -10.1075 -10.1075 
-2.0935 -4.369 -2.0935 -4.015 -5.1465 -3.9515 -1.756 -2.8965 -3.681 -2.4945 -4.3325 -2.3345 -3.135 -3.16 -2.9825 -3.4265 -4.2915 
-5.6195 -6.792001 -6.0345 -8.477001 -8.852 -5.1495 -3.751 -5.023 -5.112 -5.995501 -7.053 -5.141 -6.429 -3.8965 -5.1375 -7.462501 
-8.097501 -11.3368 -11.1617 -12.4135 -10.209 -6.9015 -6.111 -7.0175 -9.0345 -7.7825 -9.58 -8.3475 -7.732501 -5.5875 -9.885 
-13.1185 -16.464 -15.0982 -13.7705 -12.1502 -8.843 -8.01 -11.1274 -10.634 -10.4505 -12.8225 -10.0095 -9.718 -10.403 
-18.2457 -20.4005 -16.4552 -15.7117 -14.0917 -10.9232 -12.1991 -12.7269 -13.8692 -13.693 -14.4845 -11.995 -14.5335 
-3.6965 0 -3.47 -1.7565 -2.3335 -2.9775 -4.4475 -3.0415 -2.3335 -2.4265 -2.186 -4.079 -1.7695 -1.4985 -3.2945 0 
-3.6965 -3.47 -5.5055 -4.314 -5.673 -7.1815 -7.516 -4.132 -3.913 -3.292 -5.386 -5.261 -2.7955 -4.303 -3.2945 
-7.329 -5.5055 -8.0515 -6.9045 -9.4315 -11.2306 -8.002501 -5.238 -4.5215 -6.0715 -6.048 -6.4625 -5.3725 -4.303 
-10.2091 -8.0515 -11.145 -10.8978 -13.9836 -11.7171 -9.410501 -6.052 -7.535 -6.272501 -7.618 -8.06 -5.3725 
-12.7551 -11.145 -15.1383 -15.4499 -14.4701 -13.1251 -10.1475 -8.7275 -7.811501 -8.669001 -8.893001 -8.06 
