-4.759 
n/a 
n/a 
n/a 
n/a 
-4.759 
n/a 
n/a 
n/a 
n/a 
-4.759 
n/a 
n/a 
n/a 
n/a 
-4.759 
n/a 
n/a 
n/a 
n/a 
-4.9045 -4.4295 -3.6825 -3.699 -3.6765 -2.7455 -5.4425 -6.5625 -5.5965 -4.031 
-7.6885 -9.438 -8.3535 -6.846 -6.7935 -8.507 -7.282 -12.955 -9.399501 
-12.9976 -14.2404 -12.0489 -10.3035 -13.1954 -10.533 -14.2133 -16.758 
-17.8 -17.9358 -15.5064 -16.7054 -15.2214 -17.4643 -18.0163 
-21.4954 -21.3933 -21.9083 -18.7314 -22.1527 -21.2673 
-4.567 -5.1145 -1.4985 -3.711 -6.32 -2.0935 -8.881001 -6.5625 -6.189 -5.1005 0 
-11.08 -6.0085 -4.8355 -11.2712 -7.8865 -11.9655 -10.958 -13.5475 -12.2457 -5.1005 
-11.974 -10.6605 -13.0431 -12.8377 -18.1205 -14.0425 -17.943 -19.6042 -12.2457 
-16.626 -18.8681 -14.6096 -23.0717 -20.1975 -21.0275 -23.9997 -19.6042 
-24.8336 -20.4346 -24.8436 -25.1487 -27.1825 -27.0842 -23.9997 
-3.0365 -2.186 -3.845 -1.7565 -3.7535 -2.7455 -1.4985 -3.1385 -3.0695 -3.8385 -1.7695 -2.3615 -3.711 -4.9925 -1.7695 -3.6845 -4.676 -2.0935 -5.7195 -5.4425 -6.5625 
-3.66 -7.268001 -4.13 -5.824501 -5.507 -3.637 -4.2575 -4.286 -8.5655 -4.2965 -3.736 -5.8205 -10.31 -5.272501 -4.2695 -8.387001 -5.712 -7.4735 -12.3208 -7.282 
-7.586 -7.64 -6.851501 -7.048501 -6.095 -5.4385 -5.1225 -10.5535 -9.0165 -5.924 -7.2755 -13.1277 -10.533 -6.909 -8.892 -9.306001 -10.5325 -14.3272 -14.1603 
-7.731 -9.975 -7.376501 -7.623001 -9.625501 -6.8265 -11.6188 -11.0045 -10.7335 -9.593 -14.8205 -13.3507 -12.1695 -12.0813 -9.824501 -14.1405 -17.3862 -16.1667 
-9.991501 -10.408 -7.965001 -10.6465 -10.187 -13.5668 -12.0698 -12.7215 -14.4025 -17.2738 -15.0435 -14.9872 -17.3418 -13.0138 -14.6868 -20.9942 -19.2257 
-1.4985 -5.701 -2.4945 -5.529 -1.7695 -3.9105 -3.5485 -5.4425 -6.5625 -2.7415 -3.687 -2.9905 0 
-6.282001 -7.283 -6.967 -5.6435 -4.925 -6.559501 -9.359 -7.282 -8.714001 -5.694 -5.673 -2.9905 
-7.7355 -10.5035 -7.028501 -7.448 -7.593 -12.9592 -11.4131 -9.127 -11.7959 -6.996 -5.673 
-11.131 -10.5285 -9.250501 -10.7025 -13.8633 -15.0133 -13.2581 -12.2983 -13.0979 -6.996 
-11.156 -12.7505 -12.4582 -16.9728 -15.9174 -16.8583 -16.4294 -13.6003 -13.0979 
