-4.759 
n/a 
n/a 
n/a 
n/a 
-4.759 
n/a 
n/a 
n/a 
n/a 
-4.759 
n/a 
n/a 
n/a 
n/a 
-4.759 
n/a 
n/a 
n/a 
n/a 
-8.3275 -2.7415 -1.4985 -3.0835 -6.6915 -3.7955 -2.0935 -6.705 -5.171 0 
-11.3944 -4.063 -3.535 -9.174001 -10.147 -6.297 -9.06 -7.959001 -5.171 
-12.7159 -5.12 -9.5655 -12.7479 -12.6485 -13.9863 -10.0415 -7.959001 
-13.7729 -11.5623 -13.1988 -15.2494 -20.3378 -14.9678 -10.0415 
-20.2152 -15.1956 -15.7003 -22.9387 -21.3193 -14.9678 
-3.0835 -3.8195 -2.3345 -6.705 -5.171 -2.7415 -6.8715 0 
-6.305 -6.024 -8.369 -7.959001 -7.850501 -10.718 -6.8715 
-8.311001 -12.6487 -9.7655 -10.304 -16.1032 -10.718 
-15.1917 -14.0452 -12.2111 -18.5567 -16.1032 
-16.5882 -16.4908 -20.4638 -18.5567 
-6.705 -5.171 -3.0835 -4.6335 -2.186 -8.3275 
-7.959001 -8.9545 -6.719501 -6.528 -11.08 
-12.0789 -12.8721 -9.324 -15.991 
-15.9965 -15.4766 -18.914 
-18.601 -25.0666 
-8.267 -3.0835 -4.02 -3.7955 -2.186 -8.3275 
-11.9683 -7.286 -8.9075 -5.675 -11.08 
-16.1708 -12.6081 -10.9524 -15.109 
-21.4929 -14.653 -20.3864 
-23.5378 -24.087 
