-4.759 
n/a 
n/a 
n/a 
n/a 
-4.759 
n/a 
n/a 
n/a 
n/a 
-4.759 
n/a 
n/a 
n/a 
n/a 
-4.759 
n/a 
n/a 
n/a 
n/a 
-2.5045 -5.3885 -2.186 -2.871 -1.7565 -1.4985 -3.699 -4.167 -1.7565 -3.8735 -1.756 -1.4985 -3.9515 -1.7565 -5.1845 -5.74 0 -3.0365 -2.4945 -3.0415 -3.3715 -3.4075 -1.756 -3.1715 -3.518 -3.5435 -4.0805 -1.934 -5.3885 0 
-8.4805 -7.7415 -4.247 -3.5385 -2.4195 -5.264 -7.2945 -5.5915 -5.112 -5.3865 -3.0405 -5.059 -5.368 -6.580501 -5.7465 -5.74 -3.0365 -3.688 -4.8175 -4.5985 -6.624001 -5.099 -4.88 -5.772 -7.0715 -6.3025 -5.53 -6.4035 -5.3885 
-10.0965 -9.062 -4.411 -3.7675 -6.063 -8.4175 -8.064 -7.342501 -6.409 -6.375 -6.6575 -5.839 -8.7735 -6.961501 -5.7465 -8.8625 -3.688 -5.549 -5.540501 -8.435 -7.257 -6.4075 -6.805 -8.570001 -9.6525 -7.78 -10.1 -6.4035 
-11.417 -9.098001 -4.5655 -6.646 -8.92 -8.8015 -9.3205 -8.7775 -7.211 -9.4615 -7.525 -9.0115 -8.795 -6.961501 -8.882 -9.267501 -5.549 -5.578001 -9.650001 -9.377001 -8.610001 -7.606501 -9.227 -10.6465 -11.1796 -12.533 -10.1 
-11.453 -9.157001 -7.2785 -9.2875 -9.294001 -10.0925 -10.46 -9.8105 -9.896001 -9.638 -10.0635 -9.024501 -8.795 -9.526501 -9.2775 -10.7505 -5.578001 -9.685 -10.6612 -10.7605 -10.092 -10.31 -11.4807 -12.1736 -15.9326 -12.533 
-5.3885 -2.186 -1.4985 -3.699 -3.8955 -1.756 -1.4985 -3.9515 -1.7565 -6.557 -3.0415 -3.4075 -1.756 -3.8145 -3.5435 -4.3035 -2.186 -1.934 -1.4985 -5.3885 0 
-7.7415 -3.339 -5.264 -7.369 -5.375 -3.0405 -5.059 -5.368 -7.653501 -9.783501 -7.904 -5.099 -5.7855 -6.958 -6.808001 -6.5725 -4.0835 -2.6125 -7.283501 -5.3885 
-8.509001 -6.9335 -9.0045 -9.2165 -6.4145 -6.6575 -5.839 -9.598001 -11.1368 -14.6706 -9.561501 -7.8675 -8.433001 -10.6345 -10.76 -8.673 -4.6915 -8.432001 -7.283501 
-12.5441 -11.2468 -10.66 -10.164 -9.228001 -7.525 -9.887001 -13.2465 -16.0239 -16.3281 -12.198 -9.940001 -12.3565 -14.5865 -12.8605 -9.196501 -10.8574 -8.432001 
-16.8574 -12.9023 -11.6075 -12.9775 -9.342 -11.8202 -13.5541 -18.1336 -17.6814 -18.9646 -14.2705 -13.9299 -16.3085 -16.687 -13.384 -15.5208 -10.8574 
-4.1865 -3.699 -3.2875 -2.229 -2.871 -1.756 -12.16972 -5.594 -1.7565 -5.3885 -2.9995 -3.3755 -3.3715 -3.3035 -2.229 -1.756 -3.7745 -1.756 -3.1715 -3.5435 -3.3035 -2.229 -5.166 -1.934 -5.3885 
-9.8655 -7.2945 -4.958 -5.068 -4.864 -14.93432 -17.76372 -6.9005 -7.235001 -9.335501 -4.873 -6.6575 -7.5535 -4.448 -4.366 -5.3805 -5.367 -4.88 -5.3835 -7.559 -4.448 -7.393 -6.838 -6.4035 
-13.6872 -10.028 -8.315001 -7.1765 -19.03372 -20.52832 -19.07022 -9.9355 -11.545 -11.4408 -8.573 -10.0375 -8.436001 -7.245501 -8.23 -7.0965 -7.430501 -6.6365 -8.989 -9.9355 -9.859 -8.8245 -12.0921 
-16.4207 -13.385 -9.196501 -22.08782 -24.62772 -21.83482 -22.10522 -14.2455 -13.6503 -15.1408 -12.182 -10.1125 -10.168 -11.8005 -9.5155 -9.511001 -8.2325 -10.6816 -12.2553 -15.3465 -11.4669 -14.2636 
-19.7777 -14.2665 -24.69662 -27.68182 -25.93422 -24.86982 -26.41522 -16.3508 -17.3503 -18.7498 -12.257 -13.0749 -14.8502 -13.086 -12.3558 -10.26 -12.514 -13.9479 -17.6663 -16.9544 -16.906 
-2.5045 -5.3885 -2.186 -1.4985 -3.699 -3.2875 -1.756 -1.934 -1.4985 -3.59 -1.756 -3.074 -1.4985 -3.1715 -3.9515 -1.7565 -6.557 0 -3.0365 -2.4945 -3.849 -3.699 -4.3725 -1.7565 -3.1715 -1.756 -3.7745 -3.5435 0 
-8.4805 -7.7415 -3.339 -5.264 -7.2945 -4.9375 -4.0205 -2.6125 -4.268 -5.017 -4.566 -4.6505 -3.994 -6.3005 -5.368 -7.653501 -6.557 -3.0365 -3.688 -5.189 -6.259501 -7.990001 -5.456501 -4.5595 -4.562 -5.3805 -5.717 -3.5435 
-10.0965 -8.509001 -6.9335 -8.6245 -8.803 -7.015 -4.6845 -4.955501 -5.4655 -7.445001 -5.66 -7.435 -6.7585 -7.462 -9.598001 -7.653501 -9.5625 -3.688 -5.231 -7.304 -9.4315 -8.929501 -7.749001 -5.732501 -7.769001 -7.154 -5.717 
-10.864 -12.5441 -10.3345 -10.459 -10.9973 -7.5375 -7.548 -6.094 -7.732 -8.499001 -8.5015 -9.228001 -7.564 -10.717 -9.598001 -10.3675 -10.0025 -5.231 -7.3295 -10.8264 -10.4865 -9.8585 -8.894001 -8.902 -8.429001 -7.154 
-14.8991 -15.9451 -12.169 -12.6533 -11.5198 -8.535001 -8.829 -8.216001 -8.845 -11.5005 -10.396 -9.993 -10.7175 -10.717 -12.4772 -10.9413 -11.5455 -7.3295 -10.8999 -11.8814 -11.4155 -11.0035 -12.1359 -9.453501 -8.429001 
