-4.759 
n/a 
n/a 
n/a 
n/a 
-4.759 
n/a 
n/a 
n/a 
n/a 
-4.759 
n/a 
n/a 
n/a 
n/a 
-4.759 
n/a 
n/a 
n/a 
n/a 
-1.934 -3.5195 -3.2815 -3.034 -4.231 -6.284 -2.5045 -5.1015 -1.8085 -4.144 -1.7565 -4.5435 -5.087 -3.5005 -3.5385 -3.152 -4.424 -1.756 -1.8085 -4.138 -1.7565 -4.674 -3.152 -5.228 0 
-5.009 -5.68 -6.893001 -6.9385 -9.425501 -8.824501 -7.679001 -7.3755 -4.7955 -5.067 -6.6425 -10.0575 -8.222501 -6.3935 -5.624 -8.638 -5.9015 -3.584 -5.0345 -5.1845 -6.6365 -7.702001 -6.564 -5.228 
-7.987 -9.105 -9.903501 -10.4765 -12.4522 -14.2078 -9.7845 -10.7899 -5.159 -8.757 -12.6641 -13.5906 -11.5985 -8.4905 -10.341 -9.6975 -7.787001 -6.259 -5.299 -10.341 -9.8715 -9.3645 -6.564 
-12.0512 -10.3415 -13.8847 -13.8028 -17.8355 -16.3133 -13.4183 -11.1534 -8.7995 -15.107 -16.1972 -16.9666 -13.6955 -13.5173 -11.4005 -11.583 -10.803 -6.5735 -10.3675 -13.576 -11.534 -9.3645 
-13.2877 -14.3529 -17.211 -19.1861 -19.941 -19.9471 -13.7818 -14.7939 -15.1645 -18.6401 -19.5732 -19.0636 -18.7223 -14.5768 -13.286 -14.599 -11.1175 -11.729 -13.6025 -15.2385 -11.534 
-3.5195 -3.2815 -1.934 -5.1015 -4.231 -5.036 -5.3205 -2.9705 -4.493 -5.943501 -4.5435 -5.087 -3.1385 -3.9485 -2.356 -3.3715 -3.5385 -1.756 -2.645 -3.1575 -4.674 -3.1385 -3.7555 -4.874 0 
-5.68 -5.9045 -5.849 -7.148 -10.164 -9.5965 -7.463 -6.708 -9.5915 -10.862 -10.0575 -8.2895 -6.823 -4.311 -5.039001 -5.981 -4.657 -3.898 -3.72 -7.729001 -6.523 -6.461 -7.194 -4.874 
-8.644501 -10.4345 -7.780001 -13.8014 -14.9673 -11.8612 -9.326 -12.4697 -14.583 -16.376 -13.6576 -12.239 -7.288001 -6.4005 -7.7305 -7.1675 -7.4965 -5.4925 -7.778501 -9.327001 -9.449 -9.232 -7.194 
-13.4155 -12.3655 -14.8452 -18.6047 -17.232 -13.7242 -15.1555 -17.4612 -20.097 -19.9761 -17.6071 -12.704 -9.295501 -9.929501 -8.591001 -10.208 -8.297501 -9.382501 -9.3605 -12.3806 -12.3612 -9.232 
-15.3465 -19.4307 -19.6485 -20.8694 -19.095 -19.5537 -20.147 -22.9752 -23.6971 -23.9256 -18.0721 -14.7115 -12.8977 -10.446 -11.5557 -10.5935 -12.3765 -10.9913 -12.4317 -15.2928 -12.3612 
-3.5195 -3.2815 0 -1.934 -1.4985 -5.1015 -3.892 -1.7565 -4.231 0 -2.5045 -3.76 -4.5435 -5.087 -3.5005 -3.5385 -4.493 -1.756 -4.565 -2.4945 -4.874 -1.934 -4.889 -4.299 0 
-5.68 -3.2815 -1.934 -2.6125 -5.92 -8.748 -5.131001 -5.259 -4.231 -2.5045 -3.8195 -8.162001 -10.0575 -8.222501 -6.3935 -7.2035 -5.8585 -5.927 -7.4775 -6.554 -5.694 -7.1155 -6.702001 -4.299 
-5.68 -5.9045 -2.6125 -6.555 -8.949 -10.389 -8.395 -5.259 -6.73 -3.8195 -8.1645 -14.1654 -13.5906 -11.5985 -9.448 -8.599 -7.8615 -8.6185 -9.4425 -7.4465 -8.4115 -8.085001 -6.702001 
-8.644501 -6.71 -6.555 -9.286 -10.554 -13.9172 -8.395 -7.629 -8.150001 -8.1645 -14.1699 -17.6985 -16.9666 -14.653 -11.3443 -10.9284 -9.9725 -9.821501 -10.428 -10.688 -9.25 -8.085001 
-9.3175 -10.9391 -9.286 -10.899 -14.0822 -13.9172 -10.955 -9.2395 -12.6514 -14.1699 -17.703 -21.0745 -20.0211 -16.5493 -13.6737 -13.0394 -10.6025 -10.6365 -13.6695 -11.5265 -9.25 
-3.5195 -3.2815 0 -4.5435 -5.087 -3.1385 -3.5005 -3.5385 -3.152 -4.493 -1.934 -1.8085 -4.889 -4.8115 -4.005 -1.934 -7.160501 -3.4425 -1.7565 -4.231 0 -1.756 -4.565 -1.7565 -3.1385 -4.874 0 
-5.68 -3.2815 -4.5435 -10.0575 -8.2895 -5.9425 -6.3935 -5.624 -5.593 -5.1865 -3.2685 -5.919001 -6.759501 -9.1525 -4.808 -9.1085 -10.5645 -4.5535 -5.259 -4.231 -1.756 -5.927 -4.631 -4.388 -6.954 -4.874 
-5.68 -7.444 -10.0575 -13.6576 -11.3585 -7.5885 -8.4905 -7.319 -6.176001 -6.1955 -7.381001 -7.55 -11.8549 -10.177 -12.6429 -12.7189 -11.6755 -8.596001 -5.259 -5.514501 -5.927 -5.9915 -6.1785 -7.942 -6.954 
-11.0659 -13.319 -13.6576 -16.7266 -13.0045 -9.0305 -9.184 -7.8395 -6.913001 -8.1805 -8.0705 -13.0894 -12.8794 -18.0119 -16.2533 -13.8299 -15.718 -8.596001 -6.2935 -9.874001 -5.9915 -7.6375 -9.192 -7.942 
-16.9409 -16.9191 -16.7266 -18.3726 -14.4465 -9.6595 -9.813001 -8.279 -8.7145 -8.596001 -13.8941 -14.1139 -20.7143 -21.6223 -17.3643 -17.8724 -15.718 -9.697001 -10.553 -9.949001 -7.6375 -10.172 -9.192 
