-4.759 
n/a 
n/a 
n/a 
n/a 
-4.759 
n/a 
n/a 
n/a 
n/a 
-4.759 
n/a 
n/a 
n/a 
n/a 
-4.759 
n/a 
n/a 
n/a 
n/a 

n/a 
n/a 
n/a 
n/a 
-12.16972 -2.9705 -2.186 -1.4985 -3.452 -3.881 -2.356 -1.4985 -3.0785 -1.7565 -6.6335 
-15.14022 -3.89 -3.339 -4.4485 -6.449 -6.013 -3.1615 -4.779 -5.1815 -8.495501 
-16.05972 -5.027 -6.4975 -7.5525 -7.956 -6.762501 -5.297501 -5.2205 -12.3447 
-17.19672 -8.108001 -9.018001 -9.144501 -8.946 -8.144501 -5.3145 -12.4255 
-20.27772 -11.2639 -10.5324 -10.051 -9.986001 -8.157001 -12.5293 
-6.6335 -1.8085 -3.452 -3.4635 -2.3345 -3.881 -3.8315 -5.1995 -3.452 0 
-9.0295 -4.787 -5.8795 -6.1755 -6.1835 -8.7895 -8.571501 -7.791 -3.452 
-12.3012 -8.314501 -10.361 -10.8765 -12.1214 -13.8459 -11.7756 -7.791 
-15.8287 -13.55 -15.062 -16.8144 -17.1778 -17.05 -11.7756 
-21.0642 -18.251 -20.9999 -21.8708 -20.3819 -17.05 
-8.5065 -3.452 -2.8645 -3.881 -2.5195 -6.0755 -7.259501 -3.452 
-10.0815 -5.886 -5.4695 -6.3005 -8.507501 -9.897 -10.8215 
-13.3793 -9.165501 -8.617001 -13.0811 -12.5974 -13.6118 
-16.6588 -12.4818 -15.5048 -17.171 -16.3122 
-19.9751 -19.3696 -19.5947 -20.8858 
