-4.759 
n/a 
n/a 
n/a 
n/a 
-4.759 
n/a 
n/a 
n/a 
n/a 
-4.759 
n/a 
n/a 
n/a 
n/a 
-4.759 
n/a 
n/a 
n/a 
n/a 
-4.1205 -6.864 -2.229 -2.7765 -2.489 -4.3215 -2.5045 -3.5905 -4.3125 0 -12.16972 0 -12.16972 -3.45 -5.6655 -3.098 -2.4945 -3.962 -1.934 -3.5905 -4.245 0 
-10.784 -8.205501 -5.8085 -3.495 -5.414001 -5.2675 -6.0445 -6.1905 -4.3125 -12.16972 -12.16972 -12.16972 -15.61972 -8.4805 -9.7425 -6.168 -5.752 -4.8165 -5.709 -8.007501 -4.245 
-12.1255 -12.6672 -6.424 -6.009501 -6.324 -9.040501 -8.182 -6.1905 -17.36662 -12.16972 -24.33944 -15.61972 -20.65022 -12.8059 -12.8715 -9.803 -6.640501 -8.295 -9.403001 -8.007501 
-16.5872 -13.2827 -8.793501 -7.132 -10.2535 -11.3656 -8.182 -19.51022 -17.36662 -24.33944 -27.78944 -20.65022 -24.97562 -15.9349 -16.5065 -10.6005 -10.1505 -12.1656 -9.403001 
-17.2027 -15.6522 -10.004 -11.0951 -12.5786 -11.3656 -21.90812 -19.51022 -29.53634 -27.78944 -32.81994 -24.97562 -28.10462 -19.5699 -17.304 -14.1105 -14.0211 -12.1656 
-1.4985 -3.9915 -1.7565 -4.6805 -12.16972 -1.756 -12.16972 -2.4945 -3.962 -1.934 -4.5735 -4.245 -2.5045 -3.45 -3.0695 -3.152 -4.3215 -2.5045 -3.45 -5.2115 -1.7695 -3.882 -3.8405 -2.5195 -3.9225 -1.4985 -3.8315 -7.4885 
-5.031 -5.0605 -5.902 -17.98322 -13.92572 -14.93432 -14.66422 -5.752 -4.8165 -5.86 -7.5575 -6.467501 -5.1565 -4.273 -4.8015 -5.672 -5.2675 -5.1565 -7.2155 -5.282 -6.3005 -7.014501 -5.6585 -5.808 -4.463 -4.604 -9.322001 
-5.295001 -8.72 -19.80972 -19.73922 -27.10404 -17.42882 -17.92172 -6.640501 -8.8275 -8.338 -9.432 -9.601501 -6.2235 -5.832 -7.604501 -6.401501 -7.783 -8.380501 -7.221 -9.818501 -9.1625 -9.157001 -9.246 -6.276 -7.339 -9.581 
-8.977 -22.92952 -21.56572 -32.91754 -29.59854 -20.68632 -18.81022 -10.513 -11.1829 -9.972 -12.5778 -10.5055 -7.685 -8.876 -7.888 -8.373501 -10.253 -8.387 -11.9781 -12.6805 -11.9144 -12.9411 -9.775001 -10.0535 -12.7424 
-23.23552 -24.68552 -34.74404 -35.41204 -32.85604 -21.57482 -22.68272 -12.8684 -12.8169 -13.0848 -13.4818 -11.967 -10.513 -9.095 -10.66 -10.8917 -10.262 -13.2453 -14.8401 -15.4324 -15.6985 -13.4701 -13.6955 -15.4569 
-3.9225 -1.4985 -4.253 -7.4885 -4.3215 -2.5045 -3.882 -7.4885 0 -1.4985 -3.9915 -1.7565 -1.4985 -4.6805 -12.16972 0 -12.16972 -2.4945 -3.962 -1.934 -4.245 0 
-4.463 -5.429501 -12.6545 -12.4372 -5.2675 -7.137501 -9.6105 -7.4885 -1.4985 -5.031 -5.0605 -2.4195 -5.733001 -17.98322 -12.16972 -12.16972 -14.66422 -5.752 -4.8165 -5.934 -4.245 
-8.4145 -13.838 -17.6032 -13.3832 -10.0035 -13.0834 -9.6105 -8.967 -5.031 -5.295001 -5.6365 -6.445001 -19.54652 -17.98322 -24.33944 -14.66422 -17.92172 -6.640501 -8.8785 -5.934 
-16.9508 -18.7867 -18.5492 -18.1192 -16.1034 -13.0834 -11.233 -12.7785 -5.295001 -5.749001 -8.6105 -20.52572 -19.54652 -30.15294 -26.83394 -17.92172 -18.81022 -11.0057 -8.8785 
-21.8995 -19.7327 -23.2852 -24.2191 -16.1034 -14.7059 -15.0445 -13.0425 -5.749001 -8.6435 -23.29282 -20.52572 -31.71624 -32.64744 -30.09144 -18.81022 -23.17542 -11.0057 
-1.4985 -6.4185 -3.158 -7.4885 -3.0695 -2.4945 -4.0645 -2.5045 -3.634 -7.4885 -2.4945 -12.16972 0 -12.16972 
-6.940001 -10.3225 -11.7387 -9.5605 -4.2085 -5.095 -5.763 -6.647 -12.4421 -9.8615 -16.09242 -12.16972 -12.16972 
-10.6465 -18.9032 -13.8107 -10.8979 -8.213 -6.435 -10.523 -15.7959 -14.8151 -23.45942 -16.09242 -24.33944 
-19.2272 -20.9752 -15.1481 -14.9024 -9.3135 -11.4418 -19.6719 -18.1689 -28.41302 -23.45942 -28.26214 
-21.2992 -22.3126 -19.1526 -16.0029 -14.3745 -20.5907 -22.0449 -31.76682 -28.41302 -35.62914 
