-4.759 
n/a 
n/a 
n/a 
n/a 
-4.759 
n/a 
n/a 
n/a 
n/a 
-4.759 
n/a 
n/a 
n/a 
n/a 
-4.759 
n/a 
n/a 
n/a 
n/a 
-1.934 -3.0835 -4.153 -3.8245 -9.240001 -8.474501 -5.229 -1.7695 -8.1085 -9.427501 -3.8665 -3.5125 -2.186 -4.3305 -3.6885 -2.186 -3.5905 -2.871 
-5.331 -5.844501 -7.765 -14.3969 -18.0095 -14.2265 -7.2295 -11.1415 -18.4236 -13.6408 -5.3295 -5.685 -7.087 -7.018001 -5.4995 -6.009 -5.867001 
-7.9025 -9.083 -18.6938 -23.1664 -23.7615 -16.227 -17.0177 -21.4566 -22.6369 -15.1038 -7.564 -11.1196 -10.4425 -8.778501 -9.242001 -8.467001 
-12.0334 -20.0828 -27.4633 -28.9184 -25.762 -26.0152 -27.3328 -25.6699 -24.0999 -17.3383 -13.4608 -14.4751 -12.203 -12.8254 -12.1034 
-23.0332 -28.8523 -33.2153 -30.9189 -35.5502 -36.3303 -31.5461 -27.1329 -26.3344 -23.2351 -16.8163 -16.2356 -16.2499 -15.6868 
-6.28 -3.0835 -4.153 -3.511 -1.7695 -9.240001 -5.4135 -1.7565 -8.1085 -9.427501 -3.8095 -1.4985 -5.725 -5.891 -2.186 -3.383 -3.5905 -4.7365 -3.452 0 
-9.105 -5.844501 -8.31 -5.814 -11.9917 -14.9485 -7.351 -10.5535 -18.4236 -13.5838 -5.2515 -7.559 -12.7134 -8.9315 -4.438 -5.951 -7.8655 -7.027 -3.452 
-12.7125 -10.1075 -11.0212 -16.8136 -17.7002 -16.886 -16.8078 -21.3674 -22.5799 -15.0258 -12.0532 -15.0386 -15.7539 -11.3569 -7.0905 -9.852 -10.644 -7.027 
-18.2009 -12.8623 -22.0208 -22.5221 -19.6377 -26.3428 -27.6217 -25.5237 -24.0219 -21.8275 -19.5328 -18.0791 -18.1793 -14.0094 -11.6375 -12.7533 -10.644 
-20.9557 -23.8619 -27.7293 -24.4596 -29.0945 -37.1567 -31.778 -26.9657 -30.8236 -29.3071 -22.5733 -20.5045 -20.8318 -18.5564 -14.5388 -12.7533 
-4.6845 -5.4135 -4.0225 -9.427501 -3.0695 -4.0385 -1.4985 -3.8665 -3.5125 -3.115 -7.143 -5.891 -2.9705 -2.186 -1.934 -4.3305 -3.6885 -2.186 -3.17 -4.1955 -4.5375 -1.934 -3.1015 -1.8085 -3.4795 
-10.8215 -9.7185 -14.9018 -12.8438 -5.686501 -5.3245 -4.915 -5.3295 -7.1255 -11.0336 -7.9895 -9.3835 -3.89 -4.0835 -5.5085 -7.018001 -5.4995 -5.1385 -6.777 -8.5165 -6.324501 -5.5245 -5.0505 -6.392 
-15.1265 -20.9246 -18.3181 -15.4608 -6.2675 -8.903001 -6.1405 -9.304001 -15.2759 -11.8801 -10.647 -10.342 -5.7145 -8.092 -8.602 -8.778501 -8.302 -9.529501 -11.3906 -9.9615 -10.6892 -7.8125 -6.6635 
-26.3326 -24.3409 -20.9351 -16.0418 -10.213 -9.889501 -11.4878 -17.5828 -16.1224 -14.5376 -11.6055 -12.1665 -9.491 -10.31 -10.575 -11.8854 -12.9676 -14.2783 -12.8356 -14.3816 -12.9772 -9.182501 
-29.7489 -26.9579 -21.5161 -19.9873 -10.5715 -15.7306 -19.7666 -18.4293 -18.7799 -15.4961 -13.43 -15.943 -11.6672 -12.5142 -13.6819 -16.551 -17.7164 -15.7233 -17.2557 -16.6696 -14.3472 
-1.4985 -4.6365 -4.571 -2.186 -3.881 -1.934 -3.0835 -4.153 -5.804 -1.934 -4.3305 -2.3345 -5.9575 -10.283 -1.934 -1.4985 -3.098 -1.7565 -7.143 -5.891 -2.9705 -3.757 -3.8665 -3.5125 0 
-5.3015 -10.468 -7.1165 -5.3 -5.05 -5.331 -5.844501 -7.718501 -6.64 -5.5085 -7.4715 -8.9355 -17.4685 -12.217 -2.6125 -4.3095 -4.3615 -9.328501 -7.9895 -9.3835 -5.0605 -7.915501 -5.3295 -3.5125 
-10.7175 -13.0135 -9.344 -5.9715 -8.080001 -7.9025 -7.8385 -9.277501 -11.006 -8.1085 -14.4743 -20.7705 -19.4025 -12.8955 -5.285501 -4.5915 -12.5819 -10.336 -10.647 -10.3825 -9.514001 -9.8351 -5.3295 
-13.263 -15.241 -10.412 -8.707001 -10.647 -9.8745 -9.4895 -12.1175 -12.9764 -15.3047 -26.3093 -22.7045 -20.081 -15.5685 -5.3625 -13.0747 -13.5894 -12.9935 -11.646 -14.836 -11.4436 -9.8351 
-15.4905 -16.309 -13.1475 -11.6198 -12.6085 -11.526 -13.6377 -14.6061 -20.1726 -27.1397 -28.2433 -23.383 -22.754 -15.6455 -14.0133 -14.0822 -16.2469 -13.9925 -16.0995 -16.7656 -11.4436 
