-4.759 
n/a 
n/a 
n/a 
n/a 
-4.759 
n/a 
n/a 
n/a 
n/a 
-4.759 
n/a 
n/a 
n/a 
n/a 
-4.759 
n/a 
n/a 
n/a 
n/a 
-4.51 -5.071 -4.641 -3.098 -2.264 -5.363 -4.246 -4.9175 -6.6115 0 
-10.4265 -8.837501 -6.7135 -5.162 -7.4235 -7.592501 -5.985001 -9.632 -6.6115 
-14.193 -11.2778 -6.772 -10.2385 -9.517 -9.0325 -10.185 -9.632 
-16.6333 -11.3363 -12.5467 -12.332 -11.0472 -13.2901 -10.185 
-16.6918 -17.111 -14.6402 -13.8622 -15.3048 -13.2901 
-3.5445 -8.7565 -3.158 0 -1.934 -3.188 -4.02 -4.46 -2.925 -4.7815 -2.3335 -3.6645 0 -1.7565 -3.1385 -2.4945 -2.5195 -4.167 -2.8965 -3.1575 -5.0575 0 
-13.5312 -12.1701 -3.158 -1.934 -5.387 -5.6805 -6.6655 -7.8625 -6.166 -5.3995 -6.612 -3.6645 -1.7565 -4.388 -4.588 -5.2275 -6.909 -7.302501 -4.4055 -8.860001 -5.0575 
-16.9448 -12.1701 -4.7985 -5.387 -8.1085 -9.814501 -10.0035 -11.4399 -6.786 -9.0345 -6.612 -5.5015 -4.388 -5.892 -7.688001 -9.2015 -9.298 -8.093 -10.4185 -8.860001 
-16.9448 -13.8106 -8.740001 -8.1085 -12.5985 -13.3931 -13.6233 -12.0599 -10.5702 -9.0345 -7.1595 -7.715 -5.892 -9.097 -11.9122 -11.6839 -9.431001 -14.4662 -10.4185 
-18.5853 -17.7521 -11.7229 -12.5985 -16.1771 -17.0129 -14.2433 -15.8441 -10.5702 -9.9925 -8.838 -8.7395 -9.097 -13.5522 -14.3946 -11.8169 -15.8826 -14.4662 
-2.4265 -2.186 -4.1315 -2.3335 -1.934 -5.0095 -2.9905 -1.7565 -3.962 -3.188 -4.02 -3.6645 0 -1.7565 -3.1385 -2.742 -2.489 -1.934 -3.2875 -1.756 -2.6165 -1.934 -3.8955 0 
-3.292 -4.8355 -5.608 -4.468 -6.369 -9.3035 -3.6185 -5.9995 -5.6585 -5.6805 -7.5375 -3.6645 -1.7565 -4.388 -5.1415 -3.301 -4.348 -5.724 -4.9375 -4.2965 -4.552 -5.2425 -3.8955 
-5.7215 -5.8455 -7.4635 -8.472501 -10.1895 -9.4195 -7.5845 -8.6125 -9.117001 -10.281 -7.5375 -5.5015 -4.388 -6.506001 -5.9385 -5.1665 -8.661 -7.3655 -7.6235 -5.9385 -7.9685 -5.2425 
-5.8485 -7.684 -10.199 -12.4938 -10.2505 -13.6015 -11.2303 -12.2474 -13.9123 -10.281 -8.639 -7.715 -6.506001 -7.16 -7.7115 -9.205501 -10.396 -10.6629 -8.975 -9.492001 -7.9685 
-7.686 -10.3095 -14.2561 -12.5548 -14.5661 -17.2473 -14.8652 -17.0427 -13.9123 -11.3825 -11.4299 -9.721001 -7.16 -8.906501 -12.2017 -11.1511 -13.6934 -12.0144 -12.7789 -9.492001 
-2.4265 -2.186 -4.1315 -2.3335 -2.3345 -5.0095 0 -3.6645 0 -1.7565 -1.4985 -3.188 -4.02 -2.742 -3.511 -1.934 -4.167 -1.756 -2.6165 -1.934 -5.0575 0 
-3.292 -4.8355 -5.608 -5.18 -5.8945 -5.0095 -3.6645 -3.6645 -1.7565 -2.4195 -3.619 -5.6805 -6.38 -5.915 -4.582 -5.9285 -5.3535 -4.2965 -4.552 -6.7185 -5.0575 
-5.7215 -5.8455 -7.8065 -7.446 -5.8945 -8.488501 -3.6645 -5.5015 -2.4195 -4.4095 -6.755 -7.943501 -8.0705 -6.684 -7.321 -6.8235 -8.2565 -5.9385 -9.664001 -6.7185 
-5.8485 -7.9425 -9.390501 -7.446 -9.1635 -8.488501 -5.5015 -6.048 -4.4095 -7.032001 -8.194 -9.2675 -8.127501 -8.224 -8.0815 -9.5295 -9.382501 -10.543 -9.664001 
-7.9445 -9.428 -9.390501 -10.204 -9.1635 -9.7955 -6.048 -7.661 -7.032001 -8.639001 -9.332001 -9.2925 -8.516 -9.342 -10.494 -10.132 -14.3092 -10.543 
