-4.759 
n/a 
n/a 
n/a 
n/a 
-4.759 
n/a 
n/a 
n/a 
n/a 
-4.759 
n/a 
n/a 
n/a 
n/a 
-4.759 
n/a 
n/a 
n/a 
n/a 
-2.7295 -4.0555 -1.7695 -3.197 -5.075 -3.0415 -2.3335 -2.186 -3.849 -3.818 -4.1595 
-5.6975 -4.7475 -3.9565 -9.500001 -7.691 -4.132 -3.7085 -4.8565 -7.5085 -7.4145 
-6.2935 -7.408 -9.953501 -12.3372 -8.127501 -6.1585 -6.549 -8.6075 -8.9575 
-8.606501 -14.0308 -12.8813 -12.7737 -10.4598 -9.608 -10.275 -10.2481 
-15.7887 -16.9586 -13.3178 -15.106 -13.9093 -13.3804 -12.227 
-3.1435 -3.8115 -1.7695 -3.197 -2.356 -4.4985 -4.859 -3.5485 -3.1435 -4.379 -2.5045 -3.818 -3.5855 
-8.059501 -3.8325 -3.9565 -6.425 -6.781 -9.749001 -6.023 -6.529 -7.7005 -7.0765 -5.8435 -7.0235 
-8.300501 -5.558 -7.3335 -10.6735 -12.2723 -11.116 -7.575 -10.523 -9.16 -10.9073 -9.0535 
-10.467 -8.769501 -11.6796 -16.1648 -13.6393 -12.668 -11.9952 -11.9825 -13.4494 -14.1173 
-13.6785 -13.2756 -17.1709 -17.5318 -15.1913 -17.0882 -13.4547 -16.2719 -16.6594 
-2.7295 -2.7765 -3.326 -2.4265 -4.394 -3.0415 -2.4265 -2.186 -3.264 -1.7695 -2.489 -3.818 -3.5855 
-4.065 -6.779 -5.732 -6.193 -7.1515 -4.551 -3.292 -5.316 -4.908 -3.1405 -5.5385 -7.0235 
-7.8995 -8.116 -9.781 -8.759001 -8.8575 -5.318 -5.862 -5.572 -5.5165 -6.495501 -9.573501 
-9.422 -13.1128 -12.418 -10.2535 -9.5345 -7.8195 -6.729 -5.9005 -8.7775 -9.9405 
-14.2194 -15.7498 -13.9125 -10.9663 -12.1188 -9.0575 -7.047 -9.128 -12.4473 
-2.3615 -2.186 -4.226 -3.5855 -3.0415 -3.1435 -3.849 -3.818 -3.5855 0 
-3.5005 -7.830501 -8.401501 -7.028501 -5.929501 -6.4005 -7.5085 -7.0235 -3.5855 
-9.558001 -12.4576 -12.3263 -9.9665 -9.223001 -9.854501 -9.555 -7.0235 
-14.3581 -16.3824 -15.2643 -13.26 -12.7232 -12.2064 -9.555 
-18.2829 -19.3204 -18.5578 -16.7602 -15.0751 -12.2064 
