-4.759 
n/a 
n/a 
n/a 
n/a 
-4.759 
n/a 
n/a 
n/a 
n/a 
-4.759 
n/a 
n/a 
n/a 
n/a 
-4.759 
n/a 
n/a 
n/a 
n/a 
-3.531 -2.789 0 -5.167 -4.328 -8.186001 -8.234 -4.5715 -1.4985 -4.698 -2.3335 -4.588 -4.744 -3.152 -4.493 -1.756 -5.312 -4.874 -1.934 -1.4985 -3.6905 -1.7565 -3.5715 0 
-5.552 -2.789 -5.167 -8.625 -8.5895 -17.2984 -13.3991 -5.9335 -5.740001 -6.8675 -8.3625 -9.6385 -6.309 -5.593 -5.8585 -8.4725 -11.046 -5.694 -2.6125 -4.7535 -5.23 -5.548 -3.5715 
-5.552 -8.4345 -8.625 -12.9739 -18.3579 -22.4635 -14.7611 -9.2025 -7.803501 -13.2013 -13.5914 -11.2553 -7.0505 -6.381001 -13.644 -14.3771 -11.866 -6.5475 -6.031 -5.5765 -6.744 -5.548 
-12.3993 -12.2835 -12.9739 -22.7423 -23.523 -23.8255 -18.0301 -9.4565 -14.2913 -18.4302 -15.2082 -11.9968 -7.694001 -14.6149 -19.5486 -15.1971 -12.7195 -10.347 -6.32 -6.825 -6.744 
-16.2483 -16.6324 -22.7423 -27.9074 -24.885 -27.0945 -18.2841 -16.2507 -19.5202 -20.047 -15.9497 -12.6403 -16.4233 -20.5195 -20.3686 -16.0506 -16.519 -10.7435 -7.5505 -6.825 
-12.16972 -2.789 0 -4.588 -7.6565 -2.4945 -4.493 -1.934 -3.5715 -1.756 -5.312 -7.6565 -2.4945 -4.9125 -3.264 -4.432 -4.328 -9.698001 -12.16972 
-14.95872 -2.789 -4.588 -12.6493 -9.610001 -6.256001 -5.1865 -5.0835 -5.935 -8.4725 -13.5843 -9.610001 -6.6 -8.519501 -7.4505 -4.899 -15.3232 -22.23032 
-14.95872 -6.888 -12.6493 -14.6028 -13.5865 -7.058001 -8.409 -6.419001 -13.5641 -16.9154 -15.5378 -13.9305 -9.940001 -12.775 -7.635 -16.603 -27.85552 
-19.05772 -15.3507 -14.6028 -18.5793 -14.3885 -10.7077 -9.878 -14.1819 -22.007 -18.8689 -19.8583 -17.2705 -14.1955 -12.9595 -19.9356 -29.13532 
-27.52042 -17.3042 -18.5793 -19.3813 -18.0382 -12.1767 -17.6905 -22.6248 -23.9605 -23.1894 -23.1983 -21.526 -14.38 -25.2601 -32.46792 
-3.531 -7.221 -4.328 -9.185 -7.9645 -7.796 -3.264 -1.934 -1.4985 -4.698 -3.098 -1.934 -1.4985 -3.6905 -1.7565 -3.5715 -4.588 -4.257 -3.6385 -4.493 -1.756 -5.312 -3.1385 -2.4945 -3.0465 -4.874 
-10.7015 -8.4055 -14.8102 -17.6319 -16.3197 -10.884 -4.965 -2.6125 -5.740001 -8.011001 -4.746 -2.6125 -4.7535 -5.23 -5.548 -8.725 -9.567 -7.4845 -6.2425 -5.8585 -8.4725 -8.609501 -4.588 -6.7005 -7.018001 
-11.2465 -19.812 -23.2571 -25.9871 -19.4077 -12.585 -5.8295 -6.765501 -8.89 -9.290001 -5.431 -6.031 -5.5765 -6.744 -10.3995 -14.3498 -12.9531 -10.0505 -8.4515 -13.644 -11.9406 -10.368 -9.2295 -11.4026 
-22.7833 -28.6047 -31.6123 -29.0751 -21.1087 -13.4495 -9.2335 -9.619 -10.1635 -9.868501 -8.7255 -6.32 -6.825 -11.7655 -16.0243 -17.7359 -15.5191 -12.2039 -16.6404 -17.1121 -13.6991 -15.2533 -13.8572 
-31.2302 -36.9599 -34.7003 -30.7761 -21.9732 -16.8535 -12.3776 -10.9961 -10.54 -13.2294 -8.9455 -7.5505 -11.8785 -17.3903 -19.4104 -20.3019 -17.6725 -20.3928 -20.1085 -18.8706 -18.5844 -19.881 
-3.531 -2.789 0 -4.432 -4.328 -6.88 -4.628 -12.16972 -4.5715 -1.4985 -4.698 -2.3335 -1.934 -1.4985 -3.6905 -1.7565 -3.5715 -4.3075 0 -4.588 -4.744 -3.152 -4.493 -1.756 -5.312 -4.744 -3.152 -4.874 0 
-5.552 -2.789 -4.432 -4.899 -12.5052 -9.9895 -18.25312 -16.74122 -5.9335 -5.740001 -6.8675 -4.468 -2.6125 -4.7535 -5.23 -5.548 -8.245501 -4.3075 -4.588 -9.6385 -6.309 -5.593 -5.8585 -8.4725 -11.0145 -6.309 -6.21 -4.874 
-5.552 -7.9385 -4.899 -13.785 -15.6147 -23.61462 -22.82462 -18.10322 -9.2025 -7.803501 -8.955001 -5.0815 -6.031 -5.5765 -6.744 -9.029 -8.245501 -8.981501 -9.6385 -11.2553 -7.0505 -6.381001 -13.644 -14.3456 -12.5795 -8.067501 -6.21 
-10.564 -8.621 -13.785 -16.8945 -29.23982 -28.18612 -24.18662 -21.37222 -9.4565 -9.765 -9.4925 -8.1835 -6.32 -6.825 -9.1945 -9.029 -13.1011 -14.3172 -11.2553 -11.9968 -7.694001 -14.6149 -19.5171 -15.9106 -14.338 -8.067501 
-11.2465 -17.8528 -16.8945 -30.51962 -33.81132 -29.54812 -27.45562 -21.62622 -11.7244 -10.391 -12.7181 -8.297001 -7.5505 -9.207001 -9.1945 -13.9246 -18.4368 -15.934 -11.9968 -12.6403 -16.4233 -20.488 -21.0821 -17.6691 -14.338 
