-4.759 
n/a 
n/a 
n/a 
n/a 
-4.759 
n/a 
n/a 
n/a 
n/a 
-4.759 
n/a 
n/a 
n/a 
n/a 
-4.759 
n/a 
n/a 
n/a 
n/a 
-1.7695 -4.7425 -3.091 -4.6335 0 -2.9805 -3.074 -4.0835 -1.8085 -3.9515 -3.2875 -8.3765 -7.406 -8.911 0 
-5.1745 -6.7115 -6.576 -4.6335 -2.9805 -4.8805 -6.584001 -5.547 -5.7485 -5.783 -12.8114 -9.7435 -9.836 -8.911 
-6.956 -8.4595 -6.576 -7.0695 -4.8805 -7.749001 -7.3345 -9.611 -7.4685 -16.0839 -14.1784 -9.855 -9.836 
-8.612 -8.4595 -8.272 -8.559501 -7.749001 -8.242001 -11.4443 -10.324 -18.0874 -17.4509 -14.2899 -9.855 
-8.612 -9.910501 -9.536 -11.6822 -8.242001 -12.4668 -12.1573 -20.9429 -19.4544 -17.5624 -14.2899 
-6.9945 -1.7695 -8.601501 -3.091 -4.6335 -2.9805 -3.8755 -3.091 -3.9515 -2.5045 -8.3765 -7.406 -8.911 
-7.1835 -9.0635 -10.647 -6.576 -7.0695 -6.089001 -6.87 -6.9945 -6.401 -11.136 -9.7435 -9.836 
-15.0845 -11.1424 -14.132 -8.272 -10.459 -7.577001 -10.5535 -9.0565 -15.6171 -12.503 -9.855 
-17.1634 -14.6274 -15.828 -11.7159 -11.947 -11.3683 -12.6155 -18.4168 -16.9841 -12.6145 
-20.6484 -16.3234 -19.2719 -13.2039 -15.7383 -13.4303 -21.9758 -19.7838 -17.0956 
-1.7695 -5.12 -3.091 -4.6335 -2.9805 -4.834 -1.8085 -3.9515 -3.2875 -4.281 -8.3765 -7.406 -8.911 
-8.914001 -6.719501 -6.576 -7.0695 -7.379001 -6.421 -5.7485 -5.783 -7.497001 -12.9741 -9.7435 -9.836 
-10.7025 -8.458501 -8.272 -11.7386 -7.923501 -10.5035 -7.4685 -9.4545 -16.4681 -14.3411 -9.855 
-12.4415 -10.6125 -12.9955 -12.2831 -12.132 -12.2235 -10.3095 -18.5784 -17.8351 -14.4526 
-14.5955 -15.336 -13.54 -16.4916 -13.852 -15.0645 -19.5068 -19.9454 -17.9466 
-1.934 -3.333 -1.7695 -4.7425 -3.091 -4.6335 0 -2.9805 -4.09 -1.8085 -3.2875 -4.281 0 -8.3765 -7.406 -6.864 -7.135 0 
-3.9835 -4.022 -5.1745 -6.7115 -6.576 -4.6335 -2.9805 -6.238 -5.1625 -5.0185 -7.497001 -4.281 -8.3765 -9.7435 -10.884 -14.7868 -7.135 
-4.0425 -7.625 -6.956 -8.4595 -6.576 -7.0695 -6.238 -6.8335 -9.205501 -8.204 -7.497001 -12.9741 -9.7435 -13.8645 -18.8068 -14.7868 
-7.634 -9.392 -8.612 -8.4595 -8.272 -10.5976 -6.8335 -11.0951 -12.549 -8.204 -16.4681 -14.3411 -13.8645 -21.7873 -18.8068 
-9.3935 -11.0404 -8.612 -9.910501 -11.8545 -11.1931 -11.0951 -14.4386 -12.549 -17.2267 -17.8351 -18.4621 -21.7873 -21.7873 
