-4.759 
n/a 
n/a 
n/a 
n/a 
-4.759 
n/a 
n/a 
n/a 
n/a 
-4.759 
n/a 
n/a 
n/a 
n/a 
-4.759 
n/a 
n/a 
n/a 
n/a 
-5.501 -6.614 -2.186 -3.689 -5.285 -3.1575 -7.523 -2.0935 -1.8085 -3.7375 -5.2475 -1.7565 -4.5445 -1.7565 -3.277 0 -2.872 -3.2615 -2.3615 -4.425 -4.775 -6.4465 -3.1575 -7.523 -2.3615 -2.186 -3.433 -1.4985 -11.4295 -5.501 -5.465 -2.186 -5.1915 -3.1575 -7.523 0 -2.872 -3.851 -1.7695 -4.7285 -5.6535 0 -1.4985 -5.637 -6.614 -2.186 -2.645 -5.285 -3.1575 -1.4985 -7.523 
-7.709001 -7.9915 -4.993 -6.907001 -7.23 -10.3285 -10.1 -3.385 -3.8995 -7.078 -5.360001 -5.5185 -4.771 -5.0515 -3.277 -2.872 -5.3645 -5.276 -6.3435 -6.4875 -9.384001 -7.278 -10.3285 -9.5465 -3.5005 -5.0505 -4.3795 -10.907 -14.597 -7.145501 -6.901 -6.773001 -6.241 -10.3285 -7.523 -2.872 -6.02 -4.0015 -6.7485 -8.031501 -5.6535 -1.4985 -6.3745 -8.1115 -7.9915 -4.528 -6.984 -7.23 -4.1355 -7.940001 
-8.922501 -10.264 -7.684 -7.484 -10.7595 -12.9055 -11.3915 -5.119 -7.1285 -7.1205 -6.165501 -5.6275 -6.377 -5.0515 -5.418 -5.3645 -7.2165 -9.4565 -7.966 -10.6215 -10.3789 -15.014 -12.352 -10.2825 -5.452 -5.8175 -14.272 -16.6611 -16.3551 -8.327001 -10.0965 -7.199501 -14.0702 -10.3285 -9.8675 -6.02 -6.032001 -7.4045 -9.228001 -8.031501 -7.2955 -6.3745 -8.699 -9.497001 -10.2085 -7.929501 -7.677501 -7.8465 -9.964001 
-11.3534 -10.618 -7.915501 -11.2021 -13.3365 -14.197 -13.1255 -8.910001 -7.1675 -8.429501 -6.257501 -7.1965 -6.377 -6.8195 -7.7275 -7.2165 -11.7164 -11.2246 -13.1082 -11.6164 -18.1149 -17.0375 -13.088 -12.234 -6.0405 -15.7858 -19.5151 -18.3056 -17.5366 -11.7937 -10.5815 -15.2359 -14.0702 -12.673 -13.1637 -6.032001 -10.389 -9.343 -9.228001 -9.744 -12.4369 -8.699 -9.836 -11.714 -13.61 -8.2415 -8.324 -10.7175 
-11.7074 -10.778 -11.905 -13.7791 -14.628 -15.931 -16.9165 -8.943001 -8.481501 -8.5765 -7.8725 -7.1965 -8.215 -9.234 -9.449 -11.7164 -13.4845 -16.3668 -14.1031 -19.3524 -20.1384 -17.7735 -15.0395 -12.8225 -16.0662 -21.0289 -21.1596 -19.4871 -21.0033 -12.2787 -18.6179 -15.2359 -16.4147 -15.9692 -13.1757 -10.389 -12.3275 -9.343 -10.622 -14.8854 -14.7614 -9.836 -12.053 -15.1155 -13.922 -8.914001 -11.2116 
-6.0765 -4.8155 -3.952 -2.264 -1.4985 -8.9875 -4.35 -2.3615 -4.502 -2.186 -2.6165 -3.383 -3.818 -1.756 -2.925 -2.4945 -5.381 -2.356 -1.4985 -6.0765 -4.8155 0 
-7.067 -7.941501 -5.2985 -2.9195 -10.31 -14.0153 -6.673 -7.044001 -6.2555 -3.5105 -5.2735 -5.4155 -5.451 -4.2585 -3.7675 -7.568 -7.726 -3.1615 -7.113501 -7.067 -4.8155 
-8.809001 -9.908001 -6.6105 -12.1136 -15.3378 -16.3383 -10.564 -7.862 -7.856501 -5.9305 -7.4605 -6.77 -7.429 -5.16 -9.025001 -8.9965 -8.5775 -8.8905 -7.848001 -7.067 
-10.8433 -10.4225 -16.0776 -17.1414 -17.6608 -20.2293 -11.954 -9.1885 -10.243 -7.9845 -8.8525 -8.497001 -8.4795 -10.403 -10.5281 -10.119 -14.4655 -9.956 -7.848001 
-11.3578 -19.8896 -21.1054 -19.4644 -21.5518 -21.6193 -13.2805 -11.9624 -12.297 -9.316501 -10.609 -9.4245 -13.8479 -11.9061 -11.6506 -16.007 -15.531 -9.956 
-6.0765 -4.502 -4.6175 -3.7515 -5.4395 -4.502 0 -3.1495 -4.8155 -2.4945 -7.3385 -2.872 -4.0205 -4.285 -3.892 -4.692 -3.277 -1.7695 -3.952 -3.6215 -4.8155 
-7.442 -8.2535 -7.8365 -9.764 -10.8805 -4.502 -3.1495 -7.174001 -6.3875 -9.3655 -10.533 -6.872 -7.660501 -7.581 -8.823 -6.3935 -4.261 -4.6075 -6.01 -9.151001 
-9.5915 -10.7335 -14.5416 -15.2272 -10.8805 -7.6875 -7.174001 -7.850501 -13.8523 -13.0268 -14.533 -10.485 -11.9781 -13.0486 -10.7495 -6.411 -6.752501 -6.3675 -12.1311 
-12.4641 -17.4386 -20.0048 -15.2272 -14.066 -9.0235 -7.850501 -15.5141 -17.5136 -17.0268 -18.146 -14.8026 -17.4457 -14.9751 -10.785 -8.580501 -8.410501 -12.5914 
-19.1692 -22.9018 -20.0048 -18.4127 -15.402 -9.297001 -15.5141 -19.1754 -21.5136 -20.6398 -22.4636 -20.2702 -19.3722 -15.0106 -12.9545 -10.1185 -14.7158 
-10.638 -3.4815 -2.186 -12.16972 -1.756 -3.3165 -1.7695 -3.952 0 
-14.3345 -5.5125 -15.56612 -13.92572 -4.952 -3.881 -4.6075 -3.952 
-16.3655 -19.45302 -17.32212 -17.12172 -5.6175 -7.986 -4.6075 
-30.30602 -21.20902 -20.51812 -17.78722 -9.6315 -7.986 
-32.06202 -24.40502 -21.18362 -21.80122 -9.6315 
