-4.759 
n/a 
n/a 
n/a 
n/a 
-4.759 
n/a 
n/a 
n/a 
n/a 
-4.759 
n/a 
n/a 
n/a 
n/a 
-4.759 
n/a 
n/a 
n/a 
n/a 
-3.3985 -8.83 -2.229 -4.888 -4.624 -7.302001 -4.5595 -3.539 -3.9615 -9.934 -1.756 -1.4985 -4.888 -1.756 -1.4985 -4.5155 -3.0695 -3.781 -2.4945 -4.424 -2.264 -1.4985 -4.398 
-12.2685 -11.772 -7.181 -8.818501 -12.8075 -12.9105 -7.2635 -6.903 -14.6571 -11.136 -3.0405 -6.04 -6.2395 -3.0405 -5.3345 -6.773 -8.358001 -6.6225 -8.615 -5.6385 -2.9195 -5.363 
-16.2916 -17.4304 -11.4983 -17.6284 -19.2084 -16.5375 -11.1995 -18.0302 -15.8591 -12.4205 -7.756001 -7.47 -7.676 -7.03 -7.581 -12.6667 -11.9073 -13.16 -10.7025 -6.4985 -5.7415 
-21.485 -21.7477 -20.3082 -23.4777 -22.2506 -20.4735 -22.3267 -19.2322 -17.1436 -17.136 -9.280001 -8.193501 -11.9771 -9.132 -13.6837 -16.216 -18.4448 -15.2475 -11.5625 -7.778 
-25.8023 -30.5576 -26.1575 -26.5199 -26.1866 -31.6007 -23.5287 -20.5167 -21.8591 -18.66 -10.2235 -12.715 -14.0791 -15.3377 -17.233 -22.7535 -20.5323 -16.1075 -12.842 
-3.3985 -2.1715 0 -6.899 -3.599 -4.348 -7.341001 -7.416501 -4.2805 -5.404 -3.9615 -12.16972 -1.934 -2.9705 -3.5155 -1.4985 -4.348 -1.756 -1.4985 -5.2325 -4.424 0 
-5.0465 -2.1715 -6.899 -9.1855 -6.297501 -12.714 -16.0196 -11.136 -8.456501 -7.4095 -16.89282 -14.10372 -4.051 -6.081 -4.496 -5.727 -5.797 -3.0405 -5.868 -10.7665 -4.424 
-5.0465 -9.762001 -9.1855 -12.386 -14.5021 -21.4377 -19.9841 -15.312 -9.869501 -20.74962 -18.82682 -16.22072 -6.483 -7.047 -8.3465 -6.914001 -7.1485 -7.592 -11.9158 -10.7665 
-13.8166 -11.9937 -12.386 -21.162 -23.4746 -25.1572 -24.1601 -16.725 -23.20402 -22.68362 -20.94382 -18.65272 -7.3385 -10.586 -8.398 -7.669001 -10.2375 -13.5828 -11.9158 
-16.0483 -15.1942 -21.162 -29.5631 -27.1941 -29.3332 -25.5731 -30.05952 -25.13802 -24.80062 -23.37582 -19.50822 -10.66 -10.6285 -8.5725 -10.41 -16.2283 -13.5828 
-3.3985 -2.1715 -6.6585 -3.599 -3.9665 -3.515 -10.2255 -3.58 -4.2805 -2.186 -4.9125 -3.9615 -9.934 0 -1.4985 -3.58 -1.756 -3.074 -4.888 -4.675 -1.4985 -3.486 -3.5015 0 
-5.0465 -9.3935 -10.6345 -4.743 -7.432 -14.6735 -15.7535 -7.221001 -6.408 -6.2565 -8.774 -14.6571 -9.934 -1.4985 -5.0745 -4.684 -4.566 -9.1695 -10.451 -6.366 -3.5655 -5.8765 -3.5015 
-13.4481 -13.8345 -11.7785 -7.9475 -18.9233 -19.5295 -19.6993 -9.658001 -10.9907 -10.19 -19.6672 -14.6571 -11.4873 -5.0745 -6.146 -7.750501 -10.0315 -14.9267 -12.142 -8.797001 -5.919001 -5.8765 
-17.8891 -14.9785 -14.983 -19.6908 -23.7793 -23.4753 -22.1363 -14.2407 -14.9242 -21.215 -19.6672 -16.2104 -15.0633 -6.146 -9.094501 -13.314 -16.1927 -16.6177 -14.573 -11.4003 -5.919001 
-19.0331 -18.183 -26.7263 -24.5468 -27.7251 -25.9123 -26.719 -18.1742 -25.9492 -21.215 -21.2205 -19.7864 -16.1348 -9.094501 -14.7062 -19.4752 -17.8837 -19.0487 -17.1763 -11.4003 
-3.3985 -2.1715 0 -6.899 -6.3565 -3.319 -2.7035 -4.5175 0 -3.034 -3.325 -3.58 -4.2765 -2.356 -2.664 -4.6105 -1.934 -9.934 0 -1.4985 -4.348 -1.756 -1.4985 -5.517 -4.424 -1.934 -1.4985 -4.6105 0 
-5.0465 -2.1715 -6.899 -10.254 -10.195 -6.3245 -7.5575 -4.5175 -3.034 -6.777 -7.410501 -8.135 -5.3195 -4.135 -5.5265 -6.099501 -10.802 -9.934 -1.4985 -5.727 -5.797 -3.0405 -6.474 -9.852501 -5.195 -2.6125 -5.6245 -4.6105 
-5.0465 -9.762001 -10.254 -14.3287 -13.2005 -11.6843 -7.5575 -7.373001 -6.777 -10.2985 -12.2981 -9.481001 -7.1285 -7.558001 -6.9215 -15.5957 -10.802 -11.4873 -5.727 -6.914001 -7.1485 -8.043 -10.6735 -10.6705 -6.055501 -6.753 -5.6245 
-13.8166 -13.0622 -14.3287 -17.3342 -18.5603 -11.6843 -10.755 -10.1 -10.2985 -15.1861 -13.6441 -11.3288 -8.008 -8.787001 -16.8391 -15.5957 -12.3553 -15.7158 -6.914001 -7.669001 -10.4585 -12.2591 -11.4915 -11.531 -8.1055 -6.753 
-17.1168 -17.1369 -17.3342 -22.694 -18.5603 -14.8818 -13.482 -14.0929 -15.1861 -16.5321 -15.4919 -12.2083 -9.014501 -18.7954 -16.8391 -17.149 -16.5838 -16.9028 -7.669001 -10.522 -14.6746 -13.0771 -12.352 -13.581 -8.1055 
