-4.759 
n/a 
n/a 
n/a 
n/a 
-4.759 
n/a 
n/a 
n/a 
n/a 
-4.759 
n/a 
n/a 
n/a 
n/a 
-4.759 
n/a 
n/a 
n/a 
n/a 
-2.3615 -4.1395 -5.3245 -2.688 -4.1865 -4.085 -1.934 -3.6085 -1.756 -6.0115 -7.2645 -1.934 -6.0115 0 
-5.343 -8.866501 -7.0555 -6.971 -6.323 -6.408 -4.739 -5.232 -8.1005 -8.578501 -9.844501 -7.5935 -6.0115 
-10.494 -10.9257 -12.1699 -7.9125 -8.697001 -8.773001 -5.764 -9.0325 -10.341 -10.575 -15.458 -7.5935 
-12.5532 -16.0401 -13.1114 -9.9665 -10.7575 -10.0965 -9.314 -11.3738 -12.3375 -16.1885 -15.458 
-17.6676 -16.9816 -15.1654 -12.281 -12.081 -13.6465 -11.7383 -13.3703 -17.951 -16.1885 
-2.3615 -4.5005 -3.793 -6.1595 0 -2.688 -4.1865 -4.085 0 -1.934 -3.6085 -1.756 0 -6.0115 -7.2645 0 -1.934 -6.0115 
-6.3915 -8.6455 -10.533 -6.1595 -2.688 -6.971 -6.323 -4.085 -1.934 -4.739 -5.232 -1.756 -6.0115 -8.578501 -7.2645 -1.934 -7.5935 
-10.8701 -15.6539 -10.533 -8.418 -6.971 -7.9125 -6.323 -6.408 -4.739 -5.764 -5.232 -8.1005 -8.578501 -8.578501 -9.844501 -7.5935 
-17.8785 -15.6539 -12.7915 -13.8716 -7.9125 -7.9125 -8.697001 -8.773001 -5.764 -5.764 -9.0325 -10.341 -8.578501 -10.575 -15.458 
-17.8785 -17.9124 -18.2451 -14.8131 -7.9125 -9.9665 -10.7575 -10.0965 -5.764 -9.314 -11.3738 -10.341 -10.575 -16.1885 
-2.3615 -4.5675 -5.3245 -2.688 -4.1865 -4.085 -1.934 -3.6085 -1.756 -6.0115 -7.2645 -2.9195 -3.7425 -1.934 -6.0115 
-6.74 -9.005 -7.0555 -6.971 -6.323 -6.408 -4.739 -5.232 -8.1005 -8.578501 -10.7665 -6.618 -5.7275 -7.5935 
-10.218 -10.9798 -12.1699 -7.9125 -8.697001 -8.773001 -5.764 -9.0325 -10.341 -12.5325 -14.465 -8.250501 -12.0122 
-12.205 -16.0942 -13.1114 -9.9665 -10.7575 -10.0965 -9.314 -11.3738 -14.295 -16.231 -16.0975 -14.6948 
-17.3194 -17.0357 -15.1654 -12.281 -12.081 -13.6465 -11.7383 -15.3278 -17.9935 -17.8635 -22.5418 
-2.3615 -3.3035 -2.688 -4.1865 -4.085 -4.378 -1.934 -6.0115 -8.085501 -4.378 -2.925 -4.839 0 
-5.2995 -6.271 -6.971 -6.323 -7.445 -5.913 -7.5935 -15.2122 -12.9371 -7.4565 -7.284 -4.839 
-8.419001 -10.688 -7.9125 -8.571501 -9.22 -10.4035 -17.175 -20.0638 -16.0156 -12.0345 -7.284 
-12.7816 -11.6295 -10.328 -10.028 -13.8945 -19.985 -22.0266 -23.1423 -20.5936 -12.0345 
-13.7231 -14.045 -11.7845 -14.9011 -23.476 -24.8366 -25.1051 -27.7203 -20.5936 
