-4.759 
n/a 
n/a 
n/a 
n/a 
-4.759 
n/a 
n/a 
n/a 
n/a 
-4.759 
n/a 
n/a 
n/a 
n/a 
-4.759 
n/a 
n/a 
n/a 
n/a 
-1.934 -3.1495 -5.387 -3.0365 -2.4945 -3.3715 -3.989 -1.934 -3.9075 -2.7455 -1.4985 -3.6285 -3.1495 -5.387 -2.4945 -3.533 -3.277 -3.5905 0 
-4.5395 -7.6285 -8.3385 -3.688 -4.846 -6.616 -5.631 -6.6845 -4.644 -3.637 -4.5365 -7.5035 -7.6285 -7.048 -7.075 -6.4985 -4.7035 -3.5905 
-8.941001 -10.0675 -8.7115 -4.8765 -7.981 -8.102 -10.2485 -7.969501 -5.465 -5.379 -7.7935 -12.5181 -8.4095 -12.2925 -9.206 -7.7735 -4.7035 
-11.4384 -10.254 -9.896501 -7.9975 -9.330501 -13.1985 -11.5335 -8.693501 -8.9665 -9.2985 -13.0655 -13.2991 -13.8746 -14.4235 -9.531 -7.7735 
-11.6249 -11.439 -13.0175 -9.3325 -14.7368 -14.4835 -12.2575 -12.622 -13.2182 -14.7355 -13.8465 -18.7642 -16.0056 -14.7485 -9.531 
-3.1495 -3.9535 -2.8645 -4.1585 -2.7455 -4.0215 
-5.7775 -7.242001 -6.0645 -6.271 -6.357 
-8.563 -10.757 -8.7415 -10.4345 
-12.2084 -13.434 -12.9598 
-14.8854 -17.6523 
-3.0365 -2.4945 -3.0415 -3.3715 -3.284 -1.7565 -4.414 -4.154 -2.3615 -2.3615 -2.186 -8.902 -3.5905 
-3.688 -4.8175 -4.5985 -6.843 -4.302 -6.387001 -7.017 -5.435 -5.482 -3.5005 -12.2984 -10.254 
-5.549 -5.540501 -8.354501 -9.227501 -8.6245 -9.067 -8.5105 -8.8695 -6.198 -14.2117 -13.6504 
-5.578001 -9.613501 -10.7486 -10.4195 -11.3491 -10.486 -12.1368 -9.187 -17.1524 -15.5637 
-9.7685 -12.0914 -11.9406 -13.1441 -12.7681 -14.1123 -12.4543 -20.3816 -18.5044 

n/a 
n/a 
n/a 
n/a 
