-4.759 
n/a 
n/a 
n/a 
n/a 
-4.759 
n/a 
n/a 
n/a 
n/a 
-4.759 
n/a 
n/a 
n/a 
n/a 
-4.759 
n/a 
n/a 
n/a 
n/a 
-2.5685 -8.27 -3.8 0 -6.557 -3.5855 -9.6365 0 -3.8735 -4.563 -4.81 -5.4425 -6.5625 -3.5485 -5.5965 
-9.599501 -12.4968 -3.8 -6.557 -9.578 -14.434 -9.6365 -3.8735 -8.901501 -9.696501 -10.432 -7.282 -10.504 -9.0465 
-14.0451 -12.4968 -11.5852 -9.578 -21.3417 -14.434 -13.6362 -8.901501 -15.0671 -15.0275 -11.5045 -11.7623 -16.002 
-14.0451 -20.282 -14.6062 -21.3417 -21.3417 -18.4337 -18.6642 -15.0671 -20.7252 -16.7235 -16.1452 -17.2603 
-21.8303 -23.303 -26.3699 -21.3417 -25.3414 -23.4617 -24.8298 -20.7252 -22.2636 -21.2038 -21.6432 
-2.5685 -3.188 -8.27 -5.425 -4.7605 0 -6.557 -6.0655 -3.5855 -8.35 0 -2.9805 -5.2705 -1.756 -3.188 -5.216 -3.0695 -2.186 -1.4985 -11.128 0 -1.756 -3.8735 -3.7905 -1.8085 -4.9315 -3.519 -2.0935 -2.3615 -3.6385 -7.928 -8.881001 -6.5625 0 -3.5485 -4.567 -4.379 -1.934 -3.711 0 -2.3615 -3.7545 -4.719 -3.321 -3.1015 
-6.2315 -11.08 -14.1218 -10.2925 -4.7605 -6.557 -10.9075 -10.111 -13.1475 -8.35 -2.9805 -7.013 -8.151 -5.351 -8.207001 -8.34 -4.2675 -3.339 -13.7203 -11.128 -1.756 -5.724 -8.159 -4.255 -7.6555 -7.119 -5.6555 -3.854 -5.5465 -10.632 -14.685 -10.958 -6.5625 -3.5485 -6.4235 -10.451 -6.3355 -6.1495 -3.711 -2.3615 -4.897 -9.4735 -7.058001 -6.0165 
-14.8993 -16.9318 -18.9893 -10.2925 -12.3395 -10.9075 -14.953 -19.7454 -13.1475 -11.8461 -7.013 -9.8505 -12.1278 -11.2012 -11.8422 -9.301001 -5.455 -16.0762 -13.7203 -12.884 -5.724 -8.9855 -8.5665 -11.2598 -10.3815 -9.119 -7.766 -7.1045 -12.641 -19.5447 -17.3467 -10.958 -10.504 -6.4235 -13.2561 -12.4075 -11.155 -6.1495 -6.2175 -4.897 -11.4086 -11.9479 -10.0575 
-20.7511 -21.7993 -18.9893 -17.8715 -16.69 -14.953 -24.5874 -19.7454 -16.6436 -15.8786 -9.8505 -13.9655 -17.978 -14.8364 -12.8032 -10.534 -18.8842 -16.0762 -15.4763 -16.852 -8.9855 -10.3545 -15.9095 -13.9858 -12.3815 -11.4433 -11.3089 -14.382 -21.5998 -21.7218 -17.8803 -14.8995 -13.379 -13.2561 -15.2126 -17.227 -11.155 -8.811501 -9.691501 -11.4086 -13.883 -14.9474 
-25.6186 -21.7993 -26.5683 -22.222 -20.7355 -24.5874 -24.5874 -23.2415 -20.6761 -18.7161 -13.9655 -19.8157 -21.6132 -15.7974 -14.0362 -23.9632 -18.8842 -17.8322 -19.4443 -20.1135 -10.3545 -17.9791 -18.6355 -15.9858 -14.7058 -14.9862 -18.644 -23.5089 -23.6768 -21.7218 -21.8218 -17.7745 -20.2116 -15.2126 -20.0321 -17.227 -13.817 -12.4885 -16.5269 -13.883 -16.8825 
-1.4985 -3.7545 -4.978 -2.3335 -2.186 -3.5485 -1.4985 -5.1845 -5.74 -3.5435 -3.0695 -5.165 -2.5685 -1.4985 -8.27 -1.934 -1.4985 -3.188 -2.186 -2.6165 -5.3765 -1.4985 -3.6385 -3.0695 -2.186 -1.8085 -3.5855 -8.1485 -1.756 -3.6845 -4.683 -1.7695 -1.4985 -5.1845 -3.1385 0 -3.6675 -1.8085 -3.535 -3.9825 -3.4625 -3.8735 -1.934 -1.7695 -1.4985 -4.4665 -4.3415 -3.59 -3.849 -5.1405 -3.6385 -13.3705 -6.5625 
-4.606 -8.127001 -7.026 -3.7085 -4.884501 -4.8285 -6.5205 -5.7465 -7.83 -6.597 -7.602 -6.8785 -3.7015 -9.271501 -9.235001 -2.6125 -3.619 -5.1175 -3.5105 -7.5955 -6.588 -4.690001 -4.965 -4.2675 -3.164 -5.6905 -12.946 -9.587001 -5.0105 -9.7705 -7.7615 -2.7955 -6.5205 -7.4095 -3.1385 -3.6675 -4.9975 -5.6195 -6.876 -7.5535 -7.66 -5.938 -4.0395 -2.7955 -4.729 -8.088 -8.150001 -7.2185 -8.7045 -8.151 -15.1415 -13.0105 
-8.7335 -9.5965 -8.4185 -5.388 -5.882 -9.709001 -7.317 -7.8315 -11.3569 -11.4675 -9.404501 -8.3175 -10.5535 -10.3485 -10.329 -4.377 -5.318 -6.419001 -8.494 -8.733 -9.463 -5.4355 -6.174 -5.457 -6.7 -15.8884 -14.3845 -12.8925 -11.4513 -13.1362 -8.931 -7.821001 -7.6315 -7.4095 -6.507501 -4.9975 -8.637 -8.072001 -10.9456 -12.1564 -9.887501 -9.4215 -5.3685 -6.7285 -8.4755 -12.6431 -12.4741 -12.4772 -12.226 -18.3255 -13.645 
-10.051 -10.4775 -9.422001 -6.3695 -10.622 -10.5051 -8.059501 -11.36 -16.2274 -13.27 -10.544 -15.4097 -11.6305 -11.4425 -12.0935 -6.01 -6.588 -11.9419 -9.828 -11.6972 -10.39 -6.8755 -7.464001 -9.2335 -17.3315 -17.3269 -17.69 -19.3333 -14.817 -14.3057 -14.1301 -8.778001 -7.6315 -11.1549 -8.0015 -8.637 -8.748 -12.4378 -15.5485 -14.3839 -13.5774 -10.4355 -9.110001 -10.4675 -13.2154 -16.9672 -17.7328 -15.9987 -20.2705 -16.202 
-11.1588 -12.0354 -10.205 -11.2737 -11.4181 -11.2476 -11.687 -16.2305 -18.0299 -14.4095 -17.6362 -16.4867 -12.7245 -13.207 -13.7265 -7.620501 -12.2627 -13.2759 -12.7922 -12.6242 -11.83 -8.5725 -11.3873 -20.1766 -18.77 -20.6324 -24.1308 -22.699 -15.9865 -19.5048 -15.0871 -8.778001 -11.5361 -12.6489 -11.9036 -8.748 -13.3622 -17.0407 -17.776 -18.0738 -14.5914 -14.177 -13.0868 -15.2074 -17.5395 -22.2259 -21.2543 -24.0432 -20.2765 
-5.1845 -5.74 -3.5435 -2.9705 -2.186 -5.3765 -2.5685 -3.188 -6.4735 -5.353 -2.8645 -2.6165 -4.673 -5.4425 -6.5625 -3.0695 -3.251 -1.8085 -3.383 -3.699 -3.9825 -1.934 -3.737 -3.8735 -2.5045 -1.8085 -4.3415 -4.1265 -1.756 -1.4985 -2.871 -3.0695 -4.5445 -1.4985 -4.75 -1.7565 -6.4735 -1.7695 -1.4985 -3.188 0 
-5.7465 -7.83 -6.098001 -3.89 -6.643001 -7.1195 -6.2315 -9.513 -12.7949 -8.59 -4.475 -6.783 -10.281 -7.282 -8.85 -4.7295 -4.1695 -4.1695 -5.014 -5.406 -4.624 -5.191 -7.8975 -6.3415 -3.3625 -5.6325 -8.280001 -5.591 -3.0405 -4.316 -5.059 -6.426001 -5.716001 -6.035501 -5.9325 -7.466001 -8.0465 -2.7955 -3.619 -3.188 
-7.8315 -10.1305 -6.949 -8.877501 -7.946001 -11.2977 -13.3323 -15.9272 -16.0319 -10.075 -8.606501 -12.884 -12.3033 -9.075001 -10.1855 -5.917 -5.8805 -5.745 -6.7945 -5.6055 -6.872 -9.107 -9.7405 -6.9735 -7.224 -8.8105 -9.558001 -6.403 -5.8825 -5.4975 -8.1195 -7.764501 -9.669001 -6.346 -12.5696 -9.333501 -9.436001 -5.0595 -3.619 
-10.13 -10.604 -12.2503 -10.139 -12.2156 -18.3985 -19.7465 -19.1642 -17.5169 -14.2065 -15.2541 -14.9063 -14.0963 -10.4345 -11.373 -7.7615 -7.9915 -6.851 -6.993 -7.840001 -10.064 -10.6745 -10.197 -8.285001 -9.928 -9.726001 -10.704 -9.525001 -7.0565 -8.3315 -9.3345 -11.9973 -10.2615 -13.0699 -14.4371 -10.244 -11.73 -5.0595 
-10.604 -16.3903 -13.5118 -14.7738 -19.3164 -24.8127 -22.9835 -20.6492 -21.6484 -20.8541 -17.2764 -16.6993 -15.4558 -11.622 -13.2175 -10.0305 -8.81 -7.033 -9.0845 -11.0866 -11.5901 -11.131 -11.5085 -12.458 -10.9259 -10.9326 -13.826 -10.751 -10.328 -9.47 -13.6343 -12.5898 -17.0632 -14.9374 -15.3476 -12.538 -11.73 
