-4.759 
n/a 
n/a 
n/a 
n/a 
-4.759 
n/a 
n/a 
n/a 
n/a 
-4.759 
n/a 
n/a 
n/a 
n/a 
-4.759 
n/a 
n/a 
n/a 
n/a 
-3.851 -1.7695 -9.962501 -3.982 -3.966 
-4.0015 -12.7142 -14.0979 -8.073 
-15.661 -16.8496 -18.1889 
-19.7964 -20.9406 
-23.8874 
-3.433 -1.7565 -4.922 0 -3.982 -3.966 -3.1435 -5.927 0 
-4.1845 -6.054 -4.922 -3.982 -8.073 -6.0375 -7.985001 -5.927 
-9.5625 -6.054 -8.3205 -8.073 -9.382 -9.814501 -7.985001 
-9.5625 -10.223 -12.9681 -9.382 -13.2652 -9.814501 
-13.7453 -14.8706 -14.2771 -13.2652 -13.2652 
-3.982 -3.966 -3.1435 -4.92 -3.433 -1.7565 -4.922 0 
-8.073 -6.0375 -6.657001 -7.9515 -4.1845 -6.054 -4.922 
-9.382 -8.989 -9.571 -8.6745 -9.5625 -6.054 
-12.4397 -10.404 -10.105 -14.4165 -9.5625 
-13.8547 -10.4985 -16.0588 -14.4165 
-7.804 -3.966 -3.1435 -3.7095 -3.433 -1.7565 -1.4985 -4.922 0 
-12.2926 -6.0375 -6.254 -7.089 -4.1845 -2.4195 -5.496 -4.922 
-14.3641 -8.2615 -8.9725 -7.6645 -4.6515 -6.146501 -5.496 
-16.5881 -11.73 -9.9725 -8.217501 -8.516001 -6.146501 
-20.0566 -12.73 -10.3725 -12.1924 -8.516001 
