-4.759 
n/a 
n/a 
n/a 
n/a 
-4.759 
n/a 
n/a 
n/a 
n/a 
-4.759 
n/a 
n/a 
n/a 
n/a 
-4.759 
n/a 
n/a 
n/a 
n/a 
-4.8625 -4.659 -5.8615 -3.115 -6.5655 0 -9.420501 
-9.449 -12.2261 -8.9425 -9.670501 -6.5655 -9.420501 
-17.7181 -15.3071 -15.5784 -9.670501 -16.701 
-20.7991 -21.943 -15.5784 -19.93 
-27.435 -21.943 -25.8379 
-2.872 0 -7.868001 0 -6.5655 0 -3.957 -6.5655 0 -5.198 -2.5685 -2.4945 -4.5385 -2.5045 -4.2235 -5.8615 0 
-2.872 -7.868001 -7.868001 -6.5655 -6.5655 -3.957 -8.638 -6.5655 -5.198 -8.087501 -5.3665 -5.8855 -5.369 -6.778 -10.9575 -5.8615 
-12.037 -7.868001 -15.9895 -6.5655 -10.4945 -8.638 -8.638 -9.928 -8.087501 -10.66 -8.975 -6.5045 -9.709001 -13.917 -10.9575 
-12.037 -15.9895 -15.9895 -10.4945 -15.1755 -8.638 -12.6229 -13.1211 -10.66 -14.2685 -9.466001 -10.9177 -16.9524 -13.917 
-20.1585 -15.9895 -19.9185 -15.1755 -15.1755 -12.6229 -15.816 -15.6936 -14.2685 -14.7595 -13.9894 -18.1611 -16.9524 
-2.872 0 -6.5655 -7.2775 0 -5.198 0 -3.957 -6.5655 0 -2.4945 -4.1205 -2.5045 -1.4985 -9.6365 -5.805 -4.421 0 
-2.872 -6.5655 -14.558 -7.2775 -5.198 -5.198 -3.957 -8.638 -6.5655 -2.4945 -5.191 -5.3175 -3.583 -11.1415 -15.5677 -11.3866 -4.421 
-10.884 -14.558 -14.558 -13.8875 -5.198 -9.202501 -8.638 -8.638 -9.771 -5.191 -6.498 -6.431 -13.398 -17.0727 -21.1493 -11.3866 
-18.8765 -14.558 -21.168 -13.8875 -9.202501 -14.0533 -8.638 -12.4659 -12.5225 -6.498 -7.652 -16.7194 -19.3292 -22.6543 -21.1493 
-18.8765 -21.168 -21.168 -17.892 -14.0533 -14.0533 -12.4659 -15.2174 -13.8295 -7.652 -18.1018 -22.6506 -24.9108 -22.6543 
-3.4765 -5.4265 0 -5.9955 0 -3.957 -5.9955 0 -5.198 -3.849 -5.1845 -3.9675 -4.7385 0 
-10.071 -5.4265 -5.9955 -5.9955 -3.957 -9.127501 -5.9955 -5.198 -9.282001 -8.881001 -8.286 -9.5455 -4.7385 
-10.071 -10.0785 -5.9955 -10.5975 -9.127501 -9.127501 -9.233 -9.282001 -14.5968 -12.2221 -14.1342 -9.5455 
-14.723 -10.0785 -10.5975 -15.768 -9.127501 -12.813 -13.5232 -14.5968 -17.9379 -18.0703 -14.1342 
-14.723 -15.9467 -15.768 -15.768 -12.813 -17.1032 -18.838 -17.9379 -23.7861 -18.0703 
