-4.759 
n/a 
n/a 
n/a 
n/a 
-4.759 
n/a 
n/a 
n/a 
n/a 
-4.759 
n/a 
n/a 
n/a 
n/a 
-4.759 
n/a 
n/a 
n/a 
n/a 
-2.0935 -3.668 -2.4265 -3.9955 -3.277 -1.7695 -2.9635 -3.64 0 
-3.995 -5.731 -7.5035 -6.918 -4.261 -4.09 -6.743 -3.64 
-5.843 -12.0052 -9.9835 -9.127001 -6.630001 -7.656001 -6.743 
-12.1884 -14.4852 -12.2317 -11.734 -10.411 -7.656001 
-14.6684 -16.7334 -14.8387 -15.515 -10.411 
-2.0935 -4.224 -4.911 -3.277 -2.5195 -4.013 -1.4985 -3.64 0 
-6.15 -9.599501 -6.7775 -5.134501 -7.062 -5.9125 -5.3715 -3.64 
-12.0041 -11.5838 -6.8665 -9.229 -8.6185 -8.969 -5.3715 
-13.9884 -11.6728 -11.6802 -10.6745 -11.8332 -8.969 
-14.0774 -16.4865 -13.1257 -13.8892 -11.8332 
-3.668 -3.1495 -3.64 -3.473 -1.7565 -3.277 
-6.8435 -5.471 -6.183001 -4.7225 -4.25 
-9.684 -9.6915 -7.901501 -8.957001 
-14.0307 -10.5155 -13.0982 
-14.8547 -15.7122 
-2.0935 -3.668 -3.345 -4.69 -3.5185 -2.9775 0 
-3.995 -6.8535 -8.9515 -9.5455 -6.6635 -2.9775 
-7.021 -12.6228 -13.896 -13.0215 -6.6635 
-12.8395 -17.5673 -17.372 -13.0215 
-17.784 -21.0433 -17.372 
