-4.759 
n/a 
n/a 
n/a 
n/a 
-4.759 
n/a 
n/a 
n/a 
n/a 
-4.759 
n/a 
n/a 
n/a 
n/a 
-4.759 
n/a 
n/a 
n/a 
n/a 
-2.5685 -5.1845 -3.1385 -2.7415 -4.6085 -1.7565 -3.188 -5.1845 -3.711 -2.9705 -2.7415 -4.541 -3.6515 -3.3255 -1.934 -6.251 0 
-8.3965 -7.4095 -6.375501 -6.449 -5.187 -5.13 -8.0565 -8.8905 -6.2875 -4.512 -6.1245 -8.646 -5.309 -5.9265 -7.327 -6.251 
-9.8225 -9.986501 -10.322 -6.8085 -9.684501 -10.27 -9.4995 -11.6754 -7.2105 -7.761001 -10.6605 -9.2705 -7.64 -11.9277 -7.327 
-12.4175 -13.933 -10.553 -11.6716 -14.8961 -11.713 -12.3402 -12.5984 -10.2585 -12.7156 -11.285 -11.7707 -13.9446 -11.9277 
-16.364 -14.164 -15.4161 -16.8832 -16.3391 -14.5537 -13.2632 -15.6464 -15.4011 -13.3401 -13.7852 -18.0753 -13.9446 
-8.27 -7.633501 -3.794 -1.7565 -12.16972 -9.554501 -2.7415 -3.9595 -3.5015 -1.934 -7.955501 
-16.3303 -12.0979 -4.9225 -14.87542 -21.72422 -12.4174 -5.2105 -5.6235 -4.704 -9.519501 
-20.7947 -13.2264 -19.04682 -24.42992 -24.58712 -14.8864 -8.59 -6.3005 -12.7903 
-21.9232 -27.35072 -28.60132 -27.29282 -27.05612 -18.2659 -9.1735 -14.6454 
-36.04752 -36.90522 -31.46422 -29.76182 -30.43562 -18.8494 -17.4472 
-5.1845 -9.380501 -9.554501 -2.186 -4.683 -1.934 -7.955501 -1.756 -3.1435 -4.3905 -1.4985 -5.1845 -3.1385 -2.229 -4.75 
-10.168 -19.8714 -11.8619 -5.344 -5.473 -9.519501 -9.998001 -4.1365 -7.085 -5.1855 -6.5205 -7.4095 -4.6125 -6.2755 
-21.4043 -22.1788 -15.0199 -6.028 -13.8653 -11.6872 -12.4799 -7.828 -9.530001 -11.1327 -7.6315 -9.0015 -8.697001 
-23.7117 -25.3368 -15.7039 -14.6673 -16.033 -14.1691 -16.1714 -10.3336 -15.5604 -12.2437 -9.2235 -13.3842 
-26.8697 -26.0208 -24.3432 -16.835 -18.5149 -17.8606 -18.677 -16.364 -16.6714 -13.8357 -13.6558 
-8.5295 -7.989501 -9.380501 -9.554501 -3.429 -3.5015 -1.934 -7.955501 0 -5.0305 -3.6 -2.0935 -9.6365 0 
-11.1415 -17.8898 -19.8714 -13.1049 -4.918 -4.704 -9.519501 -7.955501 -5.0305 -7.750501 -5.503 -10.75 -9.6365 
-21.0418 -28.3807 -23.4218 -14.5939 -5.58 -12.7903 -9.519501 -13.4056 -7.750501 -9.137501 -14.7129 -10.75 
-31.5327 -31.9311 -24.9108 -15.2559 -13.9355 -12.7903 -15.0948 -16.1256 -9.137501 -18.6306 -14.7129 
-35.0831 -33.4201 -25.5728 -23.6114 -13.9355 -18.3656 -17.8148 -17.5126 -18.6306 -18.6306 
