-4.759 
n/a 
n/a 
n/a 
n/a 
-4.759 
n/a 
n/a 
n/a 
n/a 
-4.759 
n/a 
n/a 
n/a 
n/a 
-4.759 
n/a 
n/a 
n/a 
n/a 
-3.1495 -8.6885 -3.849 -3.3715 -4.763 -1.7565 -9.311501 0 
-13.1332 -12.7119 -7.367001 -7.296 -5.1985 -12.0172 -9.311501 
-17.1566 -16.2299 -11.9991 -7.744 -16.2812 -12.0172 
-20.6746 -20.862 -12.4471 -18.9671 -16.2812 
-25.3067 -21.31 -23.6702 -18.9671 
-9.463 -10.651 -6.3195 -3.3715 -9.716001 -3.9035 
-20.2754 -16.9705 -9.861 -14.3775 -13.8479 
-26.5949 -20.512 -21.1294 -18.5094 
-30.1364 -31.7804 -25.2613 
-41.4048 -35.9123 
-3.452 -3.881 -1.934 -4.015 -3.6765 -2.3335 -3.452 -4.3185 -3.845 -1.7565 -3.7655 0 
-6.449 -5.05 -4.6075 -6.4525 -5.5955 -6.104 -8.094 -8.939 -4.13 -6.039001 -3.7655 
-7.373 -8.789001 -9.7045 -8.547001 -10.204 -10.3475 -12.9105 -9.190001 -8.320001 -6.039001 
-11.5468 -14.1466 -11.799 -13.4273 -14.6291 -15.164 -13.1615 -13.457 -8.320001 
-16.9044 -16.2411 -16.6793 -17.8524 -19.4456 -15.415 -17.4285 -13.457 
-3.402 -3.893 -3.277 -2.9805 -4.0385 -3.3715 -4.8275 
-4.995 -5.875 -5.713 -5.479 -6.9355 -7.431001 
-7.9405 -7.9715 -8.2155 -7.6745 -11.5724 
-10.396 -10.7175 -10.2985 -12.4728 
-13.142 -12.8005 -15.0968 
