-4.759 
n/a 
n/a 
n/a 
n/a 
-4.759 
n/a 
n/a 
n/a 
n/a 
-4.759 
n/a 
n/a 
n/a 
n/a 
-4.759 
n/a 
n/a 
n/a 
n/a 
-6.5655 0 -12.16972 0 -8.498 0 -6.726 -6.8175 -2.4945 -7.4355 -4.7385 -1.934 -3.8735 
-6.5655 -12.16972 -12.16972 -8.498 -8.498 -6.726 -6.9445 -9.231501 -10.1 -12.5592 -6.686 -4.885 
-19.45022 -12.16972 -20.66772 -8.498 -15.4292 -6.9445 -9.401 -16.9642 -15.2237 -14.5067 -8.862 
-19.45022 -20.66772 -20.66772 -15.4292 -15.6477 -9.401 -17.1323 -22.0879 -17.1712 -16.6827 
-27.94822 -20.66772 -27.59892 -15.6477 -18.1042 -17.1323 -22.256 -24.0354 -19.3472 
-6.5655 0 -7.476501 0 -6.952 0 -6.726 -9.0155 -2.4945 -1.4985 -4.1955 -4.421 -1.7565 -3.8735 0 
-6.5655 -7.476501 -7.476501 -6.952 -6.952 -6.726 -10.1115 -11.7408 -3.9315 -5.036 -7.217501 -6.5275 -5.112 -3.8735 
-10.2815 -7.476501 -8.8255 -6.952 -9.092501 -10.1115 -12.8368 -13.1778 -7.271501 -8.25 -8.428 -9.6675 -5.112 
-10.2815 -8.8255 -8.8255 -9.092501 -12.368 -12.8368 -14.2738 -16.5178 -10.459 -8.606001 -10.494 -9.6675 
-11.6305 -8.8255 -11.3468 -12.368 -15.0933 -14.2738 -17.6138 -19.7053 -10.815 -10.6875 -10.494 
-6.5655 0 -7.476501 0 -6.952 0 -6.726 -8.059501 -2.4945 -1.4985 -4.1955 -4.7385 -1.7565 -3.8735 
-6.5655 -7.476501 -7.476501 -6.952 -6.952 -6.726 -8.6075 -10.7175 -3.9315 -5.036 -8.189001 -7.331 -5.112 
-10.2815 -7.476501 -8.8255 -6.952 -9.092501 -8.6075 -11.5963 -12.1545 -7.271501 -9.359001 -9.5755 -10.213 
-10.2815 -8.8255 -8.8255 -9.092501 -10.864 -11.5963 -13.0333 -15.4945 -10.7495 -10.0105 -10.735 
-11.6305 -8.8255 -11.3468 -10.864 -13.8528 -13.0333 -16.3733 -18.9725 -11.401 -11.2678 
-6.5655 0 -7.476501 0 -6.952 0 -6.726 -6.8175 -2.4945 -1.4985 -4.1955 -4.8585 -1.934 -3.8735 0 
-6.5655 -7.476501 -7.476501 -6.952 -6.952 -6.726 -6.9445 -9.231501 -3.9315 -5.036 -7.4185 -7.0265 -4.885 -3.8735 
-10.2815 -7.476501 -8.8255 -6.952 -9.092501 -6.9445 -9.401 -10.758 -7.271501 -8.670501 -9.207001 -10.259 -4.885 
-10.2815 -8.8255 -8.8255 -9.092501 -9.592 -9.401 -10.9261 -14.098 -10.543 -10.553 -12.4951 -10.259 
-11.6305 -8.8255 -11.3468 -9.592 -12.3399 -10.9261 -14.2661 -17.3695 -12.4255 -13.8411 -12.4951 
