-4.759 
n/a 
n/a 
n/a 
n/a 
-4.759 
n/a 
n/a 
n/a 
n/a 
-4.759 
n/a 
n/a 
n/a 
n/a 
-4.759 
n/a 
n/a 
n/a 
n/a 
-3.091 -3.0835 -3.8195 -8.6615 0 -4.893 0 -5.5525 -9.290501 -2.9505 -2.229 -6.0625 -1.934 -2.664 -3.699 -3.9825 0 
-4.956 -6.305 -13.5384 -8.6615 -4.893 -4.893 -5.5525 -16.2008 -10.4765 -4.9005 -7.1595 -8.6805 -4.0475 -4.654 -5.406 -3.9825 
-7.248 -16.5093 -13.5384 -13.9561 -4.893 -10.035 -16.2008 -17.3868 -10.491 -9.138 -10.0445 -10.7495 -6.8565 -5.551 -5.406 
-17.6093 -16.5093 -18.833 -13.9561 -10.035 -20.6705 -17.3868 -17.4013 -10.6895 -11.9276 -12.1135 -13.5585 -8.896501 -5.551 
-17.6093 -21.8039 -18.833 -19.0981 -20.6705 -21.8565 -17.4013 -17.5998 -13.4791 -13.9966 -14.9225 -15.5985 -8.896501 
-3.091 -4.822 -3.8195 -2.7415 -8.6615 0 -4.893 0 -1.934 -2.3615 -3.8195 -2.9805 -2.8645 -5.227 -1.934 -1.4985 -3.535 -3.9825 
-6.085 -7.317 -5.97 -12.7688 -8.6615 -4.893 -4.893 -1.934 -3.539 -5.4645 -6.648 -4.3245 -6.4055 -6.109 -2.6125 -4.255 -6.876 
-7.995 -9.0235 -16.4889 -12.7688 -13.9561 -4.893 -6.816 -3.539 -6.443 -7.818501 -7.897 -7.330501 -7.1095 -7.1155 -5.489 -7.2465 
-9.537001 -19.6756 -16.4889 -18.0634 -13.9561 -6.816 -8.862 -6.443 -8.1425 -9.09 -10.6095 -8.042001 -8.097 -10.3035 -8.5725 
-20.3119 -19.6756 -21.7835 -18.0634 -15.8791 -8.862 -10.61 -8.1425 -9.481501 -11.8443 -10.708 -9.083501 -11.6354 -13.387 
-2.9805 -2.229 -3.0835 -3.8195 -8.6615 0 -4.893 0 0 -3.1435 -3.074 -3.685 -1.4985 -3.383 -3.699 -4.116 -1.7695 -8.3035 -6.0625 0 
-4.2145 -4.6705 -6.305 -13.5384 -8.6615 -4.893 -4.893 0 -3.1435 -6.4805 -6.547 -5.283 -4.554501 -5.014 -7.449 -5.911 -9.767501 -12.052 -6.0625 
-8.121 -7.378 -16.5093 -13.5384 -13.9561 -4.893 -4.893 -3.1435 -6.4805 -10.6759 -9.43 -8.762501 -6.9925 -8.6745 -9.093 -14.4165 -14.1315 -11.1485 
-11.3201 -17.7689 -16.5093 -18.833 -13.9561 -4.893 -8.4525 -6.4805 -10.6759 -13.5589 -13.1215 -11.4203 -10.621 -10.2135 -18.0755 -19.1982 -14.6757 
-21.711 -17.7689 -21.8039 -18.833 -13.9561 -8.4525 -12.0209 -10.6759 -13.5589 -17.2504 -15.7793 -15.0488 -12.16 -19.2532 -22.6592 -19.1982 
-1.934 -3.091 -3.0835 -3.7955 -8.6615 0 -4.893 0 0 -9.290501 -11.242 -2.7415 -4.3665 0 
-4.2105 -4.956 -6.3835 -11.117 -8.6615 -4.893 -4.893 0 -9.290501 -17.357 -12.676 -5.512 -4.3665 
-5.8615 -7.712501 -14.3124 -11.117 -13.9561 -4.893 -4.893 -9.290501 -14.7285 -18.112 -15.5142 -5.512 
-8.5565 -15.9006 -14.3124 -16.4116 -13.9561 -4.893 -14.8683 -10.6895 -13.9776 -16.9703 -15.4188 
-16.855 -15.9006 -19.607 -16.4116 -13.9561 -14.8683 -16.2673 -13.9776 -16.9703 -16.9703 
