-4.759 
n/a 
n/a 
n/a 
n/a 
-4.759 
n/a 
n/a 
n/a 
n/a 
-4.759 
n/a 
n/a 
n/a 
n/a 
-4.759 
n/a 
n/a 
n/a 
n/a 
-4.4525 -5.2165 0 -5.6815 -2.229 -4.559 -2.186 -1.4985 -4.3325 -3.098 -1.7565 -4.088 0 -4.4925 0 -1.756 -4.4755 0 
-10.061 -5.2165 -5.6815 -7.237501 -7.0165 -6.393 -3.339 -5.3135 -8.442 -4.3615 -5.0835 -4.088 -4.4925 -4.4925 -1.756 -6.2745 -4.4755 
-10.061 -12.351 -7.237501 -12.497 -8.941501 -7.6105 -7.202 -8.960001 -9.320001 -8.845 -5.0835 -5.913 -4.4925 -5.864 -6.2745 -6.2745 
-17.1955 -13.907 -12.497 -14.422 -10.107 -11.8443 -10.044 -9.467001 -13.7449 -8.845 -7.2315 -5.913 -5.864 -7.091001 -6.2745 
-18.7515 -19.1665 -14.422 -15.5875 -14.5012 -14.6863 -10.309 -13.9565 -13.7449 -10.6095 -7.2315 -6.761001 -7.091001 -7.091001 
-1.934 -3.9655 -2.9635 0 -4.559 -4.508 -1.4985 -4.3325 -3.098 -1.7565 -4.088 0 -4.4925 -1.756 -4.4755 0 
-5.717 -7.403 -2.9635 -4.559 -9.235001 -5.0065 -5.3135 -8.442 -4.3615 -5.0835 -4.088 -4.4925 -5.864 -6.2745 -4.4755 
-8.994 -7.403 -8.776501 -9.235001 -9.746 -7.929501 -8.960001 -9.320001 -8.845 -5.0835 -5.913 -5.864 -7.091001 -6.2745 
-8.994 -13.7364 -13.8689 -9.746 -12.891 -11.9586 -9.467001 -13.7449 -8.845 -7.2315 -6.761001 -7.091001 -7.091001 
-16.255 -18.8288 -14.3799 -12.891 -16.9201 -12.4656 -13.9565 -13.7449 -10.6095 -7.8035 -7.3145 -7.091001 
-1.934 -3.9655 -4.1645 0 -5.6815 -4.559 -2.186 -1.4985 -4.3325 -3.098 -1.7565 -4.088 0 -4.4925 -1.756 -4.4755 
-5.717 -7.3795 -4.1645 -5.6815 -9.9305 -6.393 -3.339 -5.3135 -8.442 -4.3615 -5.0835 -4.088 -4.4925 -5.864 -6.2745 
-9.420501 -7.3795 -10.586 -9.9305 -12.1551 -7.6105 -7.202 -8.960001 -9.320001 -8.845 -5.0835 -5.913 -5.864 -7.091001 
-9.420501 -13.9288 -14.835 -12.1551 -13.3726 -11.8443 -10.044 -9.467001 -13.7449 -8.845 -7.2315 -6.761001 -7.091001 
-16.0456 -18.1778 -17.0596 -13.3726 -17.6064 -14.6863 -10.309 -13.9565 -13.7449 -10.6095 -7.8035 -7.3145 
-5.2165 -7.036 -4.559 -2.186 -4.431 -3.098 -1.7565 -4.088 0 -4.6805 -1.756 -4.4755 
-13.7055 -12.3712 -6.393 -6.265 -7.997001 -4.3615 -5.0835 -4.088 -4.6805 -6.1195 -6.2745 
-19.0407 -14.2052 -10.7335 -10.5902 -9.672501 -8.845 -5.0835 -8.796501 -6.1195 -11.207 
-20.8747 -18.5457 -15.0587 -12.2657 -14.103 -8.845 -10.054 -10.5057 -11.207 
-25.2152 -22.8709 -16.7342 -16.6962 -14.103 -14.0349 -11.8566 -15.5932 
