-4.759 
n/a 
n/a 
n/a 
n/a 
-4.759 
n/a 
n/a 
n/a 
n/a 
-4.759 
n/a 
n/a 
n/a 
n/a 
-4.759 
n/a 
n/a 
n/a 
n/a 
-9.819 0 -2.356 -12.16972 -2.229 -3.8625 0 -4.723 -3.11 -3.5765 0 
-9.819 -2.356 -15.43652 -14.39872 -5.7165 -3.8625 -4.723 -8.578501 -6.621 -3.5765 
-12.3072 -15.43652 -17.66552 -17.88622 -5.7165 -8.7635 -8.578501 -12.2405 -6.621 
-25.38772 -17.66552 -21.15302 -17.88622 -10.4425 -12.7058 -12.2405 -12.2405 
-27.61672 -21.15302 -21.15302 -22.61222 -14.3848 -16.3678 -12.2405 
-10.2505 0 -12.16972 -12.16972 -11.0555 0 -4.723 -5.102 0 
-10.2505 -12.16972 -24.33944 -23.22522 -11.0555 -4.723 -8.689 -5.102 
-22.54642 -24.33944 -35.39494 -23.22522 -15.7785 -8.689 -8.689 
-34.71614 -35.39494 -35.39494 -27.94822 -19.7445 -8.689 
-45.77164 -35.39494 -40.11794 -31.91422 -19.7445 
-12.16972 0 -12.16972 -10.3245 -3.8625 0 -4.723 -5.102 0 
-12.16972 -12.16972 -22.49422 -14.2606 -3.8625 -4.723 -8.689 -5.102 
-24.33944 -22.49422 -26.43032 -14.2606 -8.7635 -8.689 -8.689 
-34.66394 -26.43032 -26.43032 -19.1616 -12.8163 -8.689 
-38.60004 -26.43032 -31.33132 -23.2144 -12.8163 
-9.819 0 -9.753 -12.16972 -6.8005 0 -12.16972 -4.701 0 
-9.819 -9.753 -22.03912 -18.97022 -6.8005 -12.16972 -16.87072 -4.701 
-19.7042 -22.03912 -28.83962 -18.97022 -19.63642 -16.87072 -16.87072 
-31.99032 -28.83962 -28.83962 -31.80614 -24.33742 -16.87072 
-38.79082 -28.83962 -41.67554 -36.50714 -24.33742 
