-4.759 
n/a 
n/a 
n/a 
n/a 
-4.759 
n/a 
n/a 
n/a 
n/a 
-4.759 
n/a 
n/a 
n/a 
n/a 
-4.759 
n/a 
n/a 
n/a 
n/a 
-3.488 -9.9595 -3.8275 -3.935 -5.6815 -3.515 -3.687 -4.628 -4.743 
-13.225 -14.071 -7.822001 -9.878501 -8.842001 -7.232 -8.602501 -4.7515 
-17.6802 -18.0655 -14.4429 -13.0436 -12.8332 -12.6227 -8.729501 
-21.6747 -24.6864 -17.608 -17.0348 -18.2239 -12.7497 
-28.2956 -27.8515 -21.5992 -22.4255 -18.3509 
-3.935 -1.4985 -3.8275 -2.5045 -4.628 -6.739501 -3.952 -3.515 -3.499 -1.7695 -4.628 -6.739501 -2.5045 -3.488 -3.0605 
-5.08 -4.726 -6.343 -7.1925 -10.6215 -11.3375 -8.227 -5.345 -5.1815 -6.618001 -10.6215 -9.5065 -5.961 -5.4835 
-6.765 -6.981501 -11.7162 -13.0712 -15.2195 -15.6125 -9.748501 -6.6105 -10.513 -12.8565 -13.3885 -13.1902 -7.577 
-9.0965 -12.7511 -17.5949 -17.6692 -19.4945 -17.134 -10.6625 -12.329 -17.2013 -15.6235 -17.0722 -14.8062 
-15.0553 -18.6298 -22.1929 -21.9442 -21.016 -18.048 -16.381 -19.0173 -19.9683 -19.3072 -18.6882 
-1.934 -3.609 -3.0605 -6.6585 -2.229 -3.8275 -3.689 -8.223001 -4.098 -2.9905 -2.5195 -6.6585 0 
-6.1475 -5.4445 -10.4765 -9.037001 -5.697001 -8.0375 -12.6176 -12.743 -6.24 -5.134 -8.6335 -6.6585 
-8.259501 -13.8873 -12.855 -12.7464 -10.0345 -17.1973 -17.1376 -14.885 -8.6485 -11.9596 -8.6335 
-17.4643 -16.2658 -16.5644 -17.0839 -19.4945 -21.7173 -19.2796 -17.2935 -15.9031 -11.9596 
-19.8428 -19.9752 -20.9019 -26.5439 -24.0145 -23.8593 -21.6881 -24.5481 -15.9031 
-3.488 -3.0605 0 -6.6585 -2.229 -4.088 -3.8275 -5.6815 -3.2795 -4.101 -3.8515 -2.5195 -6.6585 0 
-5.4835 -3.0605 -6.6585 -9.037001 -5.906 -5.8915 -9.9835 -9.103001 -7.158501 -6.072001 -4.4615 -8.6335 -6.6585 
-5.4835 -10.4765 -9.037001 -12.9554 -7.6125 -13.0831 -13.6276 -13.151 -9.694 -7.542 -11.3281 -8.6335 
-14.0857 -12.855 -12.9554 -14.6619 -15.1827 -16.7272 -17.6756 -15.6865 -11.2744 -14.7902 -11.3281 
-16.4642 -16.7734 -14.6619 -22.2321 -18.8268 -20.7752 -20.2111 -17.2669 -18.5226 -14.7902 
