-4.759 
n/a 
n/a 
n/a 
n/a 
-4.759 
n/a 
n/a 
n/a 
n/a 
-4.759 
n/a 
n/a 
n/a 
n/a 
-4.759 
n/a 
n/a 
n/a 
n/a 
-2.8965 -4.4 -1.934 -5.3885 -2.186 -5.8715 -10.939 -4.753 -4.1365 
-7.884 -5.1665 -6.4035 -7.7415 -8.8555 -17.5483 -15.692 -6.777 
-9.4445 -11.414 -8.5155 -14.7728 -20.6653 -22.3013 -17.716 
-16.0818 -13.526 -15.5062 -26.5826 -25.4183 -24.3253 
-18.1938 -20.5167 -27.316 -31.3356 -27.4423 
-10.678 -4.753 -4.6715 -1.934 -1.4985 -11.45 -2.186 -3.571 -3.699 -2.871 0 
-15.431 -7.403501 -6.0425 -2.6125 -14.575 -13.783 -5.0315 -5.9465 -6.3315 -2.871 
-18.0815 -8.1425 -7.0705 -14.71 -15.8385 -15.6855 -6.8085 -8.783001 -6.3315 
-18.8205 -9.104 -18.9766 -16.6126 -18.3396 -16.7071 -9.3955 -8.783001 
-19.782 -21.6124 -21.6265 -19.4604 -19.5984 -19.2941 -9.3955 
-12.16972 -4.753 -4.6715 -2.186 -3.074 -2.871 -1.7565 -1.4985 -3.699 -4.1365 -4.06 -1.934 -5.8715 -4.8705 0 
-16.92272 -7.403501 -6.557 -4.156 -5.798 -3.5385 -2.4195 -5.264 -8.107 -8.229501 -4.483 -7.785 -11.4798 -4.8705 
-19.57322 -9.4145 -8.408501 -6.1775 -5.95 -3.7675 -6.063 -9.491 -12.6544 -8.840001 -10.19 -13.9067 -11.4798 
-21.58422 -11.3202 -10.238 -6.254 -6.064 -6.646 -10.1345 -14.0778 -13.2649 -14.5812 -16.4601 -13.9067 
-23.48992 -13.1497 -10.262 -6.356 -8.625 -10.9611 -14.7213 -14.6883 -19.0061 -20.8513 -16.4601 
-12.16972 -4.753 -4.6715 -1.934 -5.8715 -4.132 -2.186 -3.571 -3.699 -4.6715 -1.934 -1.4985 -3.2875 0 
-16.92272 -7.403501 -6.0425 -7.785 -8.184501 -6.1555 -5.0315 -5.9465 -9.683001 -6.0425 -2.6125 -4.127 -3.2875 
-19.57322 -8.1425 -12.7523 -10.1345 -10.035 -9.059 -6.8085 -12.8199 -10.4875 -7.0705 -4.9865 -4.127 
-20.31222 -15.7381 -15.1018 -11.985 -12.9385 -10.329 -13.7991 -13.6244 -11.5155 -8.5015 -4.9865 
-27.90782 -18.0876 -16.9523 -14.8885 -14.2085 -17.3196 -14.6036 -14.6524 -12.9465 -8.5015 
