-4.759 
n/a 
n/a 
n/a 
n/a 
-4.759 
n/a 
n/a 
n/a 
n/a 
-4.759 
n/a 
n/a 
n/a 
n/a 
-4.759 
n/a 
n/a 
n/a 
n/a 
-4.426 -1.7565 -1.4985 -3.6115 -4.7285 -4.1555 -6.5325 -2.7415 -1.4985 -3.0835 -1.7695 -4.4225 -2.871 0 -1.756 -4.2085 -6.298 -1.7695 -3.332 -3.6455 -1.756 -7.581 -2.356 -1.4985 -3.5895 -3.6515 -1.7695 -4.1405 -6.1955 -1.934 -3.331 -3.882 -1.8085 -5.746 -6.158 -2.5195 -3.9465 -2.7415 -4.5335 
-5.47 -2.4195 -4.081 -6.5495 -8.4455 -8.731501 -7.135 -4.063 -3.535 -4.578 -5.08 -6.8355 -2.871 -1.756 -5.149 -9.321501 -8.297501 -4.6885 -5.878 -4.6425 -7.3255 -7.5205 -3.1615 -4.688 -6.3575 -3.9135 -5.2375 -9.923 -7.607501 -5.073 -7.6425 -5.9865 -7.692 -9.863001 -9.0555 -5.976 -6.673501 -6.47 
-5.9535 -5.180501 -6.670501 -9.978001 -13.331 -10.8 -8.757 -5.12 -4.658 -8.163501 -7.311 -6.8355 -4.864 -5.149 -9.876 -10.0935 -10.064 -7.0925 -6.719 -8.186501 -8.4595 -8.7075 -6.368 -6.568 -7.0855 -7.180501 -9.972501 -10.1635 -9.8695 -9.453 -9.7725 -10.2815 -10.3035 -10.3015 -10.016 -8.398001 -9.977501 
-8.462501 -7.797 -10.054 -14.8419 -14.5335 -12.296 -9.9025 -6.114 -8.217001 -9.75 -7.311 -8.376 -8.7135 -9.876 -10.198 -10.1705 -10.156 -7.744 -8.8205 -8.8795 -9.245 -11.3 -8.266001 -7.6355 -9.545501 -10.203 -10.164 -10.175 -10.332 -10.3235 -10.3315 -10.3385 -10.338 -10.3115 -10.321 -10.265 
-10.2375 -11.2985 -14.9543 -16.0444 -16.0675 -13.269 -10.8665 -9.092501 -9.753501 -9.75 -8.856501 -10.204 -10.2085 -10.198 -10.2195 -10.182 -10.167 -9.741 -10.741 -9.762 -10.8985 -10.5885 -8.3975 -9.6615 -10.2105 -10.211 -10.1755 -10.347 -10.3425 -10.34 -10.342 -10.349 -10.3485 -10.3515 -10.3375 
-12.16972 -3.468 -2.3335 -2.5045 -3.135 -3.594 -2.4945 -2.6165 -3.333 -1.756 -3.135 -2.4945 -3.383 -3.6135 -1.756 -4.2595 -1.7695 -3.659 0 -2.9805 -2.7415 -4.1685 -3.098 -1.4985 -3.535 -4.3755 -1.934 -5.967 -3.519 -1.7565 -2.9325 -2.7415 -3.881 -4.253 0 
-15.63772 -5.035501 -4.976501 -5.304 -6.491 -5.614 -3.8065 -4.5195 -5.232 -4.5755 -5.297501 -4.732 -5.8785 -5.5285 -5.884 -4.663 -4.3495 -3.659 -2.9805 -4.004 -6.2655 -7.498501 -4.514 -4.8385 -5.851501 -6.5835 -8.252501 -8.06 -4.4175 -4.416 -4.7775 -5.344501 -7.7675 -4.253 
-17.20522 -7.431001 -7.772501 -8.807001 -7.7425 -7.163 -5.459 -6.768001 -7.6765 -6.165 -7.1895 -7.558001 -7.2075 -8.509501 -6.267 -7.1365 -4.3495 -7.1945 -4.004 -7.105 -8.764501 -8.2805 -7.635 -7.8915 -8.320001 -13.57 -8.468 -8.953001 -7.482 -5.9645 -7.197001 -8.7325 -7.7675 
-19.60072 -10.485 -11.5071 -9.913001 -9.347501 -8.3085 -7.391 -9.1785 -8.910501 -7.9245 -9.549001 -8.3275 -9.6955 -9.2565 -8.5725 -7.1365 -7.4205 -8.274 -7.105 -10.4035 -10.016 -11.6755 -9.467 -10.0405 -15.3697 -13.7855 -9.618001 -12.3445 -9.033 -8.139501 -9.734 -8.7325 
-22.65472 -14.2196 -12.6131 -11.518 -10.3225 -10.733 -9.5165 -10.4649 -10.7595 -10.034 -10.337 -10.468 -10.102 -11.651 -8.5725 -10.0675 -8.456 -11.522 -10.4035 -11.655 -14.2894 -13.5075 -11.8006 -17.1204 -15.5852 -14.9355 -13.0095 -13.8955 -11.4568 -10.7373 -9.734 
-3.135 -1.7565 -3.452 -3.383 -3.6135 -1.756 -3.135 -3.594 -3.383 -4.5345 -1.7695 -3.6645 0 -3.135 -2.9775 -3.383 -3.6885 -1.756 -5.725 -1.7565 -3.135 -3.64 0 
-3.9195 -5.917 -6.9825 -5.8785 -5.5285 -4.5755 -6.491 -7.672501 -5.8805 -6.43 -4.9955 -3.6645 -3.135 -7.1715 -6.931001 -5.3195 -5.283 -6.6195 -7.842501 -4.6765 -6.3325 -3.64 
-9.5635 -8.361501 -10.419 -7.2075 -8.283 -7.969 -10.31 -10.2485 -7.3345 -10.181 -4.9955 -6.8935 -7.1715 -11.662 -9.5165 -6.5575 -11.2811 -8.745501 -11.2223 -8.133 -6.3325 
-12.0506 -13.102 -11.748 -9.677 -12.1273 -11.8598 -12.886 -11.7025 -11.4261 -10.181 -7.5625 -11.2916 -11.662 -14.2475 -10.9131 -12.7376 -13.4071 -12.3943 -14.6788 -8.133 
-16.7911 -14.431 -14.2175 -13.6195 -16.0181 -14.4358 -14.34 -15.7941 -11.4261 -12.748 -12.2522 -15.7821 -14.2475 -15.6441 -17.0932 -14.8636 -17.0559 -15.8508 -14.6788 
-12.16972 -3.468 -6.055501 -1.7565 -3.135 -3.452 0 -3.7375 -2.4945 -3.383 -4.157 -1.7695 -3.322 -4.7475 -2.9805 -5.419 -1.8085 -3.535 -3.355 -1.7565 -6.6335 -2.9705 -5.9035 -1.756 -5.487 -2.3345 -2.985 -4.8545 -4.9715 
-15.63772 -11.0145 -6.571001 -4.6765 -7.234 -3.452 -3.7375 -6.2495 -4.732 -8.253 -5.9985 -4.317 -8.684001 -7.034 -7.711501 -7.7375 -4.294 -5.981 -3.725 -8.495501 -9.901 -8.661501 -7.1995 -6.578 -6.468 -4.871 -8.6575 -11.1896 
-23.18422 -11.53 -8.719501 -8.585501 -7.234 -8.444 -6.2495 -8.5765 -9.765501 -9.9835 -9.199 -9.240001 -11.2109 -11.9788 -9.501 -10.3675 -6.21 -6.1795 -11.1784 -11.8934 -15.6816 -10.5435 -8.601501 -7.736 -8.871501 -10.8589 -15.3252 
-23.69972 -13.6785 -12.7819 -8.585501 -12.7932 -10.1595 -8.5765 -13.77 -11.6326 -13.2146 -14.223 -11.8013 -16.1557 -13.7683 -12.212 -12.2835 -6.305 -13.9661 -14.5763 -17.674 -17.5636 -11.9455 -9.409 -10.304 -14.9874 -17.5266 
-25.84822 -17.7409 -12.7819 -14.3639 -14.5087 -12.4865 -13.77 -15.6371 -14.8637 -18.2386 -16.7843 -16.7461 -17.9452 -16.4793 -14.128 -12.3785 -14.1568 -17.364 -20.3569 -19.556 -18.9656 -12.753 -12.0486 -16.4199 -21.6551 
