-4.759 
n/a 
n/a 
n/a 
n/a 
-4.759 
n/a 
n/a 
n/a 
n/a 
-4.759 
n/a 
n/a 
n/a 
n/a 
-4.759 
n/a 
n/a 
n/a 
n/a 
-3.676 -2.186 -1.8085 -4.431 -3.9675 -3.1715 0 -3.299 -6.3195 -4.0455 -3.1385 0 -4.77 0 -1.756 -4.4345 -3.59 -2.925 -2.4945 -4.1205 0 -4.506 0 -3.676 0 -4.0455 -2.186 -3.115 -3.0365 -2.186 -4.025 0 -3.1015 -3.535 -3.6815 -4.3665 -1.756 -4.1955 -5.569 -3.8375 -4.685 -2.5195 -3.1385 -1.756 -3.0365 -2.4945 -3.845 -1.7565 -3.1385 -5.3905 -3.959 -1.756 -4.3725 -1.7695 -3.135 -3.3155 -3.4975 -3.9675 -3.0365 -2.4945 -3.3715 -8.932 -2.5045 -3.1385 -2.8645 -3.1125 -5.3905 0 -4.506 0 -1.934 -3.994 -3.634 -3.5215 -3.3715 -5.3905 0 -4.7175 -8.902 -3.676 -3.0365 -2.4945 -3.3715 -4.2465 -3.1385 -1.756 -2.3615 -4.0135 -1.7565 -3.5015 -3.115 -3.2495 -3.6065 -3.9675 -2.186 -4.431 0 
-5.5015 -3.164 -5.6625 -7.661 -7.696 -3.1715 -3.299 -10.9681 -11.5024 -7.335501 -3.1385 -4.77 -4.77 -1.756 -6.269 -8.814501 -6.1945 -3.7675 -5.191 -4.1205 -4.506 -4.506 -3.676 -3.676 -4.0455 -5.9065 -4.989 -5.7795 -3.66 -5.0765 -4.025 -3.1015 -7.2335 -7.284 -9.486 -5.698501 -5.6725 -9.0555 -10.254 -8.484501 -5.093 -5.5235 -4.6325 -4.484 -3.688 -7.126501 -4.13 -4.388 -8.647501 -10.151 -5.173 -5.663 -6.089001 -4.779 -6.634 -7.204 -5.8 -6.9125 -3.688 -4.846 -10.9575 -10.1425 -5.681 -6.3865 -3.5345 -7.132 -5.3905 -4.506 -4.506 -1.934 -5.238 -7.627501 -6.0365 -6.965 -9.502501 -5.3905 -4.7175 -14.5903 -13.171 -6.633 -3.688 -4.846 -7.0305 -8.3545 -4.6325 -4.4615 -5.1525 -4.201 -4.97 -6.026 -6.333 -5.228 -6.878 -5.881001 -6.265 -4.431 
-6.3355 -6.7585 -8.2395 -11.7581 -7.696 -6.405001 -10.9681 -16.151 -14.7924 -7.335501 -8.686501 -4.77 -5.909 -6.269 -9.901 -11.6248 -6.9725 -6.5305 -5.191 -9.275 -4.506 -9.7885 -3.676 -7.972 -5.9065 -8.511001 -7.792001 -6.39 -5.3205 -5.0765 -7.0225 -7.2335 -11.3515 -13.7821 -10.9014 -9.9805 -10.6735 -13.6945 -14.901 -8.657001 -8.4195 -7.14 -7.119 -5.1685 -7.196001 -7.285501 -5.286 -9.7685 -13.7172 -11.5992 -9.429 -8.077001 -9.614 -8.472 -10.9141 -9.644001 -8.547001 -7.4545 -4.8765 -12.8084 -12.168 -13.6302 -9.3365 -7.093 -7.4315 -7.132 -9.901501 -4.506 -7.0425 -5.238 -8.732 -10.9272 -8.2425 -13.3954 -9.502501 -9.4565 -14.5903 -18.8593 -16.128 -7.1195 -4.8765 -8.34 -11.9477 -9.633 -7.1245 -7.298 -5.2165 -6.811501 -8.321 -9.691 -7.97 -9.248501 -8.7425 -9.5485 -6.265 
-9.92 -9.7405 -12.5836 -11.7581 -11.6943 -15.1605 -16.151 -19.441 -14.7924 -13.3851 -8.686501 -5.909 -11.2016 -9.901 -13.1829 -12.4028 -9.592 -6.5305 -10.7335 -9.275 -9.7885 -9.7885 -7.972 -9.549 -8.511001 -11.528 -8.588501 -7.993501 -5.3205 -8.426001 -11.7561 -11.3515 -17.8496 -15.1975 -15.1834 -15.0751 -15.6937 -18.3415 -15.0735 -12.1085 -9.9455 -9.83 -7.702 -8.592 -7.3075 -8.448501 -10.6605 -14.8216 -15.1654 -15.8552 -11.7546 -11.9822 -13.4948 -12.9633 -13.3541 -12.6746 -9.055 -8.357 -12.8883 -14.0189 -15.6557 -17.2857 -10.1645 -11.1484 -7.4315 -12.3982 -9.901501 -7.0425 -10.7367 -8.732 -12.5025 -13.1332 -14.8869 -13.3954 -13.6547 -19.7915 -18.8593 -21.8163 -16.6145 -8.2565 -8.352 -13.4236 -13.2262 -12.1664 -9.6085 -7.3095 -8.5035 -9.504001 -12.3222 -11.4838 -12.3139 -11.433 -12.5432 -9.5485 
-13.076 -14.1296 -12.5836 -15.7564 -20.4498 -20.3434 -19.441 -19.441 -20.842 -13.3851 -9.3935 -11.2016 -14.8336 -13.1829 -13.9609 -15.0223 -9.592 -12.2836 -10.7335 -14.5979 -9.7885 -14.4029 -9.549 -12.3381 -11.528 -12.3245 -10.0475 -7.993501 -8.717501 -13.4186 -15.8741 -17.8496 -19.265 -19.4795 -20.278 -20.0953 -20.3407 -18.514 -18.525 -13.6345 -12.6355 -10.721 -11.2237 -8.7395 -8.476501 -14.3114 -15.7136 -16.2698 -19.4214 -18.1808 -15.6598 -15.863 -17.9861 -15.4033 -16.3847 -13.1826 -10.0995 -16.4444 -14.0988 -17.5066 -19.3112 -18.1137 -14.2199 -11.1484 -12.7865 -12.3982 -13.0908 -10.7367 -14.2307 -12.5025 -14.7085 -19.7776 -14.8869 -17.5476 -23.9897 -24.0605 -21.8163 -22.3028 -17.7515 -11.817 -13.441 -14.7021 -15.7596 -14.6504 -9.614 -10.609 -11.0254 -13.6338 -14.115 -15.8277 -14.4984 -15.2337 -12.5432 
-3.676 -2.186 -1.8085 -3.9675 -3.59 -1.4985 -3.845 -1.7565 -3.3715 -3.6065 -3.9755 -1.7565 -3.711 -1.756 -3.9675 -3.1385 -2.4945 -1.934 -1.4985 -3.4975 -3.59 -3.4975 -3.1385 -2.4945 -2.6165 -3.1015 -2.5045 -3.8825 -5.9865 -3.152 -3.3715 -3.1385 -3.152 -6.606 -2.985 -3.59 -1.7695 -3.676 -4.2125 -4.9175 -3.1385 -3.152 -1.934 -1.4985 -3.676 -3.6595 -2.0935 -1.4985 -8.364 -3.6885 -3.152 -1.934 -1.4985 -5.1745 -3.6065 -4.0135 -1.7565 -3.1385 -2.4945 -1.934 -1.4985 -3.676 0 
-5.5015 -3.164 -5.5895 -7.6905 -5.348001 -5.716001 -4.13 -4.845 -5.106 -5.153 -4.312 -5.800001 -5.016 -4.942 -6.7185 -4.588 -4.2645 -2.6125 -4.3125 -6.428 -7.337501 -5.4655 -4.588 -3.8065 -5.976 -5.3515 -5.282001 -8.421 -6.89 -5.921 -4.712501 -5.219 -8.6765 -9.706 -5.6905 -5.3875 -5.5605 -7.498 -7.2615 -8.868 -5.219 -4.9115 -2.6125 -6.125 -7.742 -5.5535 -2.9725 -10.9563 -12.4973 -7.349501 -4.9115 -2.6125 -7.787 -8.706 -5.943 -4.201 -4.388 -4.588 -4.2645 -2.6125 -6.125 -3.676 
-6.3355 -7.134501 -9.820001 -10.172 -10.119 -6.583 -8.3325 -6.4985 -6.2325 -5.1935 -7.398 -6.849501 -9.188001 -7.5665 -8.505 -6.458 -4.935 -5.731 -8.291 -9.2705 -9.992001 -6.699 -6.055501 -7.261001 -8.2825 -8.4115 -8.7775 -8.3 -8.114 -7.4565 -6.542 -11.4649 -12.3671 -12.4679 -6.7995 -9.151501 -9.6815 -11.5824 -12.155 -10.718 -6.9215 -5.513 -7.228001 -11.1876 -9.6555 -6.5525 -12.7071 -15.0896 -16.1583 -9.2845 -5.513 -8.995001 -12.0815 -12.542 -5.9995 -6.495501 -5.892 -6.458 -4.935 -7.228001 -6.125 
-9.392 -11.5492 -12.5317 -14.943 -10.5495 -8.715 -10.127 -7.519001 -6.267 -8.217 -8.511001 -11.4751 -11.8793 -9.8065 -10.5 -7.145 -8.541 -9.383 -11.7125 -12.8838 -11.2255 -7.845 -9.675501 -9.473001 -10.5975 -11.6865 -11.0385 -10.898 -9.557 -10.2175 -13.1125 -15.1555 -15.129 -13.5769 -10.7175 -13.3041 -13.9833 -16.4759 -14.005 -12.4205 -7.4905 -10.0995 -12.4966 -13.1011 -10.566 -16.6715 -16.8404 -18.7506 -18.0933 -9.891001 -11.7455 -13.8481 -15.9418 -12.6307 -8.488001 -7.7675 -7.693001 -7.145 -10.134 -7.228001 
-14.1091 -14.2609 -17.3027 -15.3735 -12.6815 -10.6615 -11.1475 -7.659 -9.153501 -9.075001 -13.2538 -14.1664 -14.1193 -11.8015 -11.187 -11.1178 -12.3558 -12.9797 -15.3258 -14.1173 -12.3715 -11.8406 -11.9085 -11.7566 -13.8725 -14.0127 -12.6887 -12.3185 -12.602 -16.788 -16.8031 -17.9174 -16.238 -17.4949 -14.8701 -17.6059 -18.8768 -18.3259 -15.7075 -12.9895 -12.3974 -15.4835 -14.4101 -14.0116 -20.685 -20.8048 -20.5014 -20.6856 -18.6998 -16.3079 -16.775 -16.8638 -15.9693 -14.6807 -10.749 -9.120501 -8.192501 -12.7108 -10.134 
-3.676 -2.186 -9.6625 -3.59 -3.0365 -2.186 -2.847 -4.2775 -3.4975 -4.2655 -7.0715 -3.7375 -3.4975 -5.3595 -1.756 -3.1385 -3.8245 -1.934 -5.569 -3.8375 0 -2.5685 -3.769 -2.4945 -5.7565 -3.222 -3.676 -3.098 -1.934 -3.228 -2.5645 -4.153 -1.4985 -3.9675 -4.3895 -2.3345 -3.676 -2.5045 -3.4975 -3.9675 -2.186 -1.4985 -4.39 -1.7565 -2.8965 -3.982 -3.9675 -1.756 -4.2125 -3.9675 -3.1385 -5.7565 -2.5195 -3.994 -4.431 -4.3305 -3.9675 -2.356 -1.4985 -3.321 -3.4975 -3.9675 -1.756 -4.037 -2.5045 -2.985 -4.802 -1.756 -1.4985 -3.9675 -2.7415 -4.1675 -3.115 -1.8085 -4.8725 -4.502 0 
-5.5015 -10.871 -11.917 -6.349 -3.66 -4.1045 -6.54 -8.555 -6.921 -12.5722 -11.2314 -7.3225 -7.408501 -6.633501 -5.0125 -5.577001 -4.7245 -6.6375 -10.254 -3.8375 -2.5685 -5.546 -5.245 -7.554 -7.265 -7.0125 -6.909 -4.746 -5.4695 -5.6825 -7.866 -5.544001 -5.356501 -8.4455 -4.6785 -6.6285 -6.0715 -6.2325 -5.8 -5.881001 -3.339 -5.256001 -4.681 -4.5345 -6.0595 -6.808001 -4.9775 -5.907 -6.7655 -6.7185 -7.9635 -6.703 -6.21 -8.288501 -8.890501 -7.5345 -6.2795 -3.1615 -5.696501 -7.736001 -5.8 -4.9775 -6.06 -6.548 -5.065001 -6.963 -5.802 -3.0405 -5.356501 -6.5745 -8.427 -4.664 -4.2095 -6.355 -7.064501 -4.502 
-13.74 -11.9345 -13.209 -6.8945 -4.256001 -7.2355 -11.2223 -12.2247 -15.8707 -16.7321 -14.8164 -11.6951 -9.1245 -9.5205 -7.1735 -5.9835 -8.471001 -11.7393 -10.254 -6.8915 -5.546 -6.9075 -10.5095 -9.033001 -9.623501 -10.396 -8.4915 -8.630501 -7.4485 -12.3324 -10.298 -9.249001 -9.737 -8.557 -9.1035 -8.941501 -9.268001 -8.696 -7.589 -7.061501 -6.2305 -5.366 -7.601 -7.475501 -10.138 -7.4635 -8.527 -7.9065 -10.1225 -12.0801 -8.5865 -8.7895 -10.9977 -13.6248 -12.2199 -9.436501 -7.2185 -7.155001 -8.896501 -10.172 -6.8265 -10.3745 -7.6425 -9.9055 -9.842501 -7.871 -6.776 -6.613 -7.538501 -12.6228 -8.705501 -5.4175 -8.200001 -8.494 -7.064501 
-15.7359 -15.1125 -13.7545 -7.524 -7.239 -12.1724 -14.892 -21.1744 -20.0306 -20.3171 -19.189 -13.4111 -12.2173 -11.8667 -7.708 -9.616 -14.2206 -11.7393 -13.308 -10.543 -6.9075 -12.5092 -11.9885 -11.5361 -14.0508 -11.9785 -12.796 -10.2235 -15.121 -14.7644 -14.003 -13.8511 -10.0875 -13.0032 -11.3423 -12.222 -11.8493 -9.897 -8.821501 -10.0605 -6.2415 -8.6105 -10.8216 -11.7616 -10.7935 -11.6082 -9.977501 -11.9543 -15.4841 -12.7031 -10.361 -14.0754 -16.334 -16.9542 -14.1219 -10.3175 -11.5472 -10.494 -11.7047 -11.1985 -12.6693 -11.957 -10.733 -14.748 -10.6775 -9.316 -11.4671 -8.5655 -13.854 -12.9013 -9.499001 -9.836 -10.341 -8.494 
-18.7409 -15.658 -14.384 -10.418 -12.1785 -15.8421 -23.8417 -25.3343 -23.6156 -24.6897 -20.905 -16.5039 -14.5635 -12.4012 -9.743501 -15.6434 -14.2206 -14.7933 -16.9595 -11.9045 -12.5092 -13.9882 -14.4916 -15.9634 -15.6333 -16.283 -14.389 -18.1754 -17.553 -18.4694 -18.6051 -14.2016 -14.5337 -15.242 -14.6228 -14.8033 -13.0503 -11.1295 -11.8737 -10.0695 -9.835501 -11.9649 -15.1077 -12.4171 -14.9382 -13.0587 -14.1161 -17.3159 -16.1071 -14.4776 -15.6837 -19.4117 -19.6634 -18.8562 -15.0029 -14.6462 -14.8862 -13.3022 -12.7312 -17.0413 -14.2518 -15.0475 -15.5755 -15.583 -12.1225 -14.1475 -13.4196 -15.1314 -14.1325 -13.6948 -13.9651 -12.0452 -10.341 
-1.4985 -3.4225 -3.468 -2.186 -1.8085 -5.3475 -4.1265 0 -2.8195 -1.7695 -1.8085 -4.0005 -4.187 -1.7565 -4.72 -3.711 0 -5.031 0 -1.756 -8.754001 -2.5195 -1.4985 -3.1015 -3.535 -4.303 -3.4975 -1.756 -4.303 -5.094 -4.7955 0 -4.3435 -2.5685 -4.3665 -2.4285 -2.985 -5.3595 -6.403 -3.5445 -1.4985 -3.814 -3.8445 -6.617001 -3.9675 -4.005 -1.934 -3.8225 -2.3345 -3.17 -12.16972 -3.4975 -12.16972 -1.8085 -4.02 -3.9675 -4.796 -4.6365 -2.5195 -1.4985 -5.031 -1.7565 -3.982 -5.0375 -2.356 -5.089 -2.5195 -3.3715 -2.8965 -4.048 0 -3.2775 -2.5045 -5.031 -4.3155 -2.3345 -5.309 -2.5195 -6.621 -3.634 -4.493 -2.5195 -3.994 -1.756 -4.1065 -4.3305 -3.676 -2.8645 -3.4905 -1.7695 -1.8085 -4.2465 -4.292 -2.3335 -2.8645 -3.1125 -4.164 -2.5045 -3.5155 -1.8085 -7.255 -5.383 -4.7855 -1.756 -1.8085 -5.498 -4.8725 -4.5185 -1.934 -2.9705 -5.0375 -1.756 -2.985 -5.4975 -4.888 -5.1765 -4.2465 -4.458 0 
-3.9655 -3.628 -5.589 -3.164 -6.4795 -8.095 -4.1265 -2.8195 -4.8875 -3.41 -4.5145 -5.056 -4.2795 -6.0135 -5.7565 -3.711 -5.031 -5.031 -1.756 -10.157 -9.241 -3.1695 -5.650001 -7.2335 -7.869 -5.1385 -5.486 -5.9405 -6.1455 -9.101501 -4.7955 -4.3435 -5.5265 -5.7785 -6.809 -5.226501 -6.5345 -8.722501 -9.2685 -4.002 -4.198 -5.815001 -8.05 -10.1465 -8.200001 -4.808 -5.219 -7.092501 -5.369 -16.85272 -15.66722 -17.15762 -13.97822 -6.0155 -6.4735 -8.5245 -7.7405 -4.8875 -3.1695 -6.2605 -5.93 -5.407 -7.28 -7.055 -7.311001 -6.6305 -5.5385 -4.827001 -5.153501 -4.048 -3.2775 -3.678 -8.335501 -8.6085 -5.9085 -7.443001 -7.189 -8.943001 -9.503 -7.6165 -6.9115 -6.21 -5.313 -5.415 -8.4645 -4.7135 -5.929501 -5.5675 -3.808 -3.41 -5.7685 -7.649 -6.653 -4.3785 -3.5345 -5.771501 -5.2235 -5.661 -5.2745 -8.506001 -10.0285 -6.2275 -6.1835 -3.584 -6.435 -10.1345 -6.907001 -6.401 -4.051 -7.933001 -6.0985 -4.2025 -6.622 -9.611501 -9.3795 -7.925 -7.203 -4.458 
-4.053 -5.694 -6.61 -7.669 -8.475 -8.095 -6.6825 -4.8875 -6.1225 -5.8275 -5.104 -5.064 -7.599 -7.197 -5.7565 -8.6435 -5.031 -5.9705 -9.892 -10.1875 -9.421 -7.1885 -9.257 -10.155 -8.794001 -6.751 -7.4575 -7.3095 -9.4475 -9.101501 -8.946001 -5.5265 -7.966001 -8.444 -8.7495 -8.3715 -9.6945 -10.127 -9.3585 -6.056 -5.839 -9.8295 -11.729 -14.2 -8.632501 -7.443501 -7.392 -9.524501 -19.85112 -20.35022 -29.32734 -18.96612 -18.18522 -8.401001 -9.899 -10.035 -7.769 -5.375 -7.861 -6.533 -8.628 -7.994 -9.394501 -10.1075 -7.741001 -8.575001 -6.9135 -7.420001 -5.153501 -6.041 -3.678 -9.065001 -10.168 -9.250501 -9.450001 -9.027 -11.041 -11.81 -13.466 -9.0965 -8.587 -7.089 -8.3935 -9.2895 -8.838 -7.1525 -8.820001 -6.9315 -6.029 -7.549001 -8.5635 -8.946 -8.271501 -4.9985 -6.06 -6.241 -8.0415 -6.2565 -10.19 -10.195 -10.136 -7.836501 -7.6975 -8.4655 -10.155 -10.1535 -8.734501 -8.243501 -8.400001 -9.073501 -7.171501 -6.934 -9.913 -10.1095 -10.017 -9.407001 -7.203 
-5.7135 -6.692 -9.631001 -9.154 -8.475 -9.93 -8.808001 -6.1225 -7.5985 -6.396 -5.11 -8.319 -8.359501 -7.197 -9.6485 -8.6435 -5.9705 -12.4301 -10.2905 -10.5455 -12.6945 -9.9535 -10.1725 -10.179 -10.078 -8.4915 -8.1225 -9.7045 -9.4475 -10.2095 -9.6815 -7.966001 -10.0815 -10.0575 -9.9455 -10.0125 -10.137 -10.1375 -9.738001 -7.255 -9.409 -12.8829 -16.5641 -14.6077 -10.0475 -8.0795 -9.575001 -24.18322 -23.34862 -34.01034 -31.13584 -23.17312 -20.57072 -10.0885 -10.119 -10.04 -8.233 -9.39 -8.041 -9.1195 -10.1225 -9.923 -10.1085 -10.1135 -9.493501 -9.649501 -8.259001 -7.420001 -7.049 -6.054501 -9.065001 -10.2135 -10.1885 -10.1355 -9.7805 -12.1605 -13.7032 -16.0434 -14.3812 -9.941 -9.052 -9.6365 -9.896501 -9.583501 -10.0475 -10.0885 -9.953501 -8.704 -10.096 -9.972001 -9.691501 -9.9405 -8.9975 -7.573 -6.4125 -8.590501 -8.698501 -10.2185 -10.226 -10.2025 -10.2355 -9.2335 -10.223 -10.218 -10.162 -10.237 -9.6505 -10.085 -9.3585 -9.585 -7.951001 -10.044 -10.111 -10.1155 -10.1135 -9.407001 
-6.7155 -9.6325 -9.9375 -9.154 -9.972 -9.965 -9.719501 -7.5985 -7.863501 -6.399 -8.362 -9.057 -8.359501 -9.9775 -9.6485 -9.5965 -12.4301 -12.8286 -10.5455 -14.5627 -13.9777 -10.1765 -10.18 -10.1905 -10.1825 -8.6455 -10.1585 -9.7045 -10.2095 -10.227 -10.2155 -10.0815 -10.144 -10.1165 -10.1345 -10.139 -10.1435 -10.148 -10.0625 -11.034 -12.8834 -17.6196 -16.7656 -14.6357 -10.0905 -9.6995 -24.26672 -27.68072 -37.00874 -35.81884 -35.34284 -25.55862 -22.25822 -10.1205 -10.1255 -10.0715 -10.031 -9.473501 -10.0035 -10.204 -10.2295 -10.2275 -10.1145 -10.2355 -10.072 -10.196 -8.259001 -9.239501 -7.0715 -10.1855 -10.2135 -10.2265 -10.233 -10.221 -12.7502 -15.2489 -17.7514 -16.7354 -14.6602 -10.101 -10.1225 -10.1215 -9.9005 -10.1095 -10.2285 -10.2095 -10.213 -10.218 -10.2245 -10.159 -10.166 -10.199 -10.1545 -7.901 -8.7645 -9.179501 -10.218 -10.2265 -10.234 -10.2385 -10.2435 -10.2235 -10.231 -10.226 -10.237 -10.245 -10.0875 -10.1205 -9.831 -9.935 -10.1105 -10.116 -10.117 -10.1255 -10.1135 
