-4.759 
n/a 
n/a 
n/a 
n/a 
-4.759 
n/a 
n/a 
n/a 
n/a 
-4.759 
n/a 
n/a 
n/a 
n/a 
-4.759 
n/a 
n/a 
n/a 
n/a 
-12.16972 -9.123501 -9.934 -9.965501 -12.16972 -9.3 -3.8625 
-21.29322 -19.2231 -20.0587 -23.39862 -21.46972 -13.3329 
-31.39282 -29.3478 -33.49182 -32.69862 -25.50262 
-41.51752 -42.78092 -42.79182 -36.73152 
-54.95064 -52.08092 -46.82472 
-12.16972 -9.123501 0 -10.24 -9.965501 -12.16972 -9.696501 0 0 -1.8085 0 
-21.29322 -9.123501 -10.24 -20.2055 -23.39862 -21.86622 -9.696501 0 -1.8085 -1.8085 
-21.29322 -19.5291 -20.2055 -33.63862 -33.09512 -21.86622 -9.696501 -1.8085 -1.8085 
-31.69882 -29.4946 -33.63862 -43.33512 -33.09512 -21.86622 -11.6806 -1.8085 
-41.66432 -42.92772 -43.33512 -43.33512 -33.09512 -23.85032 -11.6806 
-9.934 -3.8235 -3.397 -1.756 -12.16972 -5.4475 0 -4.1885 -12.16972 0 
-13.9167 -6.1995 -5.144 -14.93432 -17.61722 -5.4475 -4.1885 -18.12902 -12.16972 
-16.2927 -7.448 -19.53132 -20.38182 -17.61722 -10.5535 -18.12902 -18.12902 
-17.5412 -22.33592 -24.97882 -20.38182 -22.72322 -24.49402 -18.12902 
-32.42912 -27.78342 -24.97882 -25.48782 -36.66374 -24.49402 
-12.16972 -9.123501 0 -12.16972 -12.16972 -12.16972 -7.708 0 -1.8085 0 
-21.29322 -9.123501 -12.16972 -24.33944 -24.33944 -19.87772 -7.708 -1.8085 -1.8085 
-21.29322 -21.45882 -24.33944 -36.50916 -32.04744 -19.87772 -9.711 -1.8085 
-33.62854 -33.62854 -36.50916 -44.21716 -32.04744 -21.88072 -9.711 
-45.79826 -45.79826 -44.21716 -44.21716 -34.05044 -21.88072 
