-4.759 
n/a 
n/a 
n/a 
n/a 
-4.759 
n/a 
n/a 
n/a 
n/a 
-4.759 
n/a 
n/a 
n/a 
n/a 
-4.759 
n/a 
n/a 
n/a 
n/a 
-3.691 -3.189 -3.6215 -4.6505 -1.934 -4.0245 -2.7455 -4.0225 -3.251 
-6.724501 -5.5715 -7.998 -5.5835 -6.706 -6.705 -6.652 -5.3935 
-10.199 -9.7115 -9.121 -9.913 -8.965501 -10.597 -7.575 
-14.339 -10.8121 -13.8819 -12.3035 -13.9185 -11.52 
-15.4396 -15.573 -16.2724 -17.2565 -14.8415 
-4.0225 -3.691 -4.5735 -4.1395 -2.4945 -4.394 -4.4155 
-8.9615 -9.5345 -9.318001 -5.9615 -5.713 -7.7245 
-15.2932 -14.3034 -11.57 -9.142501 -8.866 
-20.0621 -16.5554 -14.751 -12.6399 
-22.3141 -19.7364 -18.2484 
-3.1495 -3.509 -2.4945 -1.934 -1.4985 -4.0245 -2.5195 -4.2085 -5.0495 -1.7565 -3.189 -3.326 
-6.2285 -5.5615 -4.2645 -2.6125 -5.1005 -5.151 -6.4555 -6.9855 -5.5505 -4.498 -5.67 
-7.002 -7.131 -4.935 -6.291 -6.491 -9.072001 -9.3 -7.038001 -5.6165 -6.726501 
-9.184001 -7.496 -9.206 -7.821001 -10.702 -12.1047 -9.367001 -7.04 -6.996001 
-9.602 -10.316 -10.775 -12.2236 -13.7347 -12.1717 -9.3715 -7.045001 
-3.691 -4.5735 -3.6215 -4.4155 -1.934 -1.4985 -4.0245 -2.4945 -3.4635 0 
-9.5345 -7.0065 -8.729501 -5.054 -2.6125 -5.1005 -6.902 -6.1285 -3.4635 
-11.9919 -12.2465 -9.540501 -5.585 -6.291 -7.870501 -11.0416 -6.1285 
-17.2319 -13.0575 -10.109 -8.0205 -8.4425 -11.9625 -11.0416 
-18.0429 -13.626 -12.5445 -9.735001 -12.6897 -11.9625 
