-4.759 
n/a 
n/a 
n/a 
n/a 
-4.759 
n/a 
n/a 
n/a 
n/a 
-4.759 
n/a 
n/a 
n/a 
n/a 
-4.759 
n/a 
n/a 
n/a 
n/a 
-2.5195 -3.995 -2.7295 -2.7765 -3.047 -1.4985 -4.4515 0 -3.851 -1.7695 -2.3615 -4.4515 -3.61 -3.115 -1.8085 -3.7075 -1.756 -3.115 -1.8085 -3.535 -5.057 
-6.152 -6.5235 -4.065 -4.5075 -4.095 -5.0235 -4.4515 -3.851 -4.0015 -3.736 -7.603001 -7.868001 -4.817 -4.2095 -5.797 -5.318 -5.4945 -4.2095 -4.294 -7.8315 
-8.521501 -7.837 -5.696 -5.387 -7.446501 -5.0235 -8.504001 -4.0015 -6.14 -9.250501 -11.3825 -8.8985 -5.6515 -7.969501 -7.773 -9.080501 -6.6625 -6.63 -8.047501 
-9.612 -9.0935 -6.5735 -8.3695 -7.446501 -8.789001 -8.651001 -6.14 -11.7601 -13.07 -12.413 -9.958501 -9.574 -9.411 -11.7657 -9.989501 -9.2845 -10.733 
-10.3425 -10.013 -9.392 -8.3695 -10.6465 -8.876 -10.6095 -11.7601 -15.5796 -14.1005 -13.473 -13.881 -11.0391 -13.4311 -12.6747 -12.6115 -13.5697 
-5.3955 -2.4945 -3.2955 -2.0935 -1.8085 -3.6885 -3.264 -1.7565 -4.1745 -3.8225 -3.9755 -3.5795 -4.0415 -1.756 -5.0605 -3.995 -4.8155 -5.3955 0 -3.969 -5.3955 0 -3.8755 -5.3955 0 -3.741 -5.3955 
-6.910501 -4.6305 -4.307 -3.385 -4.3555 -5.0915 -3.6125 -6.4375 -8.43 -6.3025 -6.8025 -7.4545 -5.4805 -6.224 -9.458 -6.3665 -7.411 -5.3955 -3.969 -7.3335 -5.3955 -3.8755 -7.999001 -5.3955 -3.741 -7.4185 
-8.341001 -5.574501 -5.872 -5.889501 -5.206 -5.1115 -7.22 -10.019 -10.0995 -8.5255 -10.2185 -8.548 -6.5135 -10.3285 -9.8065 -7.4715 -7.411 -8.771501 -7.3335 -7.3335 -9.144 -7.999001 -7.999001 -8.409 -7.4185 
-8.946 -7.1315 -8.188001 -6.780001 -5.2195 -9.384501 -10.476 -10.591 -10.559 -10.543 -11.4564 -9.088501 -10.7175 -10.4065 -10.2135 -7.4715 -10.513 -9.554001 -7.3335 -10.151 -9.611501 -7.999001 -10.3745 -9.293 
-9.613501 -9.328 -8.6785 -6.787001 -9.443001 -10.587 -10.6005 -10.61 -10.6095 -12.0187 -11.9969 -13.6261 -10.7955 -10.536 -10.2135 -10.7175 -10.6375 -9.554001 -10.151 -10.3295 -9.611501 -10.3745 -10.438 
-4.369 -2.5195 -3.995 -3.837 -4.4515 -2.5045 -1.8085 -4.449 -3.841 -1.756 -4.1675 -3.115 -4.449 -4.3305 -3.115 -3.7075 
-6.9195 -6.152 -8.0185 -8.5295 -6.929001 -3.3625 -5.3495 -8.264001 -5.562 -5.766 -4.664 -7.932001 -8.715 -7.475 -7.214 
-10.007 -9.883 -13.163 -11.8624 -7.717501 -7.397 -8.751 -9.816501 -9.217501 -6.6175 -9.6885 -12.343 -10.468 -10.5745 
-13.738 -15.2137 -16.4959 -12.6509 -12.0692 -10.451 -10.1945 -13.472 -10.703 -12.0442 -14.0995 -14.096 -13.5675 
-19.0687 -18.5466 -17.2844 -17.0026 -15.1232 -11.8945 -13.85 -14.9575 -16.1297 -16.4552 -15.8525 -17.1955 
-2.5195 -3.995 -2.7295 -3.61 -1.4985 -4.4515 -3.1435 -4.1675 -3.115 -2.4265 -4.305 -1.934 -3.469 0 -2.4265 -4.1675 -3.535 -3.115 -3.7075 -3.6245 
-6.152 -6.5235 -5.1655 -5.6125 -5.0235 -8.0165 -7.035 -4.664 -4.63 -4.987 -5.1065 -5.5245 -3.469 -2.4265 -4.8995 -7.729 -7.313 -7.214 -7.6165 
-8.521501 -9.122 -7.8245 -9.076 -8.2995 -12.1802 -8.216001 -5.7785 -8.3585 -6.275001 -9.290501 -5.5245 -5.6915 -4.8995 -8.377501 -10.2185 -11.6116 -10.3745 
-11.3018 -11.7546 -11.6944 -12.6636 -12.5194 -13.3612 -9.4405 -9.501 -9.189 -10.785 -9.290501 -8.889501 -7.976501 -8.377501 -11.1282 -14.9593 -14.7721 
-13.9344 -15.6245 -15.282 -16.8835 -13.7004 -14.5857 -13.2186 -10.759 -13.8234 -10.785 -12.6931 -11.6609 -12.0641 -11.1282 -15.869 -18.1198 
