-4.759 
n/a 
n/a 
n/a 
n/a 
-4.759 
n/a 
n/a 
n/a 
n/a 
-4.759 
n/a 
n/a 
n/a 
n/a 
-4.759 
n/a 
n/a 
n/a 
n/a 
-3.6085 -5.3225 -4.4715 -6.6585 0 -3.098 -12.16972 -2.3615 -4.121 -5.0485 -4.2915 -8.655001 -9.278001 -4.743 -6.984 -4.4345 0 -4.9115 -2.7625 -4.4345 0 -5.003 -2.7625 -4.4345 -4.9225 -3.511 0 
-9.734501 -9.152 -12.1828 -6.6585 -3.098 -16.31192 -14.53122 -6.543 -6.243001 -8.4115 -14.0563 -18.2076 -14.163 -12.184 -11.085 -4.4345 -4.9115 -8.201 -6.7495 -4.4345 -5.003 -8.504001 -6.7495 -10.7608 -8.092 -3.511 
-13.564 -17.2723 -12.1828 -9.8265 -16.31192 -18.67342 -18.71272 -9.691501 -8.425501 -18.5713 -23.6089 -23.0926 -21.8282 -16.9325 -11.2178 -10.7495 -8.201 -12.3352 -6.7495 -10.841 -8.504001 -12.7116 -14.0298 -13.9303 -8.092 
-21.6843 -17.2723 -15.3508 -23.34582 -18.67342 -22.85492 -21.86122 -11.9214 -18.5983 -28.1239 -28.4939 -30.7578 -26.3525 -16.9325 -17.8558 -14.039 -12.3352 -12.3352 -14.11 -14.342 -12.7116 -19.9919 -17.1993 -13.9303 
-21.6843 -20.4403 -28.87012 -25.70732 -22.85492 -26.00342 -24.09112 -22.0942 -28.1509 -33.0089 -36.1591 -35.2821 -26.3525 -23.5705 -21.1453 -18.1732 -12.3352 -19.6957 -17.611 -18.5496 -19.9919 -23.1614 -17.1993 
-4.426 -1.7565 -1.4985 -3.6115 -4.7285 -4.1555 -3.147 -3.6085 -2.186 -1.4985 -4.138 -3.6885 -2.7415 -1.934 -4.628 -4.743 0 -4.065 0 -1.4985 -3.1385 -2.7415 -1.4985 -2.7295 -4.121 -3.6885 -1.934 -4.121 -6.408 -3.9825 0 0 -6.0695 -2.998 0 0 -7.532001 -2.7625 0 0 -7.333 -2.7625 0 0 -3.819 -1.7565 -1.4985 -4.191 -3.277 -1.934 -3.819 -5.312 -2.7415 -6.473 -3.277 -5.312 0 
-5.47 -2.4195 -4.081 -6.5495 -8.4455 -5.77 -7.241 -5.869 -3.339 -4.746 -9.1845 -6.3815 -4.5155 -5.9605 -4.7515 -4.743 -4.065 -4.065 -1.4985 -4.2575 -6.375501 -4.063 -6.049001 -8.709001 -7.4265 -5.5135 -6.785 -11.6062 -11.3791 -3.9825 0 -6.0695 -9.536501 -2.998 0 -7.532001 -10.7489 -2.7625 0 -7.333 -11.1355 -2.7625 0 -3.819 -6.969 -2.4195 -5.432 -5.1085 -4.8125 -6.5045 -10.181 -8.2845 -10.018 -10.1175 -9.874001 -5.312 
-5.9535 -5.180501 -6.670501 -9.978001 -9.541501 -9.683001 -9.05 -6.763 -6.107 -10.3745 -12.1503 -8.332001 -8.702001 -5.9845 -4.7515 -8.8865 -4.065 -7.019 -4.2575 -7.3025 -7.6055 -8.3545 -12.0093 -12.1459 -9.173 -10.071 -14.9076 -16.5773 -11.3791 -3.9825 -6.0695 -9.536501 -9.536501 -2.998 -7.532001 -10.7489 -10.7489 -2.7625 -7.333 -11.1355 -11.1355 -2.7625 -3.819 -6.969 -7.6235 -6.104001 -6.994 -6.563 -10.181 -13.3329 -13.1535 -15.6228 -14.1695 -17.6429 -9.874001 
-8.462501 -7.797 -10.054 -11.0524 -13.4545 -11.7872 -9.7405 -10.401 -12.1021 -13.3403 -14.1008 -12.7315 -8.712501 -5.9845 -8.939501 -8.8865 -7.019 -9.670501 -7.3025 -8.469501 -12.0372 -14.754 -15.4462 -13.8924 -13.7651 -19.075 -19.8787 -16.5773 -11.3791 -10.5435 -9.536501 -9.536501 -9.536501 -11.117 -10.7489 -10.7489 -10.7489 -10.382 -11.1355 -11.1355 -11.1355 -7.162001 -6.969 -7.6235 -11.5748 -8.111501 -8.852501 -12.1681 -17.0094 -16.3054 -20.4918 -19.8543 -21.0949 -17.6429 
-10.2375 -11.2985 -11.1648 -14.9654 -15.5587 -12.4777 -13.4777 -16.3961 -15.0679 -15.2908 -18.5003 -12.742 -8.712501 -9.774 -8.939501 -12.1001 -9.670501 -12.8545 -8.469501 -12.997 -18.4367 -18.1909 -17.1927 -18.4845 -22.7691 -24.0461 -19.8787 -16.5773 -17.9401 -14.0105 -9.536501 -9.536501 -17.7949 -14.3339 -10.7489 -10.7489 -18.3684 -14.1845 -11.1355 -11.1355 -15.535 -10.6558 -7.6235 -11.5748 -13.5823 -9.724001 -14.8444 -18.9965 -19.9819 -23.6437 -24.7233 -26.7797 -21.0949 
-4.013 -3.6085 -2.186 -3.2955 -4.742 -1.934 -6.6585 0 -12.16972 -3.098 -3.9595 -1.4985 -3.6085 -2.5045 -2.985 -4.121 -6.9825 -6.6585 0 -5.4685 -2.186 -3.962 -9.347501 0 -5.8965 -2.186 -3.962 -8.2095 0 -4.9115 -2.186 -3.962 -2.998 -3.868 -1.756 -5.0275 -2.186 -3.962 -8.191 -3.4765 -3.929 -1.4985 -4.02 -2.186 -4.554 -3.819 -1.934 -4.191 -3.277 0 -3.0365 -2.186 -2.847 -3.6595 -2.7455 -1.4985 -4.3705 -4.796 -2.5195 -1.4985 -4.02 -4.554 -1.934 -4.539 0 
-7.8695 -5.869 -4.348001 -6.8145 -6.313 -7.809 -6.6585 -12.16972 -15.26772 -7.019 -5.404 -5.023 -5.552 -5.065001 -6.031 -7.363501 -12.044 -6.6585 -5.4685 -7.0615 -5.363 -14.4081 -9.347501 -5.8965 -7.3885 -5.363 -13.2701 -8.2095 -4.9115 -6.235001 -5.363 -7.7145 -5.6785 -5.484 -6.4605 -6.43 -5.363 -13.2516 -12.1371 -4.589 -4.8985 -4.914001 -5.624 -5.002501 -7.699 -5.237 -5.835001 -5.1085 -3.277 -3.0365 -3.66 -4.1045 -6.801001 -5.848001 -3.637 -5.577001 -10.7099 -6.7895 -3.1695 -4.914001 -8.552999 -5.9615 -5.722 -4.539 
-8.1815 -7.929001 -7.501 -7.225 -12.8172 -7.809 -19.58682 -15.26772 -19.18872 -8.193501 -9.074 -7.493501 -7.4045 -7.568501 -8.818001 -14.8851 -13.1656 -10.9075 -7.0615 -9.8525 -16.6633 -14.4081 -15.513 -7.3885 -10.1715 -15.5253 -13.2701 -13.6186 -6.235001 -8.7995 -9.6875 -10.044 -7.2045 -10.8897 -8.030001 -9.094501 -15.5068 -17.1977 -13.2496 -5.3395 -8.143001 -6.2225 -8.403501 -8.185 -9.602001 -8.259001 -6.581501 -5.1085 -5.79 -3.66 -4.256001 -8.139501 -9.345 -6.75 -7.5305 -12.343 -12.7034 -7.467 -6.934 -9.601501 -10.028 -10.459 -5.722 
-9.837501 -9.5775 -7.896 -13.9464 -12.8172 -21.19452 -22.68482 -19.18872 -20.36322 -12.0227 -11.6101 -9.606001 -8.6145 -9.14 -15.8972 -15.3857 -17.8718 -12.5005 -9.8525 -21.3932 -16.6633 -20.5736 -17.005 -10.1715 -20.4762 -15.5253 -18.6792 -14.9421 -8.7995 -13.9626 -12.1542 -11.57 -12.7652 -12.4592 -10.6215 -19.8801 -19.4529 -18.3102 -14.0001 -8.388 -8.934501 -9.4265 -11.6552 -10.354 -12.507 -8.526 -6.581501 -7.4755 -6.559 -4.256001 -8.249001 -9.951 -9.984 -10.688 -14.5615 -14.3365 -13.3809 -11.7121 -11.8377 -11.1167 -14.5719 -10.459 
-11.69 -9.7755 -14.6776 -13.9464 -26.20272 -24.29252 -26.60582 -20.36322 -24.19242 -14.5588 -13.7226 -10.912 -9.864 -16.7641 -16.0186 -20.0919 -19.4648 -15.2915 -21.3932 -21.3932 -22.8288 -22.0656 -19.788 -20.4762 -20.4762 -20.9344 -20.0027 -17.5066 -13.9626 -16.4293 -13.6802 -17.1307 -14.3347 -15.0507 -21.4071 -23.8262 -20.5654 -19.0607 -17.0486 -9.1925 -12.3453 -12.503 -13.8242 -13.3022 -12.774 -8.526 -8.705001 -8.2875 -7.1965 -8.249001 -9.950001 -10.722 -13.922 -17.719 -16.555 -15.014 -17.626 -16.6158 -13.3529 -15.6606 -14.5719 
-3.929 -3.6085 -2.186 -1.934 -3.3785 -2.9645 -1.934 -4.628 -4.743 0 -3.098 -5.5485 -2.674 -2.4265 -2.5045 -2.985 -4.121 -5.0485 -5.4685 -2.186 -3.962 -2.5045 -3.9825 0 0 -2.5045 -1.4985 -3.486 -2.95 -5.8965 -2.998 0 0 -4.9115 -2.5045 -2.7625 0 -1.756 -5.0275 -2.5045 -2.7625 0 -2.4945 -3.962 -3.929 0 -4.02 -4.46 -2.7415 -4.4655 -3.6055 -2.6615 -3.277 0 -3.2615 -4.377 -3.0365 -2.186 -2.847 -3.8135 -1.7565 -1.4985 -3.1385 0 -4.2655 -4.7365 0 
-8.05 -5.869 -4.0835 -4.5895 -6.1125 -4.6135 -5.9605 -4.7515 -4.743 -3.098 -8.036 -7.4085 -4.892 -4.6185 -5.065001 -6.031 -6.243001 -11.4092 -7.0615 -5.363 -5.124 -7.337501 -3.9825 0 -2.5045 -3.1915 -3.5655 -4.563 -9.498501 -9.5375 -2.998 0 -4.9115 -6.735001 -6.259501 -2.7625 -1.756 -6.4605 -6.8815 -6.259501 -2.7625 -2.4945 -5.752 -7.515 -3.929 -4.02 -6.6655 -6.898 -5.5035 -7.1455 -6.0115 -4.7555 -3.277 -3.2615 -7.7485 -7.4315 -3.66 -4.1045 -6.1245 -4.991 -2.4195 -4.2575 -3.1385 -4.2655 -8.623501 -4.7365 
-8.441501 -8.281 -6.671 -7.1175 -7.460501 -9.225 -5.9845 -4.7515 -8.685 -8.036 -10.019 -10.3545 -6.907001 -6.855 -7.568501 -7.172501 -13.4035 -13.0022 -9.8525 -5.938 -10.6188 -7.337501 -3.9825 -2.5045 -3.1915 -4.538 -4.577 -10.485 -13.2763 -9.5375 -2.998 -4.9115 -6.735001 -11.1486 -6.259501 -5.1445 -6.4605 -8.2275 -11.1921 -6.259501 -6.2535 -5.752 -9.633501 -7.515 -8.641001 -6.6655 -8.759501 -8.1105 -8.8275 -8.476001 -6.8595 -4.7555 -5.1005 -7.7485 -9.818001 -8.120001 -4.256001 -6.9395 -6.3995 -5.727 -5.013 -4.2575 -6.6805 -8.623501 -8.623501 
-11.2577 -10.6345 -8.6005 -8.18 -12.413 -9.268001 -5.9845 -8.6955 -13.7478 -10.019 -12.965 -12.3695 -8.675 -9.288 -7.9125 -14.6652 -14.9965 -15.7932 -10.1145 -11.8468 -10.6188 -7.337501 -6.8055 -3.1915 -4.538 -4.615 -10.4945 -14.2628 -13.2763 -9.5375 -8.446001 -6.735001 -11.1486 -11.1486 -8.262501 -10.5745 -8.2275 -12.4973 -11.1921 -9.113501 -9.7185 -9.633501 -9.633501 -12.3742 -11.6541 -8.759501 -9.318001 -10.6465 -10.5535 -8.500501 -6.8595 -6.5495 -9.184001 -9.818001 -10.414 -8.757001 -6.945001 -7.1035 -7.3815 -8.4685 -5.013 -8.967001 -12.3157 -8.623501 
-13.6112 -12.564 -9.341001 -13.3715 -12.456 -9.268001 -9.137 -13.7607 -15.7308 -12.965 -14.98 -14.1375 -10.476 -9.381001 -15.4392 -16.2582 -17.7875 -16.0552 -15.9871 -11.8468 -10.6188 -10.0785 -7.899 -4.538 -4.615 -10.513 -14.2723 -14.2628 -13.2763 -10.3765 -10.7483 -11.1486 -11.1486 -13.1516 -13.9949 -12.3415 -12.4973 -12.4973 -14.0461 -12.7261 -13.6706 -9.633501 -14.5617 -15.3873 -13.7481 -9.318001 -12.0842 -12.3725 -10.578 -8.500501 -8.686001 -10.9712 -11.4157 -10.414 -11.2934 -11.6082 -7.1055 -7.9095 -10.503 -8.4685 -9.241501 -15.011 -12.3157 
