-4.759 
n/a 
n/a 
n/a 
n/a 
-4.759 
n/a 
n/a 
n/a 
n/a 
-4.759 
n/a 
n/a 
n/a 
n/a 
-4.759 
n/a 
n/a 
n/a 
n/a 
-1.4985 -3.1385 -4.4465 -1.934 -5.8065 -6.343 0 -5.1845 -5.74 0 -4.883 0 -5.749 0 -9.243501 -9.9095 -2.3345 -5.0185 -4.9225 0 
-4.2575 -6.3125 -6.281 -6.862 -8.926001 -6.343 -5.1845 -5.7465 -5.74 -4.883 -4.883 -5.749 -5.749 -9.243501 -19.2824 -12.3292 -7.483001 -7.0895 -4.9225 
-7.3265 -8.292001 -11.8072 -10.298 -8.926001 -12.2027 -5.7465 -5.7465 -8.262 -4.883 -8.561501 -5.749 -15.9491 -19.2824 -21.7021 -17.4777 -10.1465 -7.0895 
-8.947001 -13.8596 -15.2432 -10.298 -14.9845 -12.7647 -5.7465 -8.262501 -8.262 -8.561501 -8.561501 -15.9491 -25.988 -21.7021 -26.8506 -20.1412 -10.1465 
-14.6586 -17.2956 -15.2432 -16.8187 -15.5465 -12.7647 -8.262501 -8.262501 -13.1799 -8.561501 -19.2984 -25.988 -28.4077 -26.8506 -29.5141 -20.1412 
-3.3715 -3.1385 -2.5195 -6.343 -3.8145 -1.7565 -12.16972 0 -5.1845 -5.74 0 -4.883 0 -10.1165 0 -3.641 -5.6305 -2.4945 -4.4465 -2.3345 -5.0185 -5.976501 
-4.712501 -5.074 -8.377501 -8.291 -4.711 -14.87542 -12.16972 -5.1845 -5.7465 -5.74 -4.883 -4.883 -10.1165 -10.1165 -3.641 -6.0325 -8.290501 -5.7985 -4.897501 -7.483001 -7.601001 
-6.818 -10.634 -10.051 -9.3675 -19.30252 -14.87542 -17.35422 -5.7465 -5.7465 -8.262 -4.883 -15.9579 -10.1165 -13.8875 -6.0325 -8.599501 -10.674 -6.018 -8.475 -10.3405 
-12.7786 -12.3075 -11.1275 -24.86142 -19.30252 -20.05992 -17.91622 -5.7465 -8.262501 -8.262 -15.9579 -15.9579 -13.8875 -16.279 -8.599501 -10.6875 -10.773 -9.967 -10.6095 
-14.4521 -13.384 -26.62142 -24.86142 -24.48702 -20.62192 -17.91622 -8.262501 -8.262501 -20.5763 -15.9579 -19.7289 -16.279 -18.846 -10.6875 -10.7815 -14.722 -12.1357 
-2.645 -3.1385 -2.5195 -6.343 -3.8145 -1.7565 -5.8065 0 -1.756 -2.645 -3.1385 -2.5195 -6.557 0 -4.883 0 -5.749 0 -8.2825 -2.4945 -5.2985 -4.4465 -2.5195 -5.0185 -4.599 0 
-5.073 -5.074 -8.377501 -8.291 -4.711 -6.866001 -5.8065 -1.756 -3.898 -5.073 -5.074 -8.5205 -6.557 -4.883 -4.883 -5.749 -5.749 -8.2825 -11.2138 -6.673 -6.683 -7.507 -7.012 -5.1395 -4.599 
-7.133501 -10.634 -10.051 -9.3675 -8.389501 -6.866001 -7.314001 -3.898 -5.873 -7.133501 -10.2135 -8.5205 -9.783501 -4.883 -8.561501 -5.749 -14.9881 -11.2138 -15.3923 -8.0015 -9.62 -12.2869 -7.1455 -5.1395 
-13.2121 -12.3075 -11.1275 -9.484 -8.389501 -8.035501 -10.163 -5.873 -8.190001 -12.7916 -10.2135 -11.9048 -9.783501 -8.561501 -8.561501 -14.9881 -17.9194 -15.3923 -16.7208 -10.5325 -14.5039 -12.4204 -7.1455 
-14.8856 -13.384 -11.244 -9.484 -9.7605 -10.8553 -12.138 -8.190001 -14.2133 -12.7916 -13.94 -11.9048 -13.8284 -8.561501 -18.3374 -17.9194 -22.0979 -16.7208 -19.2518 -15.4164 -14.6374 -12.4204 
-3.3715 -4.8695 -2.356 -5.0185 -4.599 -1.934 -1.4985 -3.4635 -4.418 0 -5.8065 -2.229 -6.343 -3.8145 0 -5.1845 -5.74 0 -5.749 0 -3.641 -5.6305 0 
-8.538 -7.0705 -6.994 -5.1395 -6.386001 -2.6125 -3.6265 -7.226501 -4.418 -5.8065 -7.9185 -8.76 -8.291 -3.8145 -5.1845 -5.7465 -5.74 -5.749 -5.749 -3.641 -6.0325 -5.6305 
-11.1416 -10.281 -7.0785 -6.679 -7.259501 -4.773 -7.2395 -7.226501 -10.4345 -7.9185 -10.2535 -10.219 -8.291 -7.9905 -5.7465 -5.7465 -8.142 -5.749 -8.802 -6.0325 -6.0325 
-14.3521 -10.2905 -8.3925 -7.635001 -10.0955 -7.493501 -7.2395 -13.6882 -12.5465 -10.2535 -10.3695 -10.219 -12.788 -8.025001 -5.7465 -8.149 -8.142 -8.802 -8.8245 -6.0325 
-14.3616 -12.1591 -8.7 -10.354 -13 -7.493501 -13.6978 -15.8002 -14.8815 -10.3695 -10.3695 -14.8582 -12.8225 -8.025001 -8.149 -8.149 -10.064 -8.8245 -8.8245 
