-4.759 
n/a 
n/a 
n/a 
n/a 
-4.759 
n/a 
n/a 
n/a 
n/a 
-4.759 
n/a 
n/a 
n/a 
n/a 
-4.759 
n/a 
n/a 
n/a 
n/a 
-9.841001 -9.741501 -3.284 -5.1475 -2.4945 -5.443 0 
-19.6473 -10.468 -8.0705 -8.759001 -9.925501 -5.443 
-20.3738 -16.5353 -12.1522 -16.348 -9.925501 
-26.4411 -20.617 -19.7412 -16.348 
-30.5228 -28.206 -19.7412 
-9.841001 -8.8935 -3.5385 -2.229 -3.284 -5.5515 
-18.7993 -12.7824 -4.2445 -5.5055 -8.934 
-22.6882 -13.4884 -6.804 -11.6485 
-23.3942 -16.0479 -13.38 
-25.9537 -22.6239 
-8.8935 -3.284 -3.5385 -4.675 -1.934 -10.2665 0 -4.8705 
-12.5279 -5.796 -8.616 -5.947001 -13.2069 -10.2665 -4.8705 
-15.0399 -11.1669 -10.504 -18.0961 -13.2069 -15.3054 
-20.4108 -13.0549 -22.6531 -18.0961 -18.2458 
-22.2988 -25.204 -22.6531 -23.135 
-9.841001 -8.688001 -3.284 -3.5385 -8.913501 0 -3.9985 
-18.5938 -12.4444 -5.796 -13.531 -8.913501 -3.9985 
-22.3502 -14.9564 -16.0819 -13.531 -13.4218 
-24.8622 -25.2423 -16.0819 -18.0393 
-35.1481 -25.2423 -20.5902 
