-4.759 
n/a 
n/a 
n/a 
n/a 
-4.759 
n/a 
n/a 
n/a 
n/a 
-4.759 
n/a 
n/a 
n/a 
n/a 
-4.759 
n/a 
n/a 
n/a 
n/a 
-3.676 -2.229 -3.944 -3.499 -4.6045 -1.934 -4.278 
-4.593 -5.8065 -7.423 -9.318001 -6.6145 -6.2645 
-9.101501 -10.2535 -13.5836 -11.4544 -9.9805 
-13.9223 -16.4141 -15.72 -14.8204 
-20.0829 -18.5505 -19.086 
-3.6615 -3.43 -2.3345 -1.4985 -4.058 -4.3675 -1.7565 -3.676 -2.264 -4.278 
-5.783501 -4.5865 -3.233 -5.0995 -8.18 -6.0535 -4.4345 -6.081 -6.116 
-6.586501 -5.2085 -6.52 -9.246 -9.459001 -9.3465 -6.989501 -9.349001 
-7.115001 -8.6785 -10.442 -10.244 -12.7722 -12.2799 -9.505 
-10.476 -12.5585 -11.44 -13.4656 -15.7056 -14.7954 
-1.934 -4.278 -2.229 -3.676 -3.5035 -1.756 -3.091 -4.1645 -3.881 0 
-6.2645 -6.414001 -5.957 -7.1085 -4.74 -4.2995 -7.1795 -8.634001 -3.881 
-8.3195 -11.0658 -10.1675 -7.969501 -7.410501 -8.245501 -11.9714 -8.634001 
-13.2777 -15.2763 -11.8989 -12.024 -11.6331 -13.0814 -11.9714 
-17.4882 -17.0077 -15.9534 -16.2466 -16.469 -13.0814 

n/a 
n/a 
n/a 
n/a 
