-4.759 
n/a 
n/a 
n/a 
n/a 
-4.759 
n/a 
n/a 
n/a 
n/a 
-4.759 
n/a 
n/a 
n/a 
n/a 
-4.759 
n/a 
n/a 
n/a 
n/a 
-1.4985 -5.5035 -2.925 -3.1425 -3.115 -1.7695 -3.3095 -3.2615 -2.3335 0 -3.047 -1.4985 -5.5035 0 
-7.269 -7.979001 -4.669 -4.228 -3.974 -4.26 -5.955501 -5.0495 -2.3335 -3.047 -4.095 -7.269 -5.5035 
-9.2155 -9.804501 -5.905 -4.321 -6.419001 -7.840001 -9.075001 -5.0495 -6.495 -4.095 -10.085 -7.269 
-11.2782 -11.0683 -6.025001 -6.6855 -10.1505 -9.619501 -9.075001 -8.3545 -7.3255 -10.085 -10.085 
-12.542 -11.1883 -8.356001 -10.4425 -11.93 -9.619501 -12.5392 -9.385 -13.6345 -10.085 
-3.2615 -2.9805 -4.6335 -12.16972 
-5.2875 -5.899 -17.99022 
-10.275 -19.80072 
-24.17672 
n/a 
-2.8705 -3.115 -8.3855 
-8.0845 -12.2761 
-17.559 
n/a 
n/a 
-3.2615 -2.3335 -1.4985 -9.049001 -2.925 -4.664 0 -3.047 -4.231 0 
-5.0495 -3.3515 -10.575 -12.27 -6.261001 -4.664 -3.047 -6.519 -4.231 
-6.2185 -12.6668 -13.796 -15.606 -6.261001 -8.3235 -6.519 -6.519 
-15.684 -15.8878 -17.132 -15.606 -9.585501 -11.9607 -6.519 
-18.905 -19.2238 -17.132 -18.9305 -13.4175 -11.9607 
