-4.759 
n/a 
n/a 
n/a 
n/a 
-4.759 
n/a 
n/a 
n/a 
n/a 
-4.759 
n/a 
n/a 
n/a 
n/a 
-4.759 
n/a 
n/a 
n/a 
n/a 
-1.934 -1.4985 -3.158 -4.3285 0 -10.227 -3.8755 -2.664 -5.112 -3.6205 0 
-2.6125 -4.178 -6.5725 -4.3285 -8.744 -12.823 -5.72 -6.0195 -8.934501 -3.6205 
-5.265 -7.755 -6.5725 -12.5838 -13.125 -14.7085 -9.259501 -9.878 -8.934501 
-8.328501 -7.755 -15.3324 -16.9648 -14.7085 -18.3662 -13.2714 -9.878 
-8.328501 -16.9141 -19.7134 -18.5483 -18.3662 -22.3781 -13.2714 
-1.934 -4.3285 -3.013 -3.074 -3.355 -1.7565 -3.2495 -2.9705 -2.186 -3.352 -3.4425 -3.473 -1.756 -3.321 -3.188 -4.0005 -3.473 
-5.522501 -7.877 -8.292001 -6.076 -3.725 -4.5605 -6.735 -3.89 -6.2375 -5.2435 -5.709 -5.055 -4.0055 -7.625 -4.969501 -6.7235 
-8.937 -13.3084 -11.692 -6.109 -7.045001 -8.113001 -7.5645 -8.0775 -8.897 -6.02 -7.2135 -7.306 -8.622001 -9.232 -7.4575 
-14.3848 -16.7084 -11.725 -9.246 -10.264 -8.837001 -11.997 -10.6605 -9.276501 -7.4315 -9.507 -12.1469 -9.8655 -11.6508 
-17.7848 -16.7414 -14.862 -12.643 -11.5916 -13.3445 -14.58 -11.04 -11.0564 -9.812 -14.5431 -13.3904 -12.2843 
-2.264 -4.3285 -3.3985 -3.6905 0 -12.16972 -4.4895 -2.871 -3.845 -4.2555 0 
-7.734 -7.634501 -7.876 -3.6905 -12.16972 -16.65922 -7.443 -7.533 -6.7355 -4.2555 
-10.7595 -12.2486 -7.876 -16.83642 -16.65922 -19.61272 -12.5062 -10.0065 -6.7355 
-15.3736 -12.2486 -21.68112 -21.32592 -19.61272 -24.67592 -14.9797 -10.0065 
-15.3736 -26.05372 -26.17062 -24.27942 -24.67592 -27.14942 -14.9797 
-1.934 -4.3285 -3.158 -3.3985 -3.6905 -9.2655 -4.156 -4.8965 -2.871 -3.6205 
-5.522501 -7.418 -6.6975 -7.876 -13.9322 -13.5869 -9.460501 -8.0845 -6.771501 
-9.594501 -11.9425 -11.5398 -18.7769 -18.2536 -18.8914 -12.6481 -12.472 
-14.193 -16.7848 -22.4407 -23.0983 -23.5581 -22.079 -17.0356 
-19.0353 -27.6857 -26.7621 -28.4028 -26.7457 -26.4665 
