-4.759 
n/a 
n/a 
n/a 
n/a 
-4.759 
n/a 
n/a 
n/a 
n/a 
-4.759 
n/a 
n/a 
n/a 
n/a 
-4.759 
n/a 
n/a 
n/a 
n/a 
-4.98 -3.401 -12.16972 -3.6085 -4.9405 -4.4345 0 -3.704 0 -1.756 -4.129 -4.191 -3.6885 -2.4945 0 -1.934 -3.845 0 -7.784 -1.934 -9.724001 0 -4.4345 
-8.145 -16.66932 -15.77822 -7.773001 -10.355 -4.4345 -3.704 -3.704 -1.756 -6.031 -8.9455 -8.887 -6.529 -2.4945 -1.934 -5.5985 -3.845 -7.784 -10.348 -12.6644 -9.724001 -4.4345 
-21.65372 -20.27782 -19.94272 -13.5167 -10.355 -9.16 -3.704 -5.364 -6.031 -10.3675 -13.9735 -11.9687 -6.529 -4.2645 -5.5985 -5.5985 -12.5432 -10.348 -21.0784 -12.6644 -14.4135 
-25.26222 -24.44232 -25.68642 -13.5167 -15.0805 -9.16 -5.364 -9.9135 -10.3675 -15.9125 -17.0552 -11.9687 -8.5515 -7.624001 -5.5985 -14.7907 -15.1072 -21.0784 -21.0784 -17.3539 
-29.42672 -30.18602 -25.68642 -18.2422 -15.0805 -10.9964 -9.9135 -14.648 -15.9125 -18.9942 -17.0552 -13.9912 -12.0702 -7.624001 -14.7907 -17.3547 -25.8376 -21.0784 -25.7679 
-4.6905 -5.8215 -2.186 -3.77 -1.7695 -4.0135 -2.5195 -4.1145 -3.602 0 -3.5065 -1.4985 -3.6075 -4.346 -1.7565 -3.345 -3.522 -2.4945 -4.4725 -1.934 -3.895 0 -1.4985 -4.829 -2.95 -1.7695 -4.8525 -1.756 -4.149 -8.406501 -2.186 -3.383 -3.644 0 -4.0955 -1.8085 -3.7375 -3.8315 
-8.786 -7.572001 -5.0015 -4.2755 -4.613 -5.4975 -7.1055 -7.0395 -3.602 -3.5065 -4.358 -4.5495 -5.8535 -4.81 -4.365 -6.389 -6.184 -5.739 -5.511001 -5.1555 -3.895 -1.4985 -5.479 -6.999 -4.11 -5.178 -5.903 -5.872 -10.0925 -9.943001 -4.438 -5.271 -3.644 -4.0955 -5.656 -3.8995 -4.997 
-9.995501 -10.6605 -5.284 -6.897501 -6.602 -11.5307 -9.870001 -7.0395 -7.4585 -4.358 -6.653 -6.9285 -6.242 -7.068 -7.054 -8.231001 -9.767 -6.411 -9.477501 -5.1555 -5.5105 -5.479 -7.323501 -7.312 -7.733 -6.187 -8.1005 -10.0925 -10.0985 -12.72 -6.3665 -5.271 -8.1365 -5.656 -7.399 -5.0375 
-13.5476 -10.943 -7.7895 -8.377501 -12.9152 -14.2952 -9.870001 -11.7068 -8.397 -6.653 -9.473001 -7.2205 -9.347501 -8.581 -9.076 -12.412 -10.0705 -10.5225 -9.477501 -6.1875 -9.5375 -7.323501 -7.6375 -9.992001 -8.7535 -8.4215 -10.092 -10.0985 -14.1947 -14.6485 -6.3665 -8.887501 -9.550501 -7.399 -8.033 
-13.8301 -13.4485 -9.1565 -15.0713 -15.6797 -14.2952 -14.9185 -12.6453 -10.451 -9.473001 -10.042 -10.3675 -11.2385 -10.3405 -13.4588 -12.7155 -14.7156 -10.5225 -10.7585 -10.0705 -11.632 -7.6375 -10.0375 -10.083 -9.989 -10.0915 -10.098 -14.1935 -16.1232 -14.6485 -9.335501 -9.961 -10.014 -8.033 
-4.278 -3.6085 -4.96 -3.6885 -1.7565 -3.5315 -3.0105 -3.158 -4.96 -1.934 -4.278 
-7.167001 -9.2235 -9.207001 -5.258 -5.2425 -4.774 -6.226 -8.578501 -6.758 -6.2645 
-13.9702 -13.6417 -11.0533 -9.472 -7.0505 -8.8065 -12.5635 -10.168 -11.7385 
-18.3884 -15.488 -15.2673 -11.28 -10.66 -15.5448 -14.153 -15.1485 
-20.2347 -19.702 -17.0753 -14.8895 -17.3983 -17.1343 -19.1335 
-4.278 -2.229 -3.6085 -4.928 -4.4345 0 -1.934 -3.704 0 -1.756 -3.0835 -4.191 -8.4145 0 -1.934 -3.845 0 -2.4945 -3.098 -3.6845 -3.1635 0 -1.7565 -4.278 -2.229 -4.928 -2.4945 -1.934 -3.6085 -4.154 -3.506 -3.0105 -4.0305 0 
-6.414001 -5.8755 -7.594 -10.985 -4.4345 -1.934 -5.4025 -3.704 -1.756 -5.3535 -6.441501 -13.6383 -8.4145 -1.934 -5.5985 -3.845 -2.4945 -4.907001 -7.6145 -7.592501 -3.1635 -1.7565 -6.515 -6.414001 -6.947001 -6.916 -4.2645 -4.739 -8.642501 -8.995001 -4.7705 -6.799 -4.0305 
-9.575001 -8.474501 -14.1898 -10.985 -6.433001 -5.4025 -5.4025 -5.364 -5.3535 -9.255 -16.598 -13.6383 -9.9895 -5.5985 -5.5985 -6.851501 -4.907001 -9.859 -11.8155 -7.592501 -5.737 -6.515 -7.6525 -12.0558 -8.488501 -8.794001 -6.8945 -9.028501 -13.6035 -10.4993 -8.756001 -6.799 
-12.627 -17.0941 -14.1898 -12.9835 -9.578501 -5.4025 -6.56 -9.863501 -9.255 -19.4937 -16.598 -15.2133 -14.0312 -5.5985 -7.483001 -9.519501 -9.859 -14.1628 -11.8155 -9.953501 -10.0745 -7.6525 -13.5195 -13.5973 -10.66 -10.2435 -11.769 -14.0279 -15.1078 -14.4848 -8.756001 
-21.2466 -17.0941 -16.1883 -16.129 -9.578501 -6.56 -11.3541 -13.765 -19.4937 -19.4937 -18.173 -19.255 -14.0312 -7.483001 -9.8985 -14.6171 -14.1628 -14.1628 -14.1765 -14.4054 -12.7292 -13.5195 -15.061 -15.7688 -12.1095 -15.118 -16.7684 -15.5322 -19.0933 -14.4848 
