-4.759 
n/a 
n/a 
n/a 
n/a 
-4.759 
n/a 
n/a 
n/a 
n/a 
-4.759 
n/a 
n/a 
n/a 
n/a 
-4.759 
n/a 
n/a 
n/a 
n/a 
-1.934 -2.3615 -3.778 -1.4985 -3.355 -2.846 -3.644 -3.9675 -1.7565 -3.691 0 
-3.539 -5.4315 -5.5265 -4.951 -6.484 -7.3805 -8.557501 -5.258 -4.930501 -3.691 
-6.5405 -7.1005 -8.7565 -8.916 -10.757 -12.7226 -9.711 -8.348001 -4.930501 
-7.93 -10.5301 -13.1885 -13.365 -16.0991 -13.8761 -13.011 -8.348001 
-11.544 -14.9621 -17.6375 -18.7071 -17.2526 -17.1761 -13.011 
-3.355 -2.846 -1.7565 -2.3615 -5.641 -4.7595 -3.3715 -5.891 -3.9675 -1.756 -3.1435 -3.9655 -4.703 0 
-6.484 -5.294001 -3.523 -7.601 -11.0805 -7.471 -9.531501 -8.892 -4.9775 -4.1365 -6.3325 -8.008 -4.703 
-7.6885 -7.06 -8.4095 -13.4963 -13.792 -14.155 -12.6281 -9.231501 -7.037 -7.142 -11.0216 -8.008 
-8.866 -12.8407 -14.4084 -16.2078 -20.476 -17.2516 -12.9676 -11.7832 -9.5655 -12.1483 -11.0216 
-15.2009 -18.8396 -17.1199 -22.8918 -23.5726 -17.5911 -15.5193 -14.3117 -14.6818 -12.1483 
-1.934 -2.3615 -5.7075 -2.846 0 -3.6065 -4.2465 -4.703 -1.756 -3.1435 -4.8935 -4.635 -3.5035 -2.186 -4.629 0 
-3.539 -7.1765 -8.9615 -2.846 -3.6065 -6.669001 -9.229 -6.19 -4.1365 -7.665 -9.7675 -9.385 -5.432 -6.0385 -4.629 
-7.604 -10.5975 -8.9615 -6.6555 -6.669001 -12.6365 -10.5435 -7.936 -8.688001 -13.0966 -14.6111 -11.5447 -9.327001 -6.0385 
-11.3572 -10.5975 -13.056 -10.228 -12.6365 -13.951 -12.2895 -12.9109 -14.422 -17.9402 -16.7708 -15.4397 -9.327001 
-11.3572 -14.692 -16.6285 -16.3519 -13.951 -15.697 -17.2644 -18.6449 -19.2656 -20.0999 -20.6658 -15.4397 
-2.3615 -3.355 -2.186 -1.934 -1.4985 -4.4525 -1.7565 -3.97 
-5.107 -5.3935 -4.0835 -2.6125 -4.731 -4.6715 -5.6915 
-6.4695 -7.278501 -4.6915 -6.805 -4.7575 -8.557 
-8.171 -7.85 -9.4725 -6.8455 -8.631001 
-8.690001 -12.87 -9.683001 -10.6735 
