-4.759 
n/a 
n/a 
n/a 
n/a 
-4.759 
n/a 
n/a 
n/a 
n/a 
-4.759 
n/a 
n/a 
n/a 
n/a 
-4.759 
n/a 
n/a 
n/a 
n/a 
-2.872 -1.4985 -5.0185 -4.599 -5.1265 -5.42 -2.186 -2.3345 -1.8085 -2.688 -5.1745 -5.2465 -4.414 0 
-4.035 -6.1765 -5.1395 -8.168501 -10.1425 -7.019 -5.098001 -3.8605 -3.642 -8.391001 -8.0045 -9.015 -4.414 
-8.953501 -6.268001 -8.6075 -13.6265 -11.8625 -9.613501 -6.8615 -6.1065 -9.247001 -10.5535 -9.210001 -9.015 
-9.091001 -9.655001 -14.1637 -15.3465 -14.457 -11.377 -9.197001 -11.8863 -11.6825 -11.759 -9.210001 
-12.664 -15.3376 -15.8837 -17.941 -16.2205 -13.7125 -15.0816 -14.3218 -12.888 -11.759 
-2.872 0 -2.5045 -3.8825 -5.1265 -5.0185 -4.599 -2.186 -2.688 -3.319 -1.7565 -5.111 -4.414 
-2.872 -2.5045 -5.282001 -9.458 -8.556 -5.1395 -6.548501 -5.439 -5.948 -4.165 -6.5825 -6.334 
-5.071 -5.282001 -10.434 -13.0407 -8.5825 -6.962 -9.642 -8.939001 -6.113 -9.217501 -8.069 
-7.159 -10.434 -14.0167 -13.0672 -10.368 -9.863001 -13.3968 -9.138 -9.7685 -10.42 
-12.8052 -14.0167 -14.0432 -14.8527 -13.269 -13.699 -13.5958 -13.0035 -11.484 
-2.872 -3.1015 -4.4755 -1.7695 -12.16972 -4.599 -3.2345 -1.8085 -2.688 -5.1745 -5.2465 -3.074 0 
-5.068501 -7.1635 -5.871 -14.92142 -16.76872 -8.715501 -4.108 -3.642 -8.391001 -8.0045 -9.1495 -3.074 
-9.642501 -7.772 -19.86472 -19.52042 -20.88522 -9.6485 -5.9385 -9.247001 -10.5535 -12.3679 -9.1495 
-10.535 -21.98492 -24.46372 -23.63692 -21.81822 -11.685 -12.1325 -11.6825 -14.9169 -12.3679 
-24.74792 -26.58392 -28.58022 -24.56992 -23.85472 -17.879 -14.568 -16.0459 -14.9169 
-2.872 -3.1015 -5.1265 -5.0655 -4.9225 -4.6205 -2.5195 -7.671 -4.414 0 
-5.068501 -7.5215 -9.690001 -9.521501 -9.897 -7.98 -10.1995 -9.184001 -4.414 
-9.677501 -12.828 -14.6754 -14.5546 -13.4157 -16.026 -11.7125 -9.184001 
-15.0818 -17.8134 -19.7085 -18.0733 -21.4617 -17.539 -11.7125 
-20.0672 -22.8465 -23.2272 -26.1193 -22.9747 -17.539 
