-4.759 
n/a 
n/a 
n/a 
n/a 
-4.759 
n/a 
n/a 
n/a 
n/a 
-4.759 
n/a 
n/a 
n/a 
n/a 
-4.759 
n/a 
n/a 
n/a 
n/a 
-3.1495 -3.5795 -1.4985 -5.866 -4.2995 0 -2.9705 -4.24 -4.511 -6.1735 -3.4625 -4.0835 -3.936 -1.4985 -4.963 -1.756 -3.616 -4.1115 -5.6565 -1.7695 -5.029 -1.4985 -4.747 -4.02 -1.7565 -3.8755 -3.468 -6.6695 -1.756 -4.871 -3.152 -4.803 -1.934 -3.135 -4.511 -3.2875 -3.468 -1.934 -3.333 -1.7695 -3.7085 -4.02 -3.539 
-5.3495 -4.5845 -7 -8.7085 -4.2995 -2.9705 -6.43 -9.2465 -10.223 -9.6415 -5.946 -7.335501 -4.263 -5.610001 -6.466001 -5.2995 -5.8985 -8.33 -7.478001 -5.201 -5.752501 -5.7185 -8.344 -5.1665 -5.144 -6.586 -10.281 -7.635 -6.586 -7.812 -6.422501 -6.7205 -4.4015 -7.556 -7.289001 -6.8885 -5.1985 -3.9835 -4.022 -4.19 -8.6405 -7.773 
-6.153 -10.1595 -9.034 -8.7085 -6.4445 -6.43 -10.4945 -10.761 -10.768 -10.429 -8.22 -7.5625 -7.61 -6.738501 -7.796 -7.439 -9.1905 -10.1635 -10.0035 -5.845 -9.095 -8.866 -9.314 -8.676001 -7.632 -14.027 -11.2465 -9.097501 -8.77 -11.3625 -8.4075 -8.670501 -8.785501 -9.7375 -7.7715 -8.1265 -6.912 -4.0425 -6.002501 -8.875001 -9.9355 
-10.7335 -10.757 -9.034 -10.1595 -9.293 -10.4945 -10.7755 -10.7665 -10.7735 -10.749 -8.4325 -10.7495 -8.5745 -8.083 -7.999001 -9.322001 -10.504 -12.689 -10.253 -9.17 -10.6605 -9.571 -12.9067 -9.9615 -15.2058 -14.9925 -12.709 -10.2045 -12.4099 -13.3475 -10.096 -13.2033 -10.0345 -9.807501 -9.073501 -10.1715 -6.9405 -6.0105 -10.085 -10.064 
-10.7845 -10.757 -10.233 -10.7645 -10.719 -10.7755 -10.781 -10.772 -10.779 -10.802 -10.7595 -10.7875 -10.434 -8.477501 -9.580501 -10.5135 -13.0295 -12.9385 -13.578 -10.674 -11.3655 -13.2569 -14.1922 -17.6549 -16.1713 -16.455 -13.816 -13.8444 -14.3949 -15.036 -14.837 -14.4523 -10.056 -11.3027 -10.703 -10.206 -9.188001 -10.0845 -11.368 
-2.3345 -2.3615 -1.4985 -5.383 -1.7565 -4.314 -1.7565 -4.208 -3.9075 -1.756 -4.208 -4.254 0 -3.0365 -2.186 -2.645 -3.6615 -1.934 -5.473 -4.1445 0 -3.6615 -1.934 -3.741 -4.3185 0 -1.756 -3.074 -1.4985 -3.518 -1.7565 -4.3355 -2.186 -7.082 -3.557 -2.3335 -3.1495 -2.4945 -1.4985 -4.856 -4.413 -2.3345 -3.9745 0 
-4.499 -4.913 -6.229 -6.632 -5.628 -7.038 -5.633 -8.201 -5.436 -5.64 -6.363 -4.254 -3.0365 -3.66 -4.528 -6.488 -4.437 -7.5435 -7.984 -4.1445 -3.6615 -4.437 -6.395 -5.0915 -4.3185 -1.756 -4.566 -4.6505 -4.77 -4.302 -6.009501 -6.5745 -9.334001 -10.2705 -4.678 -4.8015 -4.459 -3.9315 -5.6305 -7.336501 -4.6955 -5.771501 -3.9745 
-7.2765 -9.3155 -7.083 -7.958001 -8.738001 -10.3745 -10.013 -9.656501 -9.224001 -8.0635 -6.363 -7.4835 -3.66 -5.64 -9.690001 -7.394001 -8.198 -9.925 -7.984 -7.495 -4.437 -7.361501 -7.967 -5.0915 -5.798 -4.566 -5.66 -7.852 -4.885 -9.067 -8.826 -13.4045 -11.0495 -10.425 -6.921 -5.915501 -5.194 -8.6505 -7.667 -7.380001 -8.3015 -5.771501 
-11.7474 -10.2 -8.561501 -11.7582 -10.674 -14.7545 -11.4685 -13.7713 -11.9437 -8.0635 -9.228001 -8.0445 -5.64 -10.1105 -10.211 -11.6306 -10.396 -9.925 -10.6735 -8.052501 -7.361501 -9.600301 -7.967 -5.958 -9.286 -5.66 -8.634501 -7.972 -9.674 -12.1477 -15.6882 -15.5606 -11.5461 -12.228 -8.638 -6.784 -10.5975 -11.138 -7.7095 -10.347 -8.3015 
-12.6319 -11.6893 -12.3513 -13.6942 -15.054 -16.21 -15.5833 -16.491 -11.9437 -11.4853 -9.792001 -10.223 -10.1105 -10.7373 -14.4204 -13.8286 -10.396 -12.6145 -11.231 -11.5826 -9.600301 -9.600301 -9.5135 -10.298 -10.2705 -8.634501 -8.7235 -12.8066 -12.7827 -19.0099 -17.8443 -15.9356 -13.6741 -14.0432 -9.2745 -12.5547 -13.2268 -11.1805 -10.8885 -10.347 
-3.1435 -3.557 -2.3335 -3.0365 -2.186 -3.8665 -4.555 -3.115 -8.474501 -4.4545 0 -8.474501 -3.9075 0 -3.6885 -3.6615 -1.934 -4.2485 0 -3.8105 -3.618 -1.756 -3.922 -1.934 -1.4985 -4.1115 -3.518 0 
-8.086 -4.678 -4.2925 -3.66 -6.099 -6.006001 -7.460001 -12.3651 -13.3258 -4.4545 -8.474501 -12.7788 -3.9075 -3.6885 -6.955501 -4.437 -6.183 -4.2485 -3.8105 -7.855 -4.8765 -5.3165 -4.558 -2.6125 -4.843 -5.3935 -3.518 
-9.0865 -6.3205 -4.7505 -8.083 -9.3605 -8.2615 -17.3799 -17.2164 -13.3258 -13.9624 -12.7788 -12.7788 -8.072001 -6.955501 -7.1525 -6.9315 -6.183 -8.530001 -7.855 -9.64 -8.425 -6.7485 -5.195 -6.0655 -6.882 -5.3935 
-11.0764 -6.9545 -9.085001 -10.2635 -10.7505 -18.6508 -22.2312 -17.2164 -22.8337 -18.2667 -12.7788 -16.9433 -11.6018 -7.1525 -9.082001 -6.9315 -9.915501 -12.6523 -9.64 -13.2399 -9.715 -7.654 -9.062 -8.194 -6.882 
-11.7104 -11.5494 -11.3715 -11.6535 -21.1398 -23.5021 -22.2312 -26.7243 -27.138 -18.2667 -16.9433 -20.4731 -11.7988 -9.082001 -9.082001 -10.426 -14.0378 -14.4373 -13.2399 -14.5299 -10.453 -11.5742 -9.408 -8.194 
-5.9155 -3.6785 -2.3335 -3.851 -1.7695 -2.3615 0 -3.8665 -6.5055 -3.115 -5.383 -1.7565 -4.208 -4.5615 -1.756 -5.7775 0 -4.4915 -3.6615 -1.934 -4.7285 -3.618 0 -5.091 -3.6615 -1.934 -1.4985 -4.113 -1.756 -4.3855 -1.934 -1.4985 -4.1115 -3.518 -2.882 -4.474 0 
-8.9305 -4.529 -6.061 -4.0015 -3.736 -2.3615 -3.8665 -7.2685 -7.801001 -8.219501 -6.632 -5.633 -6.6415 -5.845 -7.0375 -5.7775 -4.4915 -7.647 -4.437 -6.6735 -7.52 -3.618 -5.091 -7.308 -4.437 -2.6125 -5.425 -5.653501 -6.4005 -5.280001 -2.6125 -4.843 -5.3935 -6.588 -5.4255 -4.474 
-9.4195 -8.2085 -6.1175 -6.14 -3.736 -6.4535 -7.2685 -8.629001 -13.9819 -10.0035 -7.828001 -7.525001 -7.5695 -8.264 -7.0375 -9.156 -7.647 -7.841001 -8.4505 -9.358001 -7.52 -9.292001 -7.308 -7.895 -5.0245 -6.684 -6.8085 -10.4185 -7.584001 -5.999001 -6.0655 -6.882 -8.283001 -9.0385 -5.4255 
-13.1256 -8.247001 -8.1155 -6.14 -7.97 -10.1497 -8.629001 -14.4957 -15.7659 -11.1509 -8.692 -8.4095 -8.2655 -8.264 -9.241501 -13.2659 -7.841001 -12.3259 -9.9175 -9.358001 -13.588 -11.7362 -7.895 -8.4205 -7.673 -8.156 -11.8465 -10.5455 -8.305 -8.516001 -8.194 -9.335 -10.038 -9.0385 
-13.1641 -9.872001 -8.1155 -9.184501 -11.8544 -11.5102 -14.4957 -16.2797 -16.9133 -12.0149 -9.349001 -8.675 -8.2655 -10.7442 -14.486 -13.4599 -12.3259 -13.7929 -9.9175 -15.4614 -16.0322 -12.3232 -8.4205 -11.1684 -8.705501 -13.4246 -11.9735 -11.2665 -10.66 -8.6035 -10.6735 -11.2928 -10.038 
