-4.759 
n/a 
n/a 
n/a 
n/a 
-4.759 
n/a 
n/a 
n/a 
n/a 
-4.759 
n/a 
n/a 
n/a 
n/a 
-4.759 
n/a 
n/a 
n/a 
n/a 
-5.1845 -3.6885 0 -3.9675 0 -2.645 0 -6.4735 -1.934 -6.4705 0 
-7.323501 -3.6885 -3.9675 -3.9675 -2.645 -2.645 -6.4735 -7.508 -6.8875 -6.4705 
-7.323501 -6.431 -3.9675 -6.571 -2.645 -8.875001 -7.508 -9.134501 -6.8875 
-10.061 -6.431 -6.571 -6.571 -8.875001 -9.853001 -9.134501 -9.134501 
-10.061 -9.4665 -6.571 -13.5852 -9.853001 -11.8315 -9.134501 
-5.1845 -3.6885 -3.9675 0 -6.4735 -1.934 -6.4705 0 0 
-7.323501 -6.431 -3.9675 -6.4735 -7.508 -6.8875 -6.4705 0 
-10.061 -6.431 -10.7665 -7.508 -9.134501 -6.8875 -6.4705 
-10.061 -13.9726 -11.801 -9.134501 -9.134501 -6.8875 
-17.819 -15.0071 -13.4275 -9.134501 -9.134501 
-5.1845 -3.6885 0 -3.9675 
-7.323501 -3.6885 -3.9675 
-7.323501 -6.431 
-10.061 
n/a 
-5.1845 -3.6885 0 -3.9675 -1.756 -9.6365 -1.934 -6.4705 
-7.323501 -3.6885 -3.9675 -4.9775 -12.4011 -10.985 -6.8875 
-7.323501 -6.431 -4.9775 -16.7522 -13.7496 -15.9385 
-10.061 -6.962 -16.7522 -18.1007 -18.7031 
-10.304 -19.3493 -18.1007 -23.0542 
