-4.759 
n/a 
n/a 
n/a 
n/a 
-4.759 
n/a 
n/a 
n/a 
n/a 
-4.759 
n/a 
n/a 
n/a 
n/a 
-4.759 
n/a 
n/a 
n/a 
n/a 
-3.436 -2.9805 -5.0975 -2.0935 -1.4985 -3.757 -4.2405 -3.468 -4.7355 -2.985 -8.2925 -3.1715 -4.0395 -2.3615 -3.7015 -1.4985 -3.5035 -3.676 -4.8025 -3.468 -2.4945 -4.5485 0 
-5.235 -8.897501 -6.955 -2.9725 -4.5435 -8.6025 -6.7385 -8.729 -6.612 -11.445 -12.1585 -8.087501 -6.509 -7.023001 -4.3435 -4.4895 -8.083 -8.752501 -8.7255 -5.546 -5.861 -4.5485 
-11.8254 -11.0976 -7.885 -6.277 -9.409 -10.76 -12.7009 -10.3165 -13.8715 -15.1931 -18.1063 -10.8166 -11.7813 -7.5585 -6.318501 -8.906 -13.8225 -13.0397 -10.7175 -8.939501 -5.861 
-14.0255 -12.0276 -11.5169 -11.6035 -11.6441 -16.7224 -14.2884 -17.7716 -17.4652 -20.7603 -20.8354 -16.0889 -12.3168 -8.9735 -11.2952 -15.1639 -18.1097 -15.0317 -14.111 -8.939501 
-14.9555 -15.6595 -16.8434 -13.8386 -17.6065 -18.3099 -21.7435 -21.1697 -23.0324 -23.4894 -26.1077 -16.6244 -13.7318 -14.2178 -17.5531 -19.4511 -20.1017 -18.4252 -14.111 
-3.436 -7.538001 -4.3195 -3.757 0 -4.2405 -3.468 -5.9475 -3.1435 -4.2945 -1.756 -4.1735 -4.47 -9.875 -1.756 -3.4225 -3.468 -3.152 -3.8755 
-12.0638 -12.3367 -6.517 -3.757 -4.2405 -6.7385 -10.022 -8.666 -6.6665 -5.445001 -6.1415 -8.442 -15.7086 -10.688 -5.866 -3.628 -6.2205 -5.6875 
-16.8625 -14.5342 -6.517 -8.6025 -6.7385 -13.9939 -12.8225 -12.8614 -7.558001 -10.634 -9.4265 -19.9216 -16.5216 -14.798 -6.289 -6.727 -8.639 
-19.06 -14.5342 -10.3545 -10.76 -13.9939 -16.7944 -17.0179 -13.7529 -12.9914 -13.919 -20.9379 -20.7346 -20.6316 -15.221 -9.217501 -9.4575 
-19.06 -18.3717 -13.0212 -18.0154 -16.7944 -20.9898 -17.9094 -19.1863 -16.2764 -25.4304 -21.7509 -24.8446 -21.0546 -18.1495 -12.0236 
-3.436 -2.9805 -4.3195 -3.757 0 -1.4985 -4.2405 -3.959 -3.325 -4.1 -4.3215 -2.985 -4.87 -1.756 -4.1735 -6.653 -2.3335 -2.4265 -2.7415 -3.7015 -3.5035 0 -3.4225 -3.468 -1.7565 -3.676 -2.7415 -4.5485 0 
-5.235 -5.4865 -6.517 -3.757 -1.4985 -5.2775 -6.7955 -6.8285 -6.051 -7.7945 -6.389501 -7.174 -6.157001 -6.1415 -10.7495 -7.2695 -3.913 -3.681 -6.2755 -7.439 -3.5035 -3.4225 -3.628 -4.7385 -4.4345 -6.2495 -5.5565 -4.5485 
-6.903 -7.126 -6.517 -5.7435 -5.2775 -7.668 -9.552 -10.7495 -11.0499 -10.8313 -8.323 -8.3385 -11.2349 -13.3695 -11.366 -8.4995 -4.9035 -7.0325 -9.3915 -7.439 -6.316501 -3.628 -5.001 -5.0245 -7.0915 -8.250501 -5.5565 
-8.009501 -7.126 -8.079 -9.6955 -7.668 -9.940001 -13.5746 -15.7484 -14.0867 -12.7648 -9.697001 -13.5866 -18.4629 -13.986 -12.596 -9.0015 -8.021 -10.248 -9.3915 -10.9968 -6.338 -5.001 -5.036 -7.75 -8.536501 -8.250501 
-8.009501 -8.815001 -12.1934 -12.1502 -9.940001 -14.0846 -18.5735 -18.7852 -16.0202 -14.1388 -15.1355 -20.8146 -19.0794 -15.216 -13.098 -12.2002 -11.3417 -10.248 -13.3147 -11.0183 -9.243001 -5.036 -7.7905 -9.470501 -8.536501 
-3.436 -2.9805 -4.3195 -2.5045 -1.8085 -3.757 0 -4.2405 -4.9175 -3.959 -4.3215 -2.985 -4.87 0 -3.4225 -4.39 -4.47 -2.3615 -3.7015 -3.5035 -3.757 0 -2.5045 -2.3335 -3.4975 -6.442 -3.468 -3.152 -3.43 0 
-5.235 -5.4865 -6.9885 -3.3625 -5.7975 -3.757 -4.2405 -9.0315 -9.156 -8.1995 -6.389501 -7.174 -4.87 -3.4225 -4.7525 -9.1385 -6.9845 -7.023001 -7.439 -7.832001 -3.757 -2.5045 -5.165 -6.204 -10.4765 -10.7332 -6.2205 -5.144 -3.43 
-6.903 -8.146501 -8.16 -7.302501 -5.7975 -8.6025 -9.0315 -13.741 -13.7405 -9.335 -8.323 -7.174 -9.141001 -4.7525 -9.684001 -11.6534 -11.9372 -10.647 -12.5123 -7.832001 -6.602 -5.165 -9.401501 -13.6922 -14.7677 -13.4857 -8.651 -5.144 
-10.012 -8.995001 -12.441 -7.302501 -10.0005 -13.6849 -13.741 -18.3255 -14.876 -11.4933 -8.323 -11.795 -10.8516 -9.684001 -12.5719 -16.6061 -15.5612 -15.7203 -12.5123 -10.9166 -9.4125 -9.401501 -16.9865 -17.9834 -17.5202 -15.9162 -8.651 
-10.8605 -13.3884 -12.441 -11.6931 -15.4095 -18.3944 -18.3255 -19.461 -17.0343 -11.4933 -13.3876 -13.5056 -15.7831 -12.5719 -17.5246 -20.2301 -20.6345 -15.7203 -15.5969 -13.7271 -14.08 -16.9865 -21.2777 -20.7359 -19.9507 -15.9162 
