-4.759 
n/a 
n/a 
n/a 
n/a 
-4.759 
n/a 
n/a 
n/a 
n/a 
-4.759 
n/a 
n/a 
n/a 
n/a 
-4.759 
n/a 
n/a 
n/a 
n/a 
-1.4985 -3.859 -3.319 -3.8845 -3.962 -1.934 -3.995 -2.4945 -5.1895 0 -3.1495 -4.7715 -2.4945 -2.3345 -3.757 -1.7565 -3.299 -4.153 0 -3.299 -4.2485 -2.4285 -2.356 -3.5155 -3.1495 -2.4945 -4.5485 0 
-4.4795 -6.9405 -7.507 -8.352501 -4.8165 -6.139 -6.4845 -6.6505 -5.1895 -3.1495 -7.007501 -6.6695 -5.679 -5.1715 -4.742 -4.7685 -5.547501 -4.153 -3.299 -5.627501 -6.514 -5.1055 -5.1855 -5.9985 -4.459 -5.861 -4.5485 
-7.222 -11.9929 -12.7144 -9.2005 -8.522 -9.304501 -9.418501 -6.6505 -8.125501 -7.007501 -7.7735 -10.0505 -8.571501 -5.1885 -7.949 -6.759501 -5.547501 -6.592501 -5.627501 -7.874001 -8.758501 -7.565001 -7.782001 -7.8935 -8.236 -5.861 
-12.383 -17.2003 -13.5624 -13.131 -12.7069 -12.2389 -9.418501 -10.199 -12.1021 -7.7735 -11.3415 -13.1886 -8.594501 -8.011001 -9.18 -6.759501 -7.494501 -7.6835 -7.874001 -10.2645 -11.397 -10.151 -10.223 -11.7009 -8.236 
-17.5904 -18.0483 -17.4929 -17.3159 -15.6413 -12.2389 -13.7156 -14.1756 -12.8681 -11.3415 -14.4796 -13.2116 -11.5878 -9.193501 -9.18 -8.7605 -7.736001 -9.7075 -10.2645 -12.903 -13.983 -12.592 -14.0304 -11.7009 
-1.4985 -3.859 -3.319 -1.7565 -4.7715 -4.1835 -2.264 -1.4985 -3.995 -1.756 -3.1495 -4.7715 -2.4945 -3.8755 -2.3345 -1.4985 -4.153 -3.7855 -1.7695 -3.277 -2.3345 -2.8965 -4.7715 -2.4285 -2.645 -4.237 -2.4285 -3.5155 -1.7565 -3.1495 -3.2495 -4.246 0 
-4.4795 -6.9405 -4.165 -6.244 -8.532001 -5.05 -2.9195 -4.712 -5.3025 -5.1725 -7.007501 -6.6695 -5.463 -4.4955 -3.233 -5.274 -8.149501 -4.793 -4.619 -5.3535 -4.8625 -7.709 -6.834 -4.1105 -6.561 -6.304 -5.203 -4.8955 -3.914 -4.8975 -6.256001 -4.246 
-7.222 -7.122 -8.759501 -10.0675 -10.281 -5.4145 -6.008 -5.7925 -8.531 -8.976501 -7.7735 -9.491 -6.347 -5.454 -7.094501 -9.194 -9.803 -6.522 -6.224501 -7.978001 -9.7845 -9.5525 -9.732 -7.2465 -8.554001 -8.9575 -6.071 -5.5855 -5.7375 -6.9775 -6.256001 
-7.422501 -11.7611 -12.8044 -11.9625 -10.428 -8.005 -6.975 -8.826501 -12.4266 -9.741 -10.782 -10.4435 -7.0245 -9.195001 -11.4755 -10.2645 -11.5844 -7.139 -8.47 -13.04 -11.6258 -12.5059 -12.868 -10.6095 -11.6767 -10.0297 -6.8615 -7.7275 -7.685 -6.9775 
-12.1138 -15.806 -14.6994 -12.1095 -13.0185 -9.748501 -9.860001 -12.7881 -13.1911 -12.8077 -11.7345 -11.121 -11.0785 -13.6424 -12.546 -12.0807 -12.2014 -9.344001 -13.5926 -14.8813 -14.5792 -15.6419 -16.231 -13.7322 -12.7489 -10.8202 -8.4025 -9.759501 -7.685 
-1.4985 -2.461 -4.7715 -3.557 -1.934 -3.995 -2.4945 -4.4385 -4.164 -3.8845 0 -2.925 -3.152 -3.8755 -3.433 -1.7565 -2.645 -4.153 -2.4285 -2.645 -4.237 -2.4285 -3.7685 
-4.997 -7.63 -8.0465 -4.4175 -6.139 -6.4845 -8.127001 -8.511501 -8.5145 -3.8845 -2.925 -4.203 -5.6875 -6.9465 -4.1845 -4.8395 -6.4755 -6.259501 -4.1105 -6.561 -6.304 -6.269 
-9.85 -11.5088 -8.42 -8.458 -9.304501 -12.5144 -12.4882 -13.0082 -8.5145 -7.1025 -4.203 -6.7865 -8.268001 -7.37 -7.3955 -9.2995 -8.9785 -8.9245 -7.2465 -8.554001 -8.365 
-13.7288 -11.8823 -12.7089 -12.0149 -15.3348 -16.8756 -16.9849 -13.0082 -12.5059 -8.22 -6.7865 -9.219001 -8.761001 -10.0815 -10.609 -11.6055 -10.3895 -12.1809 -10.6095 -11.0842 
-14.1023 -16.1712 -16.2658 -18.0452 -19.696 -21.3723 -16.9849 -16.9996 -13.6234 -10.749 -9.219001 -9.883501 -11.7187 -13.7468 -12.915 -13.0165 -13.6459 -15.5439 -13.1397 
-3.995 -2.264 -3.047 -3.859 -3.319 -1.7565 -4.3075 0 -4.287 -1.7565 -4.3075 0 -3.1495 -7.1435 -3.6115 -4.3075 -2.645 -4.153 -1.756 -2.645 -4.2485 
-6.553 -6.495001 -7.692 -6.9405 -4.165 -5.902 -4.3075 -4.287 -6.269 -5.902 -4.3075 -3.1495 -10.7495 -11.2918 -8.113001 -7.521501 -6.4755 -5.4605 -3.898 -7.869 
-11.5296 -11.3602 -11.0889 -7.122 -7.777501 -5.902 -9.488001 -6.269 -11.1865 -5.902 -7.840001 -10.7495 -14.8978 -15.7933 -11.6408 -11.672 -8.026 -7.9855 -9.201 
-16.3948 -14.7571 -11.2704 -10.7791 -7.777501 -11.5987 -11.4508 -11.1865 -11.1865 -8.837501 -15.6964 -14.8978 -19.3993 -19.3211 -15.7913 -13.2225 -9.257 -13.5227 
-19.7917 -14.9386 -14.9275 -10.7791 -13.9216 -13.5615 -16.3683 -11.1865 -14.122 -16.8239 -19.8447 -19.3993 -22.9271 -23.4716 -17.3418 -14.4535 -14.8608 
