-4.759 
n/a 
n/a 
n/a 
n/a 
-4.759 
n/a 
n/a 
n/a 
n/a 
-4.759 
n/a 
n/a 
n/a 
n/a 
-4.759 
n/a 
n/a 
n/a 
n/a 
-12.16972 -3.4005 -2.3615 -3.9035 -3.9615 -4.763 -1.756 -3.9615 -3.8315 0 
-15.57022 -6.1775 -7.6165 -8.39 -7.3155 -6.161 -5.614 -7.3835 -3.8315 
-18.34722 -12.0515 -12.4738 -12.1558 -8.4995 -9.217 -9.0235 -7.3835 
-24.22122 -16.9088 -16.2396 -13.3398 -10.1425 -12.8469 -9.0235 
-29.07852 -20.6746 -17.4236 -14.9828 -13.8848 -12.8469 
-12.16972 0 -3.4005 0 0 -2.4265 -4.7595 -3.6065 -4.361 -4.877 0 -4.361 -5.281 
-12.16972 -3.4005 -3.4005 0 -2.4265 -6.318 -8.0705 -7.3275 -7.4325 -4.877 -4.361 -9.9755 
-15.57022 -3.4005 -3.4005 -2.4265 -6.318 -9.4005 -12.2491 -10.6335 -7.4325 -8.950001 -9.9755 
-15.57022 -3.4005 -6.206 -6.318 -9.4005 -13.7111 -15.5551 -10.6335 -9.476 -14.7495 
-15.57022 -6.206 -9.4635 -9.4005 -13.7111 -17.0171 -15.5551 -12.677 -15.4859 
-4.361 -4.0375 0 -1.934 -2.3615 -3.32 0 -1.4985 -3.948 -3.6065 -4.361 -4.4195 -1.756 -4.1665 -2.4945 -4.6505 0 
-7.6395 -4.0375 -1.934 -3.539 -4.3375 -3.32 -1.4985 -4.7695 -6.6285 -7.3275 -7.049 -5.7135 -5.629 -5.728 -6.1425 -4.6505 
-7.6395 -5.912001 -3.539 -4.8865 -4.3375 -5.2825 -4.7695 -7.481501 -10.7313 -8.633 -8.371 -8.295501 -7.1305 -8.961 -6.1425 
-9.1635 -7.724501 -4.8865 -4.8865 -5.6845 -8.660501 -7.481501 -11.7397 -12.0368 -9.654 -11.2478 -10.0995 -10.322 -8.961 
-11.2202 -9.567 -4.8865 -6.264 -9.1045 -11.5627 -11.7397 -13.0452 -13.0578 -12.5676 -13.0518 -13.291 -10.322 
-3.8315 0 -2.3615 -3.32 -3.6065 -4.361 -4.763 0 -3.8315 -3.772 -4.6505 0 
-3.8315 -2.3615 -4.3375 -8.284 -7.3275 -8.521 -4.763 -3.8315 -8.199 -8.738 -4.6505 
-6.863501 -4.3375 -8.832001 -12.1704 -10.403 -8.521 -9.5905 -8.199 -13.3384 -8.738 
-9.561001 -8.832001 -12.8022 -15.2459 -10.403 -13.5019 -14.0508 -13.3384 -13.3384 
-14.1191 -12.8022 -15.8777 -15.2459 -15.3839 -17.9622 -19.1902 -13.3384 
