-4.759 
n/a 
n/a 
n/a 
n/a 
-4.759 
n/a 
n/a 
n/a 
n/a 
-4.759 
n/a 
n/a 
n/a 
n/a 
-4.759 
n/a 
n/a 
n/a 
n/a 
-2.3335 -3.5015 -4.628 -8.092501 -4.1925 -4.0685 0 -7.382 -7.6125 -3.299 -12.16972 -4.417 0 -1.756 -2.543 -6.501 -2.4945 -3.383 -5.09 0 -3.383 -5.547 -3.5015 
-5.909 -8.7335 -8.309501 -11.117 -7.8995 -4.0685 -6.796 -15.0023 -11.5393 -16.81832 -16.58672 -4.417 -1.756 -4.855 -9.786501 -7.983001 -4.732 -6.984 -5.09 -3.383 -9.524501 -10.123 
-11.5564 -12.2724 -11.4764 -14.824 -7.8995 -10.7595 -15.4505 -19.3773 -25.05862 -21.23532 -16.58672 -5.9025 -4.855 -12.7121 -11.2489 -10.2865 -8.004001 -6.984 -9.1195 -9.524501 -14.2611 
-15.0953 -15.4393 -15.1834 -14.824 -15.2153 -19.414 -19.3773 -32.89662 -29.47562 -21.23532 -18.07222 -9.3535 -12.7121 -14.1745 -13.5524 -13.5585 -8.004001 -9.545 -15.5512 -14.2611 
-18.2622 -19.1463 -15.1834 -22.1398 -23.8698 -23.3408 -32.89662 -37.31362 -29.47562 -22.72082 -21.52322 -17.6526 -14.1745 -16.478 -16.8244 -13.5585 -10.887 -16.2245 -20.2878 
-1.934 -6.6585 -1.4985 -3.299 -4.147 0 -7.382 -4.653 -3.299 -3.5905 -4.147 0 -2.8645 -3.4155 -4.614 0 -4.6335 -3.5015 -6.648 -4.147 -3.074 -3.8825 -3.147 0 
-7.809 -8.7425 -4.5915 -6.6455 -4.147 -6.796 -11.376 -7.0505 -7.8655 -7.297501 -4.147 -2.8645 -5.895 -7.047501 -4.614 -4.6335 -7.9085 -11.1415 -11.5872 -7.842 -5.971 -6.6485 -3.147 
-9.035001 -12.0973 -7.5245 -6.6455 -11.7522 -11.8242 -14.5625 -11.951 -12.1013 -7.297501 -7.169001 -5.895 -10.2066 -7.047501 -9.734001 -7.9085 -15.8039 -16.0807 -15.2822 -11.075 -8.5175 -6.6485 
-12.6644 -15.0303 -7.5245 -14.6657 -16.7804 -14.5625 -19.463 -16.1868 -12.1013 -10.0645 -9.7605 -10.2066 -10.2066 -12.8731 -13.3612 -15.8039 -20.7431 -19.7757 -18.5152 -13.6215 -8.5175 
-15.5974 -15.0303 -15.8569 -19.6939 -19.5187 -19.463 -23.6988 -16.1868 -14.8683 -13.044 -14.1641 -10.2066 -16.0322 -16.5003 -21.2566 -20.7431 -24.4381 -23.0087 -21.0617 -13.6215 
-1.4985 -4.1925 -4.147 -4.281 -12.16972 -4.147 -2.186 -4.99 -1.934 -4.628 -4.743 -2.9705 -2.186 -6.0845 -5.5875 -4.142 -1.756 -2.5685 -4.3705 -4.4695 -1.756 -5.015 -10.312 -4.147 -2.4945 -4.99 -1.934 -4.628 -4.743 0 
-4.4615 -6.7445 -8.3395 -16.76732 -16.31672 -6.445001 -5.502 -5.477 -5.9605 -4.7515 -7.736 -3.89 -8.3935 -12.185 -8.558001 -5.7175 -4.2335 -6.7315 -9.918 -6.175 -6.606 -16.888 -16.0806 -7.4145 -6.2325 -5.477 -5.9605 -4.7515 -4.743 
-7.022 -10.4945 -21.04402 -20.91432 -18.61472 -8.908001 -5.947001 -9.908501 -5.9845 -7.747 -8.5495 -10.7495 -15.7666 -15.1555 -9.935 -8.429501 -8.229501 -12.8884 -11.7545 -10.4765 -18.2854 -22.6566 -19.3481 -10.2085 -6.736001 -9.908501 -5.9845 -4.7515 
-11.2268 -23.19902 -25.19102 -23.21232 -21.07772 -9.339001 -10.4839 -10.002 -8.1415 -8.572001 -15.5356 -19.3296 -18.7371 -16.5325 -12.647 -12.5923 -14.5362 -14.7249 -16.056 -22.1559 -24.054 -25.9241 -22.1421 -10.8204 -11.2397 -10.002 -5.9845 
-23.93132 -27.34602 -27.48902 -25.67532 -21.50872 -13.8421 -10.5774 -12.2924 -8.998 -15.5597 -24.1157 -22.3001 -20.1141 -19.2445 -16.8098 -18.899 -16.3727 -19.0264 -27.7354 -27.9245 -27.3215 -28.7181 -22.754 -15.3241 -11.3332 -10.002 
-1.934 -9.4215 -1.4985 -4.1925 -4.147 -12.16972 -4.147 -1.7565 -4.142 -7.382 -4.653 0 -1.756 -1.8085 -3.383 -3.6975 -4.147 -3.458 -1.4985 -3.7825 -5.2835 -1.756 -4.1205 -2.5045 -4.485 -3.5015 -3.849 -10.312 -4.147 -2.186 -3.074 -3.147 0 
-10.7025 -11.0948 -4.4615 -6.7445 -17.49452 -16.31672 -6.1815 -6.5655 -10.7025 -11.376 -4.653 -1.756 -3.584 -4.1695 -5.5455 -7.934 -8.115001 -4.063 -4.8035 -8.6745 -6.259501 -6.0905 -5.3175 -7.096001 -6.7495 -6.303 -14.3216 -16.0806 -6.445001 -4.156 -6.467 -3.147 
-12.3758 -14.0578 -7.022 -20.98222 -21.64152 -18.35122 -10.2645 -13.7148 -16.3505 -11.8242 -6.2355 -3.584 -5.889 -6.1815 -9.52 -12.557 -8.7665 -6.9165 -9.4265 -9.938001 -10.647 -7.487 -9.370001 -10.01 -9.4645 -16.8944 -20.0902 -18.3786 -8.375501 -7.477 -6.467 
-15.3388 -16.6183 -21.71452 -25.12922 -23.67602 -22.43422 -17.601 -18.9302 -16.3505 -13.7475 -7.5895 -5.889 -8.06 -9.793 -14.079 -13.2085 -11.7392 -11.7951 -10.7658 -14.5225 -12.0435 -11.7375 -12.4848 -12.8114 -20.1781 -22.663 -22.3882 -20.3091 -11.9777 -7.477 
-17.8993 -31.31082 -25.86152 -27.16372 -27.75902 -29.77072 -22.6292 -18.9302 -18.2738 -15.1015 -10.354 -8.06 -11.8661 -14.3982 -14.7305 -16.1812 -16.6178 -13.1344 -15.3503 -15.919 -16.294 -14.8523 -15.2862 -23.525 -25.9467 -24.961 -24.3187 -23.9113 -11.9777 
