-4.759 
n/a 
n/a 
n/a 
n/a 
-4.759 
n/a 
n/a 
n/a 
n/a 
-4.759 
n/a 
n/a 
n/a 
n/a 
-4.759 
n/a 
n/a 
n/a 
n/a 
-4.1395 -2.5195 -2.8965 -4.2915 -3.152 -3.9285 -2.5195 -1.4985 -4.5735 -3.8405 -3.115 -12.16972 -1.756 -4.077 -1.934 -3.948 -4.9405 0 
-5.6695 -4.786 -5.294 -7.1895 -5.8345 -6.4345 -3.1695 -5.271 -7.679 -7.3885 -16.06032 -13.92572 -6.1935 -4.43 -5.024 -8.2015 -4.9405 
-8.170501 -7.311 -8.494 -9.448501 -8.295501 -7.318 -6.6455 -8.1355 -11.6076 -20.57622 -17.81632 -18.36322 -6.7965 -6.905 -9.708 -8.2015 
-10.2485 -10.3105 -10.76 -11.7111 -8.811001 -11.2316 -8.898 -12.2815 -24.79532 -22.33222 -22.25382 -18.96622 -8.991 -12.1604 -9.708 
-13.248 -12.5765 -13.0226 -12.2266 -12.7564 -13.4841 -13.3114 -25.46922 -26.55132 -26.76972 -22.85682 -21.16072 -14.304 -12.1604 
-5.92 -3.9355 -2.674 -3.1125 -4.6025 -3.222 -1.4985 -5.1845 -3.6885 -1.756 -3.1125 -3.2955 -1.934 -3.948 -4.134 -3.5065 -1.4985 -9.819 -3.7515 0 
-7.935 -6.446 -3.6315 -6.257501 -5.449 -3.7835 -6.5205 -7.323501 -5.041 -5.9635 -5.0995 -4.2285 -5.024 -6.4675 -7.425 -4.358 -12.4113 -13.7027 -3.7515 
-9.913 -7.0995 -6.604 -6.5 -5.7885 -9.1315 -8.096001 -8.563001 -9.723001 -8.3675 -5.8805 -6.741 -6.7695 -9.129001 -8.087001 -15.5872 -16.295 -13.7027 
-10.3925 -9.763 -6.849 -6.7955 -11.4921 -10.3615 -9.125001 -13.646 -12.22 -9.186501 -7.897501 -8.4165 -9.375001 -9.6805 -19.4692 -19.4709 -16.295 
-13.056 -9.953 -7.1385 -12.6277 -12.7221 -11.3905 -14.07 -16.143 -13.039 -11.1609 -9.568001 -11.327 -9.7545 -21.3147 -23.3529 -19.4709 
-2.5195 -1.4985 -3.8405 -1.7565 -10.2505 0 -1.4985 -3.9355 -1.7565 -12.16972 -2.674 -3.1125 -1.934 -1.4985 -4.3435 -1.7565 -5.1845 -3.8125 
-3.1695 -4.7545 -4.563 -12.9562 -10.2505 -1.4985 -4.8035 -5.244 -14.87542 -14.84372 -3.6315 -4.863 -2.6125 -5.6925 -5.325 -6.580501 -9.206501 
-6.7345 -5.365 -16.9239 -12.9562 -11.8752 -4.8035 -5.6175 -19.15372 -17.54942 -15.80122 -5.427 -5.455 -7.1225 -5.9175 -9.9805 -10.3345 
-7.3005 -17.7691 -16.9239 -14.5809 -15.1802 -5.6175 -19.65962 -21.82772 -18.50692 -17.59672 -6.001 -10.4862 -7.4275 -10.574 -13.9303 
-19.9284 -17.7691 -18.5486 -17.8859 -15.9942 -19.65962 -22.33362 -22.78522 -20.30242 -18.17072 -11.1214 -10.7912 -12.2324 -14.5238 
-5.92 -3.9355 -3.8755 -3.6215 -1.4985 -10.2505 -2.95 -1.756 -2.4265 -2.882 -3.2955 -1.934 -3.948 -4.088 -1.934 -1.4985 -5.1845 -3.6885 0 
-7.935 -7.9945 -7.115 -4.094 -12.8428 -13.3267 -4.287 -3.949 -4.4545 -7.6805 -4.2285 -5.024 -6.41 -5.429501 -2.6125 -6.5205 -7.323501 -3.6885 
-12.2926 -11.6136 -7.598 -16.2225 -15.919 -14.6637 -6.1455 -5.951 -9.1295 -8.579 -6.741 -6.745501 -7.195 -5.9065 -7.672 -8.096001 -7.323501 
-15.9117 -12.0966 -19.6865 -19.2987 -17.256 -16.5222 -8.062 -10.8436 -10.0785 -11.3751 -8.2175 -7.611001 -7.515 -10.7495 -8.7465 -8.096001 
-16.3947 -24.1851 -22.7627 -20.6357 -19.1145 -18.4387 -13.1606 -11.7926 -13.0006 -12.8516 -8.823 -7.9055 -12.4742 -11.824 -8.7465 
