-4.759 
n/a 
n/a 
n/a 
n/a 
-4.759 
n/a 
n/a 
n/a 
n/a 
-4.759 
n/a 
n/a 
n/a 
n/a 
-4.759 
n/a 
n/a 
n/a 
n/a 
-1.934 -2.3615 -2.7295 -2.9645 -2.8705 -5.0485 -1.756 -4.5995 -1.756 -5.336 -1.4985 -4.361 -3.9035 
-3.539 -5.3895 -4.8405 -4.9945 -7.6555 -6.1755 -5.9415 -5.6715 -6.4075 -5.989501 -5.8175 -8.047 
-7.1385 -7.3075 -6.5545 -9.527 -8.64 -8.183001 -7.494 -10.1305 -7.0625 -9.343 -8.364 
-9.436501 -9.063001 -9.989 -10.4605 -10.6215 -9.461 -12.1454 -10.5705 -10.442 -12.2467 
-11.1598 -12.6315 -10.9007 -12.442 -11.8995 -14.2232 -12.5854 -13.95 -13.3457 
-4.4935 -3.8315 -2.186 -1.8085 -4.361 -3.685 -1.7565 -3.3425 -4.5995 -1.756 -5.0485 -1.7695 -5.336 -3.8315 -5.207 0 
-5.732 -5.974 -3.164 -5.9205 -6.934 -4.5825 -5.0385 -8.6355 -5.6715 -6.586 -6.8655 -5.64 -9.209001 -7.119 -5.207 
-7.5775 -6.9645 -7.378 -7.4155 -8.7005 -7.774 -9.8735 -9.928 -7.6765 -8.282001 -9.332 -9.623 -12.7769 -7.119 
-8.662001 -9.812 -8.986501 -9.1435 -12.313 -13.0716 -11.6434 -11.933 -9.1245 -9.885 -13.6648 -13.2573 -12.7769 
-10.5975 -10.3125 -10.7595 -13.2264 -17.6106 -14.8415 -13.6484 -13.381 -10.1385 -14.3054 -17.2991 -13.2573 
-4.4935 -3.8315 -2.186 -2.664 -3.685 -2.3345 -2.9705 -4.361 -5.207 -2.4945 -6.811 -2.3345 -3.3425 -4.5995 -1.756 -8.727 
-5.732 -5.974 -3.8555 -5.171 -5.8755 -5.03 -7.679001 -7.151 -6.8025 -8.653501 -7.5955 -4.554 -8.6355 -5.6715 -10.575 
-7.5775 -7.778501 -6.570001 -7.709001 -7.528501 -9.3035 -10.419 -8.555 -13.4195 -9.2425 -10.2284 -9.7635 -9.928 -15.4181 
-9.466001 -9.159 -8.775001 -8.4905 -12.4202 -12.0957 -11.823 -15.3046 -14.0085 -11.9786 -15.4379 -11.2458 -19.6746 
-10.8707 -11.259 -9.137501 -13.6138 -15.2124 -13.4997 -18.5726 -15.8936 -16.7446 -17.1881 -16.9202 -20.9924 
-4.4935 -3.8315 -2.186 -4.361 -3.8465 -4.672 -1.4985 -5.296 -1.7565 -1.4985 -6.393 -2.3345 -1.4985 -2.9645 -1.7565 -1.4985 -4.5995 0 -5.0485 0 
-5.732 -5.974 -6.951 -6.073 -7.0465 -5.493501 -6.5955 -6.041 -2.4195 -7.483001 -8.792 -3.233 -4.1725 -3.7825 -2.4195 -5.408 -4.5995 -5.0485 -5.0485 
-7.5775 -8.9825 -8.642501 -8.431 -7.706 -9.421501 -6.9245 -6.597501 -8.026501 -9.856501 -9.7345 -5.8475 -4.2115 -4.56 -6.217 -5.408 -7.736 -5.0485 
-10.281 -9.1675 -10.139 -9.6715 -10.4935 -9.437501 -7.6755 -9.871501 -10.0885 -10.3315 -10.462 -5.8665 -5.061 -9.110001 -6.217 -8.336 -7.736 
-10.428 -10.513 -10.511 -10.535 -10.509 -10.102 -10.3275 -10.438 -10.3735 -10.4725 -10.476 -6.777 -9.4325 -9.110001 -8.55 -8.336 
