-4.759 
n/a 
n/a 
n/a 
n/a 
-4.759 
n/a 
n/a 
n/a 
n/a 
-4.759 
n/a 
n/a 
n/a 
n/a 
-4.759 
n/a 
n/a 
n/a 
n/a 

n/a 
n/a 
n/a 
n/a 
-2.4265 -2.186 -1.4985 -3.355 -1.7565 -1.4985 -3.452 
-3.292 -3.339 -4.951 -3.725 -2.4195 -4.4485 
-4.5995 -6.41 -5.194 -4.0515 -5.267 
-7.6585 -6.7035 -5.483 -6.6795 
-7.805 -6.8935 -8.332001 
-1.934 -3.909 -2.3335 -2.186 -3.355 -1.7565 -1.8085 -3.452 0 
-4.3925 -4.3805 -3.7085 -4.764 -3.725 -3.2595 -4.787 -3.452 
-6.174 -6.746 -6.136 -4.7845 -4.75 -6.052 -4.787 
-7.213 -9.055 -6.1575 -5.613 -7.704 -6.052 
-9.143001 -9.063001 -6.969501 -8.7405 -7.704 
-4.0005 -3.1435 -1.8085 -3.355 -1.7565 -1.8085 -3.452 
-7.1035 -5.211 -4.6195 -3.725 -3.2595 -4.787 
-8.118 -8.078 -4.725 -4.75 -6.052 
-11.136 -8.1295 -5.986 -7.704 
-11.1875 -9.554501 -8.572001 
