-4.759 
n/a 
n/a 
n/a 
n/a 
-4.759 
n/a 
n/a 
n/a 
n/a 
-4.759 
n/a 
n/a 
n/a 
n/a 
-4.759 
n/a 
n/a 
n/a 
n/a 
-3.9655 -3.84 -1.756 -4.179 -2.4945 -5.0775 
-8.132 -4.8045 -5.9635 -5.893001 -6.54 
-9.18 -7.074 -7.5925 -10.6557 
-11.2871 -8.440001 -12.6006 
-12.6531 -13.7159 
-1.4985 -3.9655 -3.2895 -2.4945 -1.934 -1.8085 -3.8225 -3.3755 0 
-4.9875 -6.2105 -5.4165 -4.2645 -3.2685 -4.8095 -6.5465 -3.3755 
-7.834001 -8.1335 -7.596001 -5.461 -6.318501 -7.026 -6.5465 
-10.1265 -9.969501 -9.237 -8.452001 -8.14 -7.026 
-11.9625 -11.7569 -12.3086 -10.5845 -8.14 
-3.97 -3.5035 -4.385 -1.756 -6.4 -1.4985 -4.179 0 
-5.9385 -6.8535 -5.293 -7.939 -7.063 -5.087 -4.179 
-11.0197 -7.554 -12.7002 -8.415501 -11.2283 -5.087 
-11.7202 -15.6738 -13.1767 -12.6916 -11.2283 
-19.84 -16.1503 -17.4528 -12.6916 
-5.4135 -3.5035 -3.2895 -2.4945 -4.221 -1.934 -1.4985 -3.8475 0 
-9.646501 -7.0255 -5.4165 -5.7985 -6.1575 -2.6125 -5.09 -3.8475 
-13.2667 -8.949 -8.711 -7.006001 -7.14 -6.397 -5.09 
-15.1902 -12.3823 -10.1635 -7.890501 -10.0505 -6.397 
-18.6235 -13.8348 -10.767 -10.9982 -10.0505 
