-4.759 
n/a 
n/a 
n/a 
n/a 
-4.759 
n/a 
n/a 
n/a 
n/a 
-4.759 
n/a 
n/a 
n/a 
n/a 
-4.759 
n/a 
n/a 
n/a 
n/a 
-2.8965 -4.839 -3.8745 -2.4945 -5.8905 -3.43 -2.3345 -4.0835 -2.356 -4.921 -1.756 -4.569 -2.9705 -2.7415 -4.09 -3.8725 -2.3345 -3.8725 -2.3345 -4.35 -1.7565 -3.8665 -5.3655 
-7.351501 -7.7225 -6.394501 -7.4705 -8.0705 -4.5865 -7.442 -5.6715 -6.847501 -6.098 -6.6795 -7.5325 -4.512 -5.289001 -8.379 -4.892 -4.9005 -4.892 -6.8885 -5.3865 -4.9325 -9.359 
-10.6465 -9.545501 -11.8611 -9.3485 -9.6565 -9.859 -8.758 -8.794001 -7.564001 -9.415 -9.082001 -8.820001 -6.725 -9.711 -8.5905 -4.905 -7.422 -11.5146 -9.0565 -8.543501 -10.204 
-12.4695 -15.1013 -13.7391 -10.6475 -15.006 -11.1458 -12.0555 -9.755501 -11.1782 -11.9285 -10.4109 -11.1304 -11.8278 -9.992001 -8.593 -7.497 -12.886 -13.6826 -12.2485 -14.1684 
-18.0253 -16.9793 -15.0381 -15.997 -16.2928 -14.4433 -13.017 -13.3697 -13.6917 -13.2574 -12.7213 -16.2332 -12.1088 -10.0025 -10.4675 -12.9064 -15.054 -16.8746 -17.8734 
-2.264 -4.5735 -2.95 -1.4985 -6.834 0 -4.921 -1.756 -4.442 -2.4945 -3.859 0 -2.872 -3.8665 -3.681 -2.264 -2.4265 -1.756 -3.43 -1.4985 -4.839 -3.8375 0 
-6.696 -7.4445 -4.514 -8.2215 -6.834 -4.921 -6.098 -6.048 -5.9795 -7.303 -3.859 -2.872 -7.1745 -7.3625 -5.790501 -4.561 -4.303 -5.055 -4.7635 -6.2085 -7.6485 -3.8375 
-10.2865 -8.674 -11.4574 -8.2215 -9.951 -6.098 -8.3135 -7.531 -10.238 -7.303 -6.8805 -7.1745 -9.915501 -9.650001 -7.5825 -5.5325 -7.0975 -6.1685 -9.6665 -8.644 -7.6485 
-11.516 -15.7116 -11.4574 -11.3889 -11.8226 -8.3135 -9.626 -11.9379 -10.238 -10.115 -11.4552 -9.915501 -12.203 -11.6974 -8.637001 -8.525001 -8.232 -11.2329 -12.1046 -8.644 
-18.5536 -15.7116 -14.6248 -13.2605 -14.0381 -9.626 -14.6235 -11.9379 -13.05 -14.7925 -14.1962 -12.203 -14.2504 -12.7519 -11.8727 -9.651001 -13.4276 -13.671 -12.1046 
-1.934 -4.5735 -3.5215 -2.4265 -2.7415 -3.8755 -2.3345 -4.7715 -1.756 -4.442 -3.2615 -1.4985 -3.8665 -4.6625 -2.4945 -4.6155 -1.934 -1.7695 -2.3335 -1.756 -2.4265 -4.851 -4.839 -3.8745 0 
-5.86 -6.2465 -5.644 -3.681 -5.065001 -4.4955 -7.485001 -5.895 -6.048 -7.4215 -4.032 -4.915 -7.378 -7.458501 -8.126501 -6.348001 -4.0395 -4.46 -5.031 -3.949 -6.514 -10.6735 -7.7225 -3.8745 
-6.6365 -7.703 -6.6375 -6.262 -5.7145 -9.925501 -8.2445 -7.706 -8.948 -8.2285 -8.134001 -8.59 -10.3345 -13.3803 -9.736001 -8.558001 -7.1595 -6.632 -6.373 -7.799 -13.0937 -13.557 -7.7225 
-7.981 -8.0705 -9.642 -6.9175 -11.7437 -10.685 -9.432 -10.5745 -9.711 -12.5471 -11.984 -11.6151 -16.2563 -14.9898 -12.349 -12.1122 -9.046 -7.943501 -10.7176 -14.5831 -15.9772 -13.557 
-8.185 -11.4186 -10.413 -13.2889 -12.5032 -11.8725 -12.5927 -11.3375 -14.1224 -16.3971 -15.0091 -17.5369 -17.8658 -17.6028 -15.9032 -13.9987 -10.4345 -12.4523 -17.5017 -17.4666 -15.9772 
-5.8905 -2.925 -4.0835 -3.3425 -4.921 -1.756 -4.442 -1.934 -4.5735 -3.4795 -3.321 -4.85 -4.157 
-9.101 -6.382 -6.201 -8.192501 -6.098 -6.048 -5.784 -5.86 -7.4725 -6.425 -7.645 -8.550501 
-12.6956 -9.384501 -9.943501 -9.0045 -8.3135 -7.3855 -9.460001 -7.932 -10.3345 -10.4425 -11.6277 
-15.6981 -13.2334 -11.0029 -11.3584 -10.0645 -11.2553 -11.634 -10.896 -14.352 -14.4252 
-19.547 -14.2928 -13.3568 -13.1094 -13.9115 -13.4293 -14.598 -14.9135 -18.3347 
