-4.759 
n/a 
n/a 
n/a 
n/a 
-4.759 
n/a 
n/a 
n/a 
n/a 
-4.759 
n/a 
n/a 
n/a 
n/a 
-4.759 
n/a 
n/a 
n/a 
n/a 
-1.934 -2.3615 -3.0835 -1.7565 -3.898 -3.673 -4.7885 -1.7565 -1.934 -3.584 0 -3.7445 0 -3.898 -7.228 -3.777 -3.433 -1.7565 -7.318501 -1.7565 -3.555 0 -3.668 -2.871 -1.4985 -3.8935 -1.7565 -3.555 0 -5.1845 -3.473 -1.7565 -3.324 0 
-3.539 -5.5335 -4.9645 -5.228 -7.493501 -8.309 -8.026001 -5.223001 -6.1915 -3.584 -3.7445 -3.7445 -3.898 -10.9345 -10.417 -7.4195 -4.1845 -8.722 -9.745501 -6.651501 -3.555 -3.668 -6.000501 -5.1 -5.193 -7.2685 -6.651501 -3.555 -5.1845 -10.27 -4.882 -5.5115 -3.324 
-6.507 -7.0875 -10.4945 -8.644 -12.4063 -12.1749 -11.8721 -10.3675 -6.1915 -6.117001 -3.7445 -8.2325 -11.2113 -14.0588 -13.6165 -8.2095 -12.0394 -11.3608 -14.7245 -6.651501 -7.629001 -6.000501 -8.798 -8.511001 -8.7775 -12.6199 -6.651501 -9.154 -10.27 -11.679 -9.0255 -5.5115 
-7.764 -13.2853 -13.9105 -14.1698 -16.2722 -16.021 -17.0166 -10.3675 -8.492001 -6.117001 -8.2325 -15.9028 -14.0588 -18.7652 -15.4579 -16.352 -14.6782 -16.3398 -14.7245 -11.3441 -10.2897 -8.798 -12.2974 -12.3737 -14.3447 -12.6199 -12.8691 -14.6417 -11.679 -15.8225 -9.0255 
-14.266 -16.7013 -19.4363 -18.0357 -20.1183 -21.1655 -17.0166 -12.668 -8.492001 -11.2774 -15.9028 -18.7503 -18.7652 -19.5552 -23.6004 -18.9908 -19.6572 -16.3398 -19.4171 -14.0048 -13.0872 -12.2974 -16.1601 -17.9409 -14.3447 -18.8375 -18.3568 -16.0507 -15.8225 -15.8225 
-3.1495 -3.0835 -4.4535 -3.584 0 -3.7445 0 -4.4535 -1.756 -3.555 -3.777 -1.7695 -3.319 -1.4985 -4.299 0 
-6.4605 -8.255501 -7.986501 -3.584 -3.7445 -3.7445 -4.4535 -5.844501 -5.9635 -6.858 -5.638 -5.554 -5.0895 -6.18 -4.299 
-12.1585 -12.3415 -7.986501 -6.117001 -3.7445 -7.5865 -5.844501 -10.181 -9.132 -8.475 -10.3225 -6.58 -10.5135 -6.18 
-16.2445 -12.3415 -11.2741 -6.117001 -7.5865 -8.767501 -10.181 -13.3495 -10.9364 -13.6805 -11.3485 -12.4102 -10.5135 
-16.2445 -15.6291 -11.2741 -9.995001 -8.767501 -13.1726 -13.3495 -15.1539 -16.1419 -14.7065 -17.1787 -12.4102 
-2.0935 -2.3615 0 -3.6955 -2.9905 -4.3315 -2.5195 -1.4985 -3.898 -4.3035 -2.9825 -1.756 -3.5185 -1.4985 -4.023 -4.299 -2.3345 -5.0665 -2.9905 -3.584 0 -3.7445 0 -3.898 -4.3035 0 -3.555 -3.777 0 -2.0935 -3.668 -2.871 -4.3465 -3.555 -1.756 -2.871 -4.724 -3.555 0 -5.176 -1.7695 -4.0445 -5.1845 -3.432 0 -2.9645 -1.4985 -4.3465 -3.555 
-3.854 -2.3615 -3.6955 -5.013 -6.647 -6.684 -3.1695 -5 -7.0755 -8.112 -4.648 -5.1175 -4.9765 -4.971 -9.029 -6.389501 -5.988 -7.4195 -7.13 -3.584 -3.7445 -3.7445 -3.898 -7.0755 -4.3035 -3.555 -6.858 -3.777 -2.0935 -3.995 -6.000501 -7.360001 -7.7285 -5.3305 -4.514 -7.542 -9.626001 -3.555 -5.176 -6.707 -5.7245 -10.4855 -7.6925 -3.432 -2.9645 -3.957 -6.203 -7.7285 
-3.854 -6.697001 -5.013 -8.5755 -8.6315 -7.1555 -6.5995 -8.685 -11.5 -9.757001 -7.785 -6.443501 -7.1705 -9.3025 -10.6605 -9.925501 -8.687 -11.9308 -7.13 -6.117001 -3.7445 -8.2325 -7.0755 -7.0755 -8.724501 -6.858 -6.858 -5.292 -3.995 -6.076 -10.243 -11.0876 -9.5115 -8.3475 -9.0305 -13.0124 -9.626001 -9.6005 -6.707 -10.6875 -12.5793 -12.9935 -7.6925 -6.8745 -3.957 -8.2005 -9.3855 
-8.5015 -7.967 -8.5755 -10.733 -9.0435 -10.702 -10.5363 -13.3923 -13.145 -13.0524 -9.250501 -8.218 -10.523 -10.661 -15.2911 -12.8073 -13.5649 -11.9308 -10.146 -6.117001 -8.2325 -11.767 -7.0755 -12.1125 -12.2949 -6.858 -8.651501 -7.653 -6.076 -10.375 -13.9706 -12.8706 -12.8171 -13.2208 -14.4485 -13.0124 -15.8469 -11.2913 -10.6875 -17.5423 -15.0873 -12.9935 -11.9974 -8.056001 -8.2005 -11.9456 
-9.797501 -11.5455 -10.733 -11.145 -12.6444 -14.6388 -15.2436 -15.0373 -16.4404 -14.5179 -11.088 -11.8077 -11.8815 -15.2908 -18.1729 -17.6852 -13.5649 -14.9468 -10.146 -11.2774 -11.767 -11.767 -12.1125 -15.6829 -12.2949 -8.651501 -10.533 -9.977501 -10.375 -14.1026 -15.7536 -16.1762 -17.6904 -18.6388 -14.4485 -19.2333 -17.5377 -15.2718 -17.5423 -20.0503 -15.0873 -17.2984 -13.1789 -12.6957 -11.9456 
-2.3615 -2.0935 -4.384 -1.7695 -4.4535 -3.584 0 -3.7445 0 -4.4535 0 -7.6105 -5.2645 -2.3615 -1.756 -3.5045 -2.5235 -3.555 0 0 -8.580001 -2.871 -4.3465 -4.622 -1.756 -2.871 -3.8935 -3.555 0 -3.321 -1.7695 -2.9635 -2.0935 -6.694 -2.9645 -4.3465 -4.622 
-5.0985 -6.547 -6.185 -6.345 -7.986501 -3.584 -3.7445 -3.7445 -4.4535 -4.4535 -7.6105 -13.63 -7.405 -4.8045 -5.085 -5.033 -4.943501 -3.555 0 -8.580001 -11.8712 -7.360001 -6.8715 -6.409 -4.514 -5.6685 -7.2725 -3.555 -3.321 -5.389 -4.09 -5.971 -10.177 -11.3057 -7.336 -6.8715 
-10.4035 -8.7825 -11.5361 -10.3815 -7.986501 -6.117001 -3.7445 -7.5865 -4.4535 -8.8925 -13.63 -15.7705 -9.3265 -7.975 -6.317 -8.061001 -4.943501 -3.555 -8.580001 -11.8712 -16.3602 -9.5985 -9.185501 -9.016001 -7.931 -10.7575 -7.2725 -7.0775 -5.389 -8.4345 -7.400001 -14.4969 -14.7841 -15.6772 -9.1405 
-12.639 -14.4742 -15.5726 -10.3815 -11.2741 -6.117001 -7.5865 -7.5865 -8.8925 -15.3592 -15.7705 -17.692 -12.681 -10.264 -9.6035 -8.061001 -4.943501 -12.715 -11.8712 -16.3602 -18.5987 -13.2837 -12.0193 -12.7528 -13.2226 -10.7575 -10.76 -9.408501 -8.4345 -12.0327 -16.5399 -19.104 -19.1556 -17.4817 
-18.3307 -18.5107 -15.5726 -13.8709 -11.2741 -9.995001 -7.5865 -9.935501 -15.3592 -17.4997 -17.692 -21.0465 -14.97 -13.5505 -9.6035 -8.061001 -15.3441 -16.0062 -16.3602 -18.5987 -22.2839 -16.1175 -15.7561 -18.0444 -13.2226 -14.245 -13.091 -12.5936 -12.0327 -21.1726 -21.147 -23.4755 -20.9601 
