-4.759 
n/a 
n/a 
n/a 
n/a 
-4.759 
n/a 
n/a 
n/a 
n/a 
-4.759 
n/a 
n/a 
n/a 
n/a 
-4.759 
n/a 
n/a 
n/a 
n/a 
-3.1495 -2.846 -4.763 -1.756 -2.543 -3.766 -4.763 -2.4945 -3.716 0 
-6.8935 -8.130501 -6.161 -4.855 -6.654 -9.242001 -6.6715 -6.1075 -3.716 
-10.553 -9.4355 -9.2565 -8.692 -12.657 -11.2587 -9.086 -6.1075 
-11.858 -12.625 -10.622 -14.9058 -14.6737 -13.6732 -9.086 
-15.0475 -13.9905 -17.959 -16.9225 -17.0882 -13.6732 
-4.275 -2.8645 -2.846 -5.213 -1.756 -2.543 -3.7285 -5.213 0 
-7.134 -6.546 -9.449 -6.4325 -4.855 -6.659 -8.149 -5.213 
-11.1969 -13.5582 -10.9127 -10.0855 -8.361 -11.5565 -8.149 
-18.2091 -15.0219 -14.5657 -13.5915 -13.6473 -11.5565 
-19.6728 -18.6749 -18.0717 -18.8778 -13.6473 
-2.4265 -4.0935 -2.846 -3.7655 -1.756 -2.543 -4.0995 -3.7655 0 
-5.351 -7.041 -7.115 -5.655 -4.855 -6.5985 -5.989 -3.7655 
-8.493 -9.928 -8.843 -8.851 -8.8435 -7.9465 -5.989 
-11.465 -12.1444 -12.2152 -13.0809 -10.4765 -7.9465 
-13.6814 -15.5166 -16.4451 -14.7139 -10.4765 
-1.934 -3.1495 -2.7295 -2.674 -2.846 -4.418 -1.756 -2.543 -8.5175 
-4.5395 -6.5335 -3.8 -6.559 -7.729001 -5.694 -4.855 -9.314 
-8.330501 -7.535 -7.11 -10.757 -8.9715 -8.5605 -11.487 
-9.2025 -10.9546 -11.6378 -11.9995 -12.0098 -15.5721 
-12.7529 -15.4824 -12.8803 -15.0378 -19.0214 
