-4.759 
n/a 
n/a 
n/a 
n/a 
-4.759 
n/a 
n/a 
n/a 
n/a 
-4.759 
n/a 
n/a 
n/a 
n/a 
-4.759 
n/a 
n/a 
n/a 
n/a 
-1.4985 -4.717 -2.674 -3.1125 -4.196 -2.356 -1.4985 -4.5535 -1.7565 -4.6875 -3.326 -2.264 -1.4985 -3.3435 -1.7565 -3.1495 -4.248 -5.211 -1.756 -2.985 -3.9825 -1.934 -1.4985 -4.248 -4.866 0 
-6.324 -7.2775 -3.6315 -5.516 -6.165 -3.1615 -5.291 -5.315 -5.965001 -7.229 -5.025001 -2.9195 -4.6745 -4.7005 -3.914 -7.7565 -6.5565 -6.483001 -4.2025 -5.797501 -4.624 -2.6125 -5.2845 -7.309 -4.866 
-8.269501 -7.9005 -6.0895 -7.0525 -6.646 -6.3025 -5.577001 -7.581 -8.500001 -8.4565 -5.7175 -6.2465 -5.03 -7.3225 -9.061501 -8.755 -7.781 -8.059501 -6.558001 -6.141 -5.1565 -6.979001 -7.857501 -7.309 
-9.031 -9.483 -7.578001 -7.487 -8.405001 -6.411 -7.8595 -9.739 -9.670001 -9.2355 -8.610001 -6.585001 -7.715001 -12.8756 -9.6245 -10.0445 -9.120501 -10.7504 -6.653 -6.662001 -9.1555 -8.5165 -7.857501 
-10.6193 -11.1229 -8.1495 -9.181001 -8.489 -8.0635 -10.015 -10.612 -10.398 -12.2156 -9.210001 -9.036 -13.3423 -13.4386 -10.9128 -11.51 -11.994 -10.8454 -7.2775 -10.426 -9.574 -8.5165 
-3.0695 -3.8905 0 -2.5195 -3.3155 0 -2.9325 -4.4905 0 -2.4945 -1.4985 -3.699 -4.452 -2.0935 -3.326 -1.4985 -4.934 -2.7455 -4.891 0 
-6.745 -3.8905 -2.5195 -5.5695 -3.3155 -2.9325 -8.4925 -4.4905 -2.4945 -3.9315 -5.264 -6.8155 -5.983 -5.0985 -5.3015 -6.2545 -6.937 -8.0465 -4.891 
-6.745 -6.4505 -5.5695 -5.5695 -6.703 -8.4925 -8.4925 -7.8915 -3.9315 -7.0825 -8.0115 -8.0515 -9.473001 -7.177 -10.223 -8.3165 -12.4944 -8.0465 
-9.865801 -8.697001 -5.5695 -8.766001 -12.401 -8.4925 -10.3675 -9.277501 -7.0825 -10.0315 -9.279 -10.5855 -11.5145 -12.2567 -12.3558 -14.1395 -12.4944 
-12.1123 -8.697001 -8.766001 -14.6202 -12.401 -10.3675 -11.7535 -12.4949 -10.0315 -11.299 -11.8878 -13.253 -16.5942 -14.3895 -18.1788 -14.1395 
-3.4985 -5.15 -3.2775 -3.992 -2.7455 -6.144 -2.4265 -2.186 -3.699 -1.7695 -3.6595 -1.4985 -3.4605 -3.098 0 -1.4985 -3.918 -4.339 -4.0995 -2.3335 -3.992 -1.756 -2.9325 -2.186 -4.0005 -4.0995 -2.3335 -3.992 0 
-7.629001 -7.9425 -7.268001 -5.9045 -9.0385 -8.5105 -3.292 -4.636 -4.585 -5.264 -4.829 -4.652 -6.7025 -3.098 -1.4985 -4.8715 -8.1175 -6.818 -6.3075 -6.6525 -5.5245 -4.4385 -3.8335 -5.0275 -7.936501 -6.3075 -6.6525 -3.992 
-10.1905 -11.9762 -10.31 -10.459 -11.5236 -8.9345 -4.8835 -4.967 -5.705 -6.3865 -8.2915 -7.7775 -6.7025 -5.133 -4.8715 -8.724001 -10.5135 -9.220501 -9.727501 -7.8915 -8.055 -5.544 -6.5815 -8.4205 -9.861 -9.727501 -6.6525 
-14.3628 -15.0182 -14.8645 -13.4061 -11.9476 -10.4115 -5.073 -5.8195 -7.183 -10.2425 -11.841 -7.7775 -8.8225 -8.5665 -8.724001 -10.5535 -12.916 -12.7283 -10.9725 -9.922501 -8.998501 -7.8155 -9.3925 -10.3045 -13.281 -9.727501 
-17.4048 -19.5727 -17.8116 -13.8301 -13.4246 -10.77 -5.8275 -7.348001 -11.259 -13.792 -11.841 -9.777 -12.3468 -12.844 -10.5535 -12.956 -16.4238 -13.9733 -13.0035 -11.323 -11.324 -10.7595 -10.7505 -13.7245 -13.281 
-2.4265 -2.186 -3.699 -1.7695 -3.197 -2.3335 -3.1495 -5.795 -2.4945 -3.8055 -4.056 -2.3345 -4.4685 0 -2.5195 -2.9705 -3.4605 0 -2.356 -2.9325 -3.535 -4.4905 -2.0935 -1.4985 -3.326 -2.264 -1.4985 -5.795 0 
-3.292 -4.636 -4.585 -3.9565 -4.932 -4.8015 -7.172 -7.221 -5.9265 -5.811501 -6.1315 -6.0335 -4.4685 -2.5195 -4.9775 -7.434 -3.4605 -2.356 -5.139 -7.7545 -6.508 -6.005501 -2.9725 -4.841001 -5.025001 -2.9195 -6.7135 -5.795 
-4.8835 -4.967 -6.8495 -5.7495 -7.128 -8.64 -8.077001 -10.564 -7.435 -6.487 -10.411 -6.0335 -7.844501 -4.9775 -8.910501 -7.434 -5.646501 -5.139 -9.663501 -11.0103 -8.459001 -6.781001 -6.423 -6.559 -5.7175 -8.682 -6.7135 
-5.073 -7.239 -9.106 -8.1405 -11.0545 -9.116501 -11.6028 -12.0725 -8.408001 -11.0737 -10.411 -9.0255 -9.8415 -8.910501 -8.910501 -10.3234 -9.2705 -9.663501 -13.5011 -12.9613 -8.9595 -10.208 -8.194501 -7.291 -11.9918 -8.682 
-7.2495 -9.742001 -11.63 -12.1994 -11.531 -12.6825 -13.1113 -13.0455 -13.1435 -11.0737 -13.613 -10.204 -13.8929 -8.910501 -12.3221 -13.9474 -13.8644 -13.5011 -15.4521 -13.4618 -12.5011 -11.9795 -8.894501 -13.6189 -11.9918 
