-4.759 
n/a 
n/a 
n/a 
n/a 
-4.759 
n/a 
n/a 
n/a 
n/a 
-4.759 
n/a 
n/a 
n/a 
n/a 
-4.759 
n/a 
n/a 
n/a 
n/a 
-3.0365 -2.4945 -3.3715 -3.9675 -1.934 -7.4535 0 
-3.688 -4.846 -8.467001 -5.608 -9.3225 -7.4535 
-4.8765 -10.022 -10.5535 -13.6523 -9.3225 
-10.107 -12.1085 -18.5978 -13.6523 
-12.1935 -20.1528 -18.5978 
-3.074 0 -4.0455 -3.402 -4.371 -1.756 -5.805 -3.4635 -4.179 -2.4945 -3.074 -3.0365 0 
-3.074 -4.0455 -6.8315 -8.366501 -5.443 -7.29 -10.135 -6.860001 -5.893001 -4.4205 -5.832 -3.0365 
-7.917001 -6.8315 -10.096 -9.328501 -12.2224 -11.9238 -13.5315 -8.8105 -7.927501 -7.619 -5.832 
-10.3545 -10.096 -11.6466 -16.5973 -16.8562 -15.3203 -15.482 -10.6475 -10.6735 -7.619 
-13.619 -11.6466 -18.9154 -21.2311 -20.2527 -17.2708 -17.319 -13.3935 -10.6735 
-3.818 -4.157 -7.1155 -1.756 -3.9675 -1.756 -4.179 0 
-8.67 -12.4087 -8.338501 -4.942 -4.9775 -5.9635 -4.179 
-17.4313 -13.6317 -11.8285 -6.5635 -8.7145 -5.9635 
-18.6543 -17.1217 -13.45 -10.4651 -8.7145 
-22.1443 -18.7432 -17.3516 -10.4651 
-9.293 -4.371 -4.179 -1.756 -3.45 -3.402 -2.264 -4.6395 -3.2895 -2.4945 -3.074 -3.0365 
-12.6055 -7.125501 -5.011001 -4.834 -6.74 -3.793 -6.708 -6.2065 -5.4165 -4.4205 -5.832 
-15.1795 -8.347 -8.002001 -7.8615 -6.824 -7.591001 -7.725 -7.951 -7.826 -7.619 
-16.401 -11.3886 -11.4253 -7.948 -10.4505 -9.368501 -9.6365 -9.873501 -10.586 
-19.4426 -14.8119 -11.5118 -11.6533 -12.228 -11.3784 -11.7402 -12.6335 
