-4.759 
n/a 
n/a 
n/a 
n/a 
-4.759 
n/a 
n/a 
n/a 
n/a 
-4.759 
n/a 
n/a 
n/a 
n/a 
-4.759 
n/a 
n/a 
n/a 
n/a 
-3.506 -5.077 -1.4985 -5.808 -3.9595 -3.5015 -1.934 -9.2545 0 -1.4985 -4.8565 -8.156 -6.371 -12.16972 -5.84 -3.091 -6.652 -2.0935 -1.4985 -4.6535 -4.219 -2.9705 -2.742 -2.489 -4.005 -2.264 -4.937 -3.506 
-8.1495 -6.4955 -7.153001 -11.046 -5.6235 -4.704 -10.0645 -9.2545 -1.4985 -5.561 -14.2053 -15.0388 -19.14592 -18.00972 -7.018 -8.022 -7.6815 -2.9725 -5.567 -5.671 -6.850501 -4.601501 -3.301 -4.7165 -5.178 -6.756001 -6.849 
-8.927 -11.923 -12.817 -12.71 -6.3005 -13.3353 -10.0645 -10.985 -5.561 -15.1608 -21.0881 -27.81372 -24.98592 -19.18772 -9.471001 -8.6715 -8.0275 -6.945 -6.4145 -7.8535 -8.145 -5.1675 -5.0835 -5.643 -8.275001 -8.014 
-14.3532 -18.0648 -14.481 -13.387 -15.1904 -13.3353 -11.795 -15.0475 -15.1608 -22.0436 -33.86302 -33.65372 -26.16392 -21.64072 -10.398 -8.8245 -10.213 -7.765 -8.4715 -9.325001 -8.598501 -6.4535 -5.821 -8.84 -9.318001 
-20.3562 -19.7288 -15.158 -22.2769 -15.1904 -15.0658 -15.8575 -24.6473 -22.0436 -34.81852 -39.70302 -34.83172 -28.61692 -22.56772 -10.702 -10.504 -10.4665 -9.748 -9.852 -9.776501 -8.899001 -7.172 -9.035001 -9.684501 
-3.506 -7.678 -12.16972 -1.4985 -4.8565 -8.156 -1.7565 -1.4985 -3.757 -4.219 -5.84 -2.5195 -1.4985 -3.506 -3.2815 -4.519 -3.851 -1.7695 -4.219 -4.345 -1.934 -8.250501 
-10.2905 -21.04012 -13.66822 -5.561 -14.2053 -9.943501 -2.4195 -4.5435 -7.3525 -9.477001 -6.4715 -3.1695 -5.718 -5.489501 -8.462 -7.568501 -4.0015 -6.6355 -7.048501 -5.5595 -9.452001 
-24.64762 -22.85602 -17.73072 -15.1608 -15.9928 -10.6065 -5.456501 -7.7275 -13.2259 -10.165 -6.749 -7.0095 -7.757 -9.6485 -11.7903 -7.9 -8.4815 -9.617001 -7.8255 -14.0263 
-26.14612 -26.91852 -27.33052 -16.9483 -16.6558 -13.6435 -8.948001 -14.5653 -13.9139 -10.257 -9.995 -8.879001 -9.718 -13.179 -12.1218 -12.9012 -10.3885 -10.623 -17.1091 
-30.20862 -36.51832 -29.11802 -17.6113 -19.6928 -17.135 -15.545 -15.2533 -14.0059 -13.8218 -10.116 -11.133 -13.2993 -13.5105 -17.123 -14.8082 -11.3945 -19.9066 
-8.434 -3.2615 -4.806 -4.219 -5.322 -12.16972 -3.6825 0 -4.7845 -2.5045 -2.6165 -4.37 0 -2.9805 -5.217 -1.4985 -4.219 -2.264 -3.506 -4.937 -4.219 0 
-12.1609 -8.4925 -7.871 -10.127 -18.59632 -15.85222 -3.6825 -4.7845 -7.105 -5.4895 -5.889 -4.37 -2.9805 -8.370001 -6.245501 -5.129 -6.455501 -4.855 -6.434501 -9.546 -4.219 
-17.3919 -12.0267 -14.3878 -23.40132 -22.27882 -15.85222 -8.375 -7.105 -10.1505 -10.718 -5.889 -7.796 -8.370001 -9.231001 -9.477501 -7.212501 -7.960501 -7.2695 -10.218 -9.546 
-20.9261 -18.5435 -27.66212 -27.08382 -22.27882 -20.54472 -10.01 -10.1505 -15.5244 -10.718 -9.027 -13.5119 -9.231001 -12.4928 -11.6312 -9.118 -10.688 -11.2472 -10.218 
-27.4429 -31.81782 -31.34462 -27.08382 -26.97132 -22.17972 -13.3379 -15.5244 -15.5244 -14.3494 -14.8159 -14.3729 -12.4928 -14.6465 -13.5367 -11.9955 -14.6657 -11.2472 
-3.251 -4.532 -1.7695 -5.217 -3.091 -6.652 -3.4635 -3.6885 -4.197 -4.345 -2.3335 -4.0875 -3.5015 -1.934 -8.250501 -3.3785 -4.519 
-6.173 -5.484 -5.555501 -6.896501 -8.022 -9.836 -7.668501 -5.059 -7.985 -6.3405 -5.637 -5.143 -4.704 -9.452001 -12.3028 -6.1955 
-6.496 -8.8075 -7.074501 -9.1695 -10.688 -14.198 -8.517501 -8.111 -9.609 -8.382 -6.0175 -5.692 -12.7228 -13.6369 -15.1198 
-9.6815 -10.396 -9.463501 -12.0127 -15.05 -15.047 -10.4505 -9.7665 -11.6759 -8.5305 -6.4845 -13.8968 -16.9077 -16.4539 
-11.3172 -12.785 -12.3497 -16.3747 -15.899 -16.98 -12.106 -11.8424 -11.8244 -8.973001 -14.8581 -18.0817 -19.7247 
