-4.759 
n/a 
n/a 
n/a 
n/a 
-4.759 
n/a 
n/a 
n/a 
n/a 
-4.759 
n/a 
n/a 
n/a 
n/a 
-4.759 
n/a 
n/a 
n/a 
n/a 
-1.4985 -5.5455 -3.17 -4.031 -2.186 -1.4985 -4.2695 -1.756 -3.135 -3.6135 -4.6225 -3.0695 -2.9645 -2.5685 -1.4985 -4.693 -1.7565 -2.8705 -3.213 -2.0935 -2.985 -3.5205 -8.4825 -3.3435 0 
-6.1425 -8.0345 -8.164001 -5.555 -3.339 -5.444 -5.3715 -4.5755 -6.0195 -6.7155 -7.9245 -5.5255 -5.3335 -3.7015 -6.0345 -6.263 -3.8505 -5.1845 -4.5705 -4.3315 -4.257 -13.0588 -12.123 -3.3435 
-8.373501 -10.622 -9.219001 -6.727 -7.999001 -6.538 -8.341001 -7.554501 -8.004001 -8.694 -10.8165 -8.515 -6.2435 -7.958 -6.571001 -8.229501 -6.0515 -7.1785 -6.995501 -5.5795 -14.1365 -16.6993 -12.123 
-11.2414 -11.677 -10.5435 -11.5284 -9.4195 -9.538 -11.4442 -10.064 -10.7025 -11.7962 -13.806 -9.3225 -11.1516 -8.761001 -8.319 -9.5705 -7.8865 -9.763 -8.106501 -16.0762 -17.777 -16.6993 
-12.2964 -13.0015 -15.3449 -12.9489 -12.4581 -12.742 -13.9537 -12.7625 -13.8047 -14.7857 -14.6135 -14.3004 -11.9546 -10.6864 -9.648001 -11.5461 -10.476 -10.636 -18.8792 -19.7167 -17.777 
-3.1495 -3.0835 -4.1645 -4.2695 -1.756 -12.16972 -3.0365 -4.6245 -3.213 -2.186 -5.039 -1.756 -3.0365 -2.5685 -3.5895 -4.812 -2.186 -2.871 -1.4985 -4.031 0 
-6.4605 -7.5435 -9.6875 -5.3715 -14.93432 -15.20622 -9.109501 -7.989501 -4.8695 -8.5775 -7.063 -4.484 -6.128 -6.443 -8.1855 -7.927501 -4.247 -5.1 -4.771 -4.031 
-11.4465 -13.2609 -10.6765 -19.69402 -17.97082 -21.27922 -12.8317 -10.0185 -11.9262 -10.7941 -10.2485 -7.761001 -10.155 -11.953 -12.6212 -9.922501 -6.6575 -7.742001 -4.771 
-17.1639 -14.2499 -24.99902 -22.73052 -24.04382 -25.00142 -14.8607 -17.0752 -14.1428 -13.9796 -13.6941 -11.754 -15.665 -16.3887 -14.6162 -12.4488 -9.5105 -7.742001 
-18.1529 -28.57242 -28.03552 -28.80352 -27.76602 -27.03042 -21.9174 -19.2918 -17.3283 -17.4252 -17.6871 -17.264 -20.1007 -18.3837 -17.1425 -15.3018 -9.5105 
-3.0835 -1.7565 -2.5685 -2.186 -4.2695 -1.756 -12.16972 -3.0695 -6.597 -1.4985 -4.1645 -4.6555 -1.756 -6.554 -4.752 -1.934 -5.7655 -3.213 
-4.9645 -3.938 -5.349 -8.337001 -5.3715 -14.93432 -15.23922 -8.295501 -7.5355 -5.534 -9.366501 -5.774 -7.683 -10.932 -6.633501 -6.9425 -8.142 
-5.325 -6.482 -12.01 -9.690001 -19.69402 -18.00382 -20.46522 -8.893001 -11.9808 -10.1765 -10.336 -12.6644 -12.2682 -12.8135 -12.2224 -9.3175 
-7.563 -13.2506 -13.363 -24.07192 -22.76352 -23.22982 -21.06272 -13.4059 -16.6233 -11.146 -17.2264 -17.2496 -14.1497 -18.4024 -14.5974 
-14.4536 -14.6036 -27.74492 -27.14142 -27.98952 -23.82732 -25.57562 -18.0484 -17.5928 -18.0364 -21.8116 -19.1311 -19.7386 -20.7774 
-1.934 -1.4985 -4.0105 -4.031 -2.186 -1.4985 -4.2695 -1.756 -5.629 -2.0935 -2.985 -4.486 0 -3.9595 -3.8515 -2.5685 -3.836 -4.2785 -2.3345 -1.4985 -4.6245 -2.264 -2.985 -3.818 -3.213 
-2.6125 -4.7015 -6.3215 -5.555 -3.339 -5.444 -5.3715 -6.9345 -7.6105 -4.3315 -7.4855 -4.486 -3.9595 -5.882 -6.171 -6.442 -6.797 -4.849 -3.233 -5.671 -6.9775 -4.3835 -6.148 -5.229 
-6.004001 -6.432 -7.6575 -6.727 -7.999001 -6.538 -8.256001 -8.7225 -9.401 -8.527 -7.4855 -9.953501 -5.882 -8.0345 -10.001 -8.557501 -7.1455 -5.408 -7.132 -8.0865 -9.1505 -7.555 -6.43 
-9.727501 -7.737 -8.4845 -11.5284 -9.4195 -9.650001 -10.2485 -10.5745 -13.6645 -8.527 -13.208 -12.016 -8.0345 -12.1515 -12.3351 -9.009501 -7.5255 -9.814 -9.297501 -9.960501 -12.4152 -8.332001 
-11.1075 -8.5415 -13.4653 -12.9489 -12.5701 -12.2577 -12.1005 -14.838 -13.6645 -14.4503 -15.2705 -14.1685 -12.1515 -14.4856 -12.7871 -9.327001 -12.4229 -11.9795 -11.2863 -13.4674 -13.1922 
