-4.759 
n/a 
n/a 
n/a 
n/a 
-4.759 
n/a 
n/a 
n/a 
n/a 
-4.759 
n/a 
n/a 
n/a 
n/a 
-4.759 
n/a 
n/a 
n/a 
n/a 
-2.4945 -1.4985 -3.699 -4.536 -2.0935 -3.2875 0 
-3.9315 -5.264 -9.087001 -6.5795 -5.8425 -3.2875 
-7.0825 -10.4505 -10.75 -10.5975 -5.8425 
-12.566 -12.1135 -14.768 -10.5975 
-14.229 -16.1315 -14.768 
-2.4945 -3.699 -4.536 -1.934 -1.4985 -3.2875 
-5.304 -9.087001 -5.973001 -2.6125 -4.127 
-10.575 -10.2705 -6.608 -4.9865 
-11.7585 -10.6835 -8.654 
-12.1715 -12.7295 
-1.4985 -3.535 -4.536 -1.934 -8.758 -3.2875 
-4.255 -9.1105 -5.973001 -11.6984 -12.3561 
-9.628 -10.1155 -16.5612 -15.2965 
-10.5245 -20.7765 -20.1593 
-21.1855 -24.3746 
-2.4945 -1.4985 -3.699 -4.536 -1.7565 -1.4985 -3.2875 0 
-3.9315 -5.264 -9.087001 -6.182 -2.4195 -4.127 -3.2875 
-7.0825 -10.4505 -10.1725 -6.923 -4.8825 -4.127 
-12.566 -11.536 -10.9135 -8.7705 -4.8825 
-13.6515 -12.277 -12.761 -8.7705 
