-4.759 
n/a 
n/a 
n/a 
n/a 
-4.759 
n/a 
n/a 
n/a 
n/a 
-4.759 
n/a 
n/a 
n/a 
n/a 
-4.759 
n/a 
n/a 
n/a 
n/a 
-4.6625 0 -3.4715 0 -3.898 0 -3.599 0 -4.1455 -2.3335 -2.4945 -3.849 -3.8445 -4.6195 0 
-4.6625 -3.4715 -3.4715 -3.898 -3.898 -3.599 -3.599 -4.1455 -6.324 -3.947 -5.410501 -7.615001 -8.2655 -4.6195 
-7.123 -3.4715 -6.715 -3.898 -7.2895 -3.599 -7.4735 -6.324 -8.0755 -7.0295 -9.597 -12.3388 -8.2655 
-7.123 -6.715 -6.715 -7.2895 -7.2895 -7.4735 -10.76 -8.0755 -10.6875 -11.5262 -14.3208 -12.3388 
-10.4345 -6.715 -8.17 -7.2895 -11.8552 -10.76 -12.5115 -10.6875 -15.1842 -16.25 -14.3208 
-3.873 0 -3.4715 0 -3.898 0 -3.599 0 -4.392 -2.4945 -1.4985 -12.16972 
-3.873 -3.4715 -3.4715 -3.898 -3.898 -3.599 -3.599 -4.392 -7.2865 -3.9315 -14.76202 
-6.3595 -3.4715 -6.715 -3.898 -7.2895 -3.599 -7.899 -7.2865 -8.56 -17.72182 
-6.3595 -6.715 -6.715 -7.2895 -7.2895 -7.899 -11.4529 -8.56 -22.52912 
-9.715 -6.715 -8.17 -7.2895 -10.1 -11.4529 -12.7264 -22.52912 
-4.6625 0 -3.4715 0 -3.898 0 -3.599 0 -4.392 -2.4945 -3.849 -3.8445 -12.16972 0 
-4.6625 -3.4715 -3.4715 -3.898 -3.898 -3.599 -3.599 -4.392 -7.2865 -5.410501 -7.615001 -17.18722 -12.16972 
-7.123 -3.4715 -6.715 -3.898 -7.2895 -3.599 -7.899 -7.2865 -9.564501 -9.597 -21.26052 -17.18722 
-7.123 -6.715 -6.715 -7.2895 -7.2895 -7.899 -11.4529 -9.564501 -13.9236 -23.24252 -21.26052 
-10.4345 -6.715 -8.17 -7.2895 -10.1 -11.4529 -13.7309 -13.9236 -27.56912 -23.24252 
-3.873 0 -3.4715 0 -3.898 0 -4.392 0 -3.599 -2.4945 -1.4985 -3.8445 -12.16972 
-3.873 -3.4715 -3.4715 -3.898 -3.898 -4.392 -4.392 -3.599 -6.8785 -3.9315 -4.9855 -17.18722 
-6.3595 -3.4715 -6.715 -3.898 -7.1175 -4.392 -7.7405 -6.8785 -8.197001 -6.955 -18.55822 
-6.3595 -6.715 -6.715 -7.1175 -7.1175 -7.7405 -11.6468 -8.197001 -11.4837 -20.88692 
-9.715 -6.715 -9.803 -7.1175 -10.647 -11.6468 -12.9653 -11.4837 -25.41562 
