-4.759 
n/a 
n/a 
n/a 
n/a 
-4.759 
n/a 
n/a 
n/a 
n/a 
-4.759 
n/a 
n/a 
n/a 
n/a 
-4.759 
n/a 
n/a 
n/a 
n/a 
-3.5905 -9.8815 0 -1.934 -3.8735 0 -3.0365 -6.589001 0 -3.1385 -2.4945 -5.1875 -6.166 
-13.9972 -9.8815 -1.934 -4.885 -3.8735 -3.0365 -10.638 -5.967 -3.1385 -4.588 -7.982501 -8.4235 
-13.9972 -11.8733 -4.885 -4.885 -6.98 -10.7698 -10.7698 -10.1995 -4.588 -9.375 -11.6371 
-15.989 -14.8243 -4.885 -7.305 -15.6253 -10.7698 -15.0023 -12.3415 -9.375 -13.181 
-18.94 -14.8243 -7.305 -16.1259 -15.6253 -15.0023 -17.1443 -17.3733 -13.181 
-2.264 -3.5905 -1.4985 -4.46 -3.152 -4.0875 -1.934 -3.8735 0 -4.8625 -6.3335 0 -3.1385 -2.7415 -6.102 0 
-6.718 -5.1795 -5.446 -7.703 -8.4545 -6.2065 -4.885 -3.8735 -4.8625 -11.124 -5.8345 -3.1385 -6.375501 -9.745501 -6.102 
-8.787001 -8.717 -8.396 -13.3891 -10.0715 -9.521501 -4.885 -8.0645 -10.362 -10.362 -10.1385 -6.375501 -13.5275 -9.745501 
-12.4705 -11.9632 -14.0835 -15.0061 -13.3865 -9.521501 -9.069501 -13.9848 -10.362 -14.9446 -13.7735 -13.5275 -13.5275 
-15.7167 -17.6507 -15.7005 -18.3211 -13.3865 -13.8362 -15.13 -13.9848 -14.9446 -18.5796 -20.9503 -13.5275 
-2.5195 -1.4985 -4.02 -3.8135 -1.7565 -3.5905 0 -6.3335 0 -1.7565 -3.1385 -4.3895 -1.4985 -4.2655 -5.8965 
-3.1695 -4.914001 -8.7985 -4.991 -5.706501 -3.5905 -5.8345 -5.8345 -1.7565 -4.388 -7.4595 -5.4965 -5.9775 -7.6195 
-6.934 -9.832001 -9.897 -9.6295 -5.706501 -9.4715 -5.8345 -8.2585 -4.388 -8.410501 -8.283 -9.2545 -9.8065 
-10.7575 -10.9305 -14.5355 -9.6295 -12.0238 -9.4715 -8.2585 -11.2407 -8.410501 -9.236501 -12.1522 -13.4687 
-11.856 -15.569 -14.5355 -15.9896 -12.0238 -11.8955 -11.2407 -15.6244 -9.236501 -13.1955 -16.3664 
-3.9345 -1.7695 -3.5905 -4.02 -4.0305 0 -4.3435 -3.769 0 -1.7565 -4.1865 -3.8185 -5.1875 -4.2655 0 
-3.94 -6.087 -7.371 -6.239 -4.0305 -4.3435 -6.5635 -3.769 -1.7565 -5.463 -9.6435 -9.366501 -7.408 -4.2655 
-8.202001 -9.356 -10.0375 -6.239 -7.735001 -6.5635 -6.5635 -5.3885 -5.463 -11.608 -15.4235 -10.39 -7.408 
-10.18 -12.2467 -10.0375 -10.6875 -9.2215 -6.5635 -7.27 -9.335001 -11.608 -17.388 -16.447 -10.39 
-13.5381 -12.2467 -14.486 -12.174 -9.2215 -7.27 -10.5225 -15.6082 -17.388 -18.4115 -16.447 
