-4.759 
n/a 
n/a 
n/a 
n/a 
-4.759 
n/a 
n/a 
n/a 
n/a 
-4.759 
n/a 
n/a 
n/a 
n/a 
-4.759 
n/a 
n/a 
n/a 
n/a 
-2.0935 -1.4985 -4.237 -3.519 0 -4.3905 -5.31 -3.976 -1.7565 -4.0435 -1.7565 -4.392 0 -1.756 -1.8085 -2.95 -2.4265 -4.0925 -2.3345 -3.995 -5.0065 0 
-2.9725 -5.154 -7.0855 -3.519 -4.3905 -10.199 -10.0715 -5.224 -6.198501 -4.7605 -6.451001 -4.392 -1.756 -3.584 -4.4675 -4.895 -6.9395 -5.414001 -6.732 -7.684 -5.0065 
-6.949 -8.729501 -7.0855 -8.066 -10.199 -15.1841 -11.3195 -10.66 -7.965501 -9.816501 -6.451001 -5.92 -3.584 -6.4515 -6.6785 -9.208501 -8.8335 -9.885501 -10.103 -7.684 
-10.1185 -8.729501 -12.1635 -14.1241 -15.1841 -16.4321 -16.7555 -12.427 -13.0765 -9.816501 -7.595001 -7.551001 -6.4515 -9.459001 -11.295 -11.2791 -13.3054 -13.1799 -10.103 
-10.1185 -14.0507 -18.2216 -19.1092 -16.4321 -21.8681 -18.5225 -17.538 -13.0765 -11.0699 -9.426001 -10.757 -9.459001 -14.3191 -13.3656 -15.751 -16.5998 -13.1799 
-3.851 -1.7695 -4.237 -3.638 0 -1.934 -4.6985 -4.7885 -5.1595 -2.229 -3.976 -4.507 -3.135 -3.5215 -2.4265 -2.742 -3.3165 -2.9905 -3.7575 -1.7565 -3.995 -5.0065 
-4.0015 -5.834001 -6.6705 -3.638 -1.934 -7.228 -9.2115 -10.2235 -8.4965 -6.3375 -7.115 -7.790001 -6.2085 -5.644 -4.095 -5.001 -5.0795 -6.573501 -4.4575 -5.423 -7.684 
-7.3355 -8.3255 -6.6705 -5.5815 -7.228 -11.948 -15.5425 -13.7413 -12.8962 -8.888 -10.155 -11.0539 -7.3925 -7.1925 -6.246 -6.5625 -8.196501 -7.248001 -8.2535 -9.068001 
-10.078 -8.3255 -8.0785 -9.896001 -11.948 -18.279 -19.0603 -18.141 -15.4467 -12.0802 -13.5897 -12.2379 -8.8835 -9.207001 -7.953 -10.142 -9.465 -11.1012 -12.0973 
-10.078 -9.653501 -12.7518 -15.2962 -18.279 -21.7968 -23.46 -20.6915 -18.6389 -15.5149 -14.7737 -13.7289 -10.622 -11.044 -11.5979 -11.4105 -13.4712 -14.945 
-4.237 -3.638 -3.882 -3.135 -5.1595 -2.5045 -6.433 -1.7695 -3.952 -3.8515 -3.7015 -5.0065 
-6.6705 -7.5565 -6.2555 -7.977 -6.9325 -10.4855 -8.2505 -4.6075 -5.968 -7.668 -7.516 
-10.119 -10.5325 -10.703 -10.443 -15.9363 -12.303 -11.5383 -6.4235 -10.8367 -11.7145 
-13.1412 -14.98 -13.169 -19.6608 -17.7538 -15.5908 -13.3543 -11.5518 -14.8832 
-17.5887 -17.446 -22.3868 -21.4783 -21.0416 -17.4068 -18.4826 -15.5983 
-4.2485 -4.602 -1.7565 -2.9905 -3.7575 -1.7695 -4.207 -3.995 -5.0405 -1.7565 -3.11 -3.9355 -2.4265 
-10.9575 -6.4945 -5.989501 -6.573501 -5.5835 -6.237 -8.795 -9.2865 -6.302 -5.8475 -7.882 -5.362 
-12.85 -11.2403 -9.066501 -8.4175 -9.943001 -11.4838 -14.5883 -10.68 -10.7025 -11.3665 -8.953501 
-17.5958 -14.3173 -10.8019 -12.9154 -15.26 -17.2771 -15.9818 -15.0805 -16.2215 -12.438 
-20.6728 -16.0527 -15.2998 -18.2324 -21.0533 -18.6706 -20.3823 -20.5995 -17.293 
