-4.759 
n/a 
n/a 
n/a 
n/a 
-4.759 
n/a 
n/a 
n/a 
n/a 
-4.759 
n/a 
n/a 
n/a 
n/a 
-4.759 
n/a 
n/a 
n/a 
n/a 
-1.4985 -3.44 -3.866 -2.186 -4.6505 -2.356 -4.58 -6.0395 0 -7.331 -1.756 -4.58 -6.0615 0 -2.988 -4.5505 0 
-5.3795 -6.1925 -5.582 -6.0075 -6.808001 -6.7345 -6.912001 -6.0395 -6.6215 -8.9135 -6.534 -7.472001 -6.0615 -2.988 -6.8155 -4.5505 
-7.601501 -8.2535 -8.824 -7.78 -11.7645 -8.776 -6.912001 -7.8975 -7.9515 -11.855 -9.316 -7.472001 -8.1775 -6.8155 -6.8155 
-8.9875 -11.8521 -11.0043 -13.1161 -13.806 -8.776 -7.899001 -10.12 -11.7525 -13.549 -9.316 -8.2775 -8.346001 -6.8155 
-12.7501 -14.0324 -16.3404 -15.1576 -13.806 -9.303 -10.3885 -12.609 -10.3755 -10.3755 -10.147 -8.3555 -8.346001 
-2.988 -4.239 -3.2955 -2.356 -7.331 -1.756 -4.58 -2.8645 -3.2955 
-6.468 -6.488501 -5.0835 -9.818501 -8.9135 -6.534 -7.939501 -5.798 
-8.9595 -8.595501 -10.0555 -10.2595 -11.855 -10.5325 -11.416 
-11.3901 -14.1837 -12.594 -14.156 -16.6374 -14.3692 
-17.0463 -15.8522 -14.262 -17.0333 -19.0885 
-5.195 -7.776 -4.1805 -12.16972 -3.699 -1.7565 -4.58 -6.0395 -1.756 -4.58 -6.0615 0 -2.988 -4.5505 -3.802 -1.7695 -2.489 -4.164 -1.7695 -1.4985 -3.16 -3.8925 
-14.0948 -12.6851 -17.42542 -15.86872 -6.1875 -6.194 -6.912001 -8.4095 -6.534 -7.472001 -6.0615 -2.988 -6.8155 -8.273001 -5.625 -3.1405 -5.493 -6.532 -2.7955 -4.0625 -4.8765 
-19.0039 -25.93002 -21.12442 -18.35722 -11.6608 -8.304 -8.547001 -9.101001 -9.316 -7.472001 -8.1775 -6.8155 -10.564 -9.718 -6.516 -6.672 -7.871 -7.4965 -5.483 -6.238 
-32.24882 -29.62902 -23.61292 -23.83052 -13.7708 -9.200001 -9.101001 -9.4685 -9.316 -8.2775 -8.346001 -10.564 -12.009 -10.8132 -10.0285 -8.6945 -8.6505 -10.5846 -7.418 
-35.94782 -32.11752 -29.08622 -25.94052 -14.6668 -10.7002 -9.4685 -9.4685 -10.147 -8.3555 -13.7919 -12.009 -13.1042 -14.3257 -12.0938 -9.257501 -11.9126 -12.5196 
-3.802 -4.164 -1.4985 -5.195 -3.397 -4.0415 -4.239 0 -2.988 0 0 -4.58 -6.0395 0 -7.331 -1.756 -4.58 -6.0615 0 -2.988 -7.592 -3.5495 -1.756 -3.8925 -3.345 -1.7565 -3.277 -1.7695 -2.489 -4.4635 0 
-7.5515 -5.478 -6.479501 -7.0465 -7.5845 -5.991 -4.239 -2.988 -2.988 0 -4.58 -6.912001 -6.0395 -6.6215 -8.9135 -6.534 -7.472001 -6.0615 -2.988 -9.845501 -12.541 -5.1075 -6.3645 -7.7435 -4.3855 -4.25 -4.261 -3.1405 -6.1645 -4.4635 
-8.703001 -10.8184 -8.134501 -7.785 -7.793 -5.991 -6.259501 -2.988 -2.988 -4.58 -6.912001 -6.912001 -7.8975 -7.9515 -11.855 -9.316 -7.472001 -8.1775 -9.559 -15.2169 -15.3144 -7.9425 -10.264 -9.157001 -5.7865 -5.939001 -5.4995 -6.72 -6.1645 
-14.2292 -12.4734 -8.566001 -7.7975 -7.793 -6.8265 -6.259501 -2.988 -7.649 -6.912001 -6.912001 -7.899001 -10.12 -11.7525 -13.549 -9.316 -8.2775 -12.7869 -15.3235 -17.3995 -18.2882 -12.4726 -11.6775 -10.703 -7.224 -6.9645 -10.168 -6.72 
-15.8842 -12.9049 -8.568501 -7.7975 -8.2255 -6.8265 -6.259501 -7.649 -8.424001 -6.912001 -7.899001 -10.3885 -12.609 -10.3755 -10.3755 -10.147 -12.8096 -18.5514 -17.3995 -20.3733 -22.8183 -13.8861 -13.2235 -12.1405 -8.403001 -11.8808 -10.168 
