-4.759 
n/a 
n/a 
n/a 
n/a 
-4.759 
n/a 
n/a 
n/a 
n/a 
-4.759 
n/a 
n/a 
n/a 
n/a 
-4.759 
n/a 
n/a 
n/a 
n/a 
-3.6705 0 -12.16972 -2.4285 -3.5905 -3.5215 -2.674 -2.6165 -3.1125 -3.2955 0 
-3.6705 -12.16972 -14.59822 -6.2155 -6.4605 -6.0055 -4.447 -4.595 -5.0995 -3.2955 
-16.77642 -14.59822 -18.38522 -9.666 -9.197001 -7.969501 -5.064 -6.584001 -5.0995 
-19.20492 -18.38522 -21.83572 -12.7953 -11.162 -8.5325 -7.1095 -6.584001 
-22.99192 -21.83572 -24.96502 -14.7603 -11.725 -10.885 -7.1095 
-3.4765 -3.929 -3.1335 -2.6165 -3.2955 
-4.589 -8.073 -6.109 -5.259501 
-8.7995 -11.5545 -8.698501 
-12.4638 -14.144 
-15.0533 
-4.013 0 -9.215 0 -2.4285 0 -12.16972 0 -2.7415 -2.6165 -3.2955 0 
-4.013 -9.215 -9.215 -2.4285 -2.4285 -12.16972 -12.16972 -2.7415 -4.266 -5.259501 -3.2955 
-14.018 -9.215 -12.2369 -2.4285 -15.55642 -12.16972 -14.91122 -4.266 -6.5325 -5.259501 
-14.018 -12.2369 -12.2369 -15.55642 -15.55642 -14.91122 -16.43572 -6.5325 -6.5325 
-17.0399 -12.2369 -25.36482 -15.55642 -18.29792 -16.43572 -18.70222 -6.5325 
-3.4765 -2.925 -2.4945 -2.6165 -2.9645 0 -3.1335 0 -3.4635 -3.681 0 
-6.59 -3.7675 -3.8065 -4.853 -2.9645 -3.1335 -3.1335 -3.4635 -6.942 -3.681 
-7.467501 -4.933 -8.110001 -4.853 -6.9245 -3.1335 -6.2395 -6.942 -6.942 
-8.323001 -8.8295 -8.110001 -8.943501 -6.9245 -6.2395 -10.233 -6.942 
-12.4233 -8.8295 -12.5855 -8.943501 -10.2925 -10.233 -10.233 
