-4.759 
n/a 
n/a 
n/a 
n/a 
-4.759 
n/a 
n/a 
n/a 
n/a 
-4.759 
n/a 
n/a 
n/a 
n/a 
-4.759 
n/a 
n/a 
n/a 
n/a 
-3.1385 -3.0695 -3.013 -5.651501 -3.322 -2.3615 -3.452 -3.074 -6.067 0 
-4.286 -5.0395 -8.529501 -7.4255 -4.7685 -4.5465 -6.264 -8.679001 -6.067 
-6.0635 -10.402 -11.878 -9.937 -5.857501 -6.9125 -12.787 -8.679001 
-10.679 -12.5175 -11.793 -11.8855 -8.966001 -13.7523 -12.787 
-13.4298 -14.2828 -14.0971 -15.6916 -16.104 -13.7523 
-3.45 -3.0695 -5.292 -3.322 -2.3615 -3.452 -2.4945 -6.067 0 
-4.273 -7.3245 -7.460501 -4.7685 -4.5465 -6.1965 -7.608 -6.067 
-8.295 -9.311501 -9.031 -5.857501 -6.7735 -11.6946 -7.608 
-9.961 -10.554 -10.348 -9.054501 -12.3892 -11.6946 
-11.2963 -10.7065 -13.7456 -14.8592 -12.3892 
-4.9225 -2.4945 -4.4615 -2.7455 -2.3615 -3.452 -3.4945 -3.867 0 
-6.9525 -6.403 -6.0925 -4.1635 -4.5465 -6.901 -6.662001 -3.867 
-11.179 -7.468 -7.93 -6.0995 -7.8525 -8.762501 -6.662001 
-12.244 -9.130501 -10.1855 -9.3975 -9.421 -8.762501 
-13.9065 -11.6854 -13.4835 -11.0842 -9.421 
-3.45 -3.0695 -9.2145 -3.322 -1.4985 -3.594 -2.4945 -6.1565 
-4.273 -14.1308 -12.9297 -4.2895 -5.2345 -5.614 -7.996 
-16.4489 -17.846 -13.8972 -6.828001 -6.635 -11.7465 
-20.1641 -18.8135 -16.4357 -9.2515 -12.8581 
-21.1316 -21.352 -18.8592 -15.5258 
