-4.759 
n/a 
n/a 
n/a 
n/a 
-4.759 
n/a 
n/a 
n/a 
n/a 
-4.759 
n/a 
n/a 
n/a 
n/a 
-4.759 
n/a 
n/a 
n/a 
n/a 
-3.2615 -3.4715 -3.994 -1.934 -1.4985 -5.732 -3.3755 -3.995 -2.229 -4.1455 -2.8645 -3.9535 -1.7695 -3.7905 -3.818 -2.5195 -4.541 -3.1715 0 
-7.269501 -7.997001 -6.174 -2.6125 -6.261001 -5.8985 -8.175501 -5.324 -5.863501 -6.8365 -5.669 -5.098001 -4.482 -7.3335 -7.0425 -7.0325 -7.035501 -3.1715 
-9.515501 -9.5165 -6.7895 -7.082 -6.3015 -8.901 -9.164001 -6.186 -8.101501 -9.901001 -6.4315 -7.06 -8.332001 -10.181 -12.0529 -9.366 -7.035501 
-11.1338 -10.0625 -11.6062 -7.11 -9.642 -9.861 -10.3522 -8.305 -11.3546 -9.995501 -8.1775 -10.071 -11.1093 -15.1914 -14.3864 -9.366 
-11.6798 -14.8792 -11.6342 -10.4585 -9.884501 -11.57 -12.4712 -11.7379 -11.4491 -11.9237 -11.4245 -13.0357 -16.1197 -17.5249 -14.3864 
-1.4985 -4.6985 -2.186 -4.2875 -3.193 -2.3345 -3.193 0 -3.321 -3.4715 -2.7415 -3.8755 -1.934 -3.995 0 
-5.1995 -6.187 -6.3995 -6.616 -5.4175 -5.5015 -3.193 -3.321 -7.452 -6.009 -5.065001 -5.2035 -6.139 -3.995 
-6.395 -9.495501 -10.1945 -9.088501 -5.8765 -5.5015 -6.284 -7.452 -8.908501 -8.941501 -5.9185 -9.883 -6.139 
-9.629001 -13.5473 -12.6094 -10.598 -5.8765 -8.502001 -10.4425 -8.908501 -12.2586 -9.711 -10.6095 -9.883 
-13.727 -15.9622 -14.1189 -10.598 -8.9855 -12.7341 -11.899 -12.2586 -13.0281 -14.4966 -10.6095 
-3.034 -9.327001 -1.7695 -3.1715 -2.356 -2.3615 -3.995 -4.3195 -5.3565 -1.756 -3.818 
-13.524 -10.3225 -4.257 -6.907001 -4.2185 -5.9625 -7.917 -10.8025 -6.9375 -5.408 
-14.5195 -13.3818 -7.743501 -8.746 -8.632001 -9.690001 -14.6262 -12.3835 -11.6683 
-17.5788 -16.8683 -9.4335 -13.5425 -12.3847 -16.7484 -16.2072 -17.1143 
-21.0653 -18.5583 -14.366 -17.2952 -19.4431 -18.3294 -20.938 
-3.4715 -1.934 -4.129 -4.126 -3.0835 -3.995 -1.934 -4.105 -3.9035 -4.13 -1.934 -4.3005 0 
-5.327 -6.2175 -8.4655 -7.440001 -6.769 -5.975 -6.322 -7.506001 -8.371 -6.1455 -6.2835 -4.3005 
-10.2893 -10.238 -12.0401 -11.5521 -9.9895 -11.0516 -8.764 -12.5161 -10.7707 -11.3522 -6.2835 
-14.3098 -13.8126 -16.1522 -14.7726 -15.2207 -13.4936 -15.0451 -14.9158 -15.9774 -11.3522 
-17.8844 -17.9247 -19.3727 -20.0038 -17.6627 -19.7747 -17.4448 -20.1225 -15.9774 
