-4.759 
n/a 
n/a 
n/a 
n/a 
-4.759 
n/a 
n/a 
n/a 
n/a 
-4.759 
n/a 
n/a 
n/a 
n/a 
-4.759 
n/a 
n/a 
n/a 
n/a 
-1.4985 -3.676 -3.5505 -3.9675 -2.186 -3.486 -1.7695 -3.9885 -1.756 -4.1125 -3.5505 -3.9675 0 
-6.125 -6.965 -6.823 -5.881001 -6.475 -5.9445 -5.809 -5.572 -5.8835 -6.13 -6.823 -3.9675 
-10.513 -10.147 -8.587501 -10.389 -8.443501 -10.5975 -6.896501 -9.7825 -7.772 -8.446001 -6.823 
-13.695 -12.1001 -13.1953 -12.3575 -13.1127 -11.685 -11.3392 -12.1082 -10.4505 -8.446001 
-15.6481 -16.7079 -15.1638 -17.0267 -14.2002 -16.1277 -13.6649 -14.7867 -10.4505 
-3.9885 -1.756 -4.1125 -4.7715 -3.5505 -1.7565 -4.53 -1.7695 -3.4975 -4.672 -5.391 0 
-5.572 -5.8835 -9.359501 -9.045 -6.2725 -6.629001 -4.715 -5.6855 -8.9045 -10.3545 -5.391 
-9.7825 -10.7175 -13.7044 -11.8662 -11.8764 -7.936501 -8.637 -11.6569 -14.9004 -10.3545 
-15.0537 -15.0624 -16.5256 -17.4701 -13.1839 -12.0971 -14.783 -17.6528 -14.9004 
-19.3986 -17.8836 -22.1295 -18.7776 -17.3445 -18.2431 -20.7789 -17.6528 
-1.4985 -3.4975 -4.672 -5.4415 -2.356 -4.683 -1.756 -4.1125 -3.402 -4.139 -2.186 -2.664 -3.668 -1.7565 -3.4975 -4.9145 -2.3335 -2.186 -3.402 -2.264 -2.8965 -4.02 -3.59 -5.735 0 
-4.3125 -8.9045 -7.087001 -7.7255 -6.897 -6.5835 -5.8835 -7.9545 -8.576 -7.024001 -3.8555 -4.7495 -4.660501 -4.91 -6.6075 -7.208 -3.7085 -4.6135 -3.793 -5.068501 -6.521501 -6.9905 -9.512001 -5.735 
-9.937501 -10.035 -8.9475 -12.5237 -8.429001 -8.5535 -9.401501 -13.2245 -11.7756 -8.8295 -5.498 -5.055 -7.923501 -8.212 -8.667 -7.976501 -6.174 -4.731 -6.795 -9.259001 -8.418 -13.5041 -9.512001 
-11.1828 -11.8955 -13.7689 -14.0557 -10.2335 -12.3349 -14.7383 -16.4241 -13.5811 -10.634 -5.639 -8.6175 -11.3889 -9.915501 -9.467501 -10.322 -6.2545 -8.1285 -11.3773 -11.1241 -15.1896 -13.5041 
-13.0433 -16.7169 -15.3009 -15.8602 -14.2611 -17.6717 -17.9379 -18.2296 -15.3856 -10.775 -9.286501 -12.1705 -13.0924 -10.8446 -11.9342 -10.378 -9.285501 -12.9348 -13.2424 -17.8957 -15.1896 
-4.98 0 -3.401 0 -3.9885 -1.756 -7.014 -4.5735 -3.5505 -3.251 -3.7645 -1.934 -3.676 -4.672 -4.751 -2.0935 -2.871 -3.668 -3.6975 -3.4975 -3.5505 -3.7865 -3.769 -4.02 -3.959 -3.486 -3.681 0 
-4.98 -3.401 -3.401 -3.9885 -5.572 -8.801001 -11.9997 -7.823501 -7.3405 -9.137 -4.603 -4.7985 -9.289001 -6.7305 -6.944 -4.604 -5.67 -8.482 -7.102 -6.4545 -6.674 -8.2215 -8.569 -6.338 -8.573 -6.1325 -3.681 
-8.145 -3.401 -8.118 -5.572 -13.6052 -13.9025 -15.2497 -12.3997 -13.5919 -10.0485 -8.300501 -10.2865 -10.758 -8.920501 -9.3155 -7.5635 -10.575 -11.9721 -9.705001 -10.096 -12.6482 -13.4671 -10.4675 -10.733 -11.5949 -6.1325 
-8.145 -8.118 -10.647 -13.6052 -18.7067 -17.1525 -19.8259 -18.6511 -14.5034 -13.901 -14.1523 -11.9821 -12.948 -11.38 -12.4952 -12.3593 -14.0651 -14.5751 -13.4327 -16.604 -17.8938 -15.3656 -14.8625 -13.7549 -11.5949 
-13.1024 -10.647 -18.6802 -18.7067 -21.9567 -21.7287 -26.0773 -19.5626 -18.3559 -19.7528 -15.8479 -14.1721 -15.4075 -14.5597 -17.291 -15.8494 -16.6681 -18.3028 -19.9407 -21.8496 -19.7923 -19.7606 -17.8844 -13.7549 
