-4.759 
n/a 
n/a 
n/a 
n/a 
-4.759 
n/a 
n/a 
n/a 
n/a 
-4.759 
n/a 
n/a 
n/a 
n/a 
-4.759 
n/a 
n/a 
n/a 
n/a 
-3.13 0 -3.4405 -2.6165 -4.9395 -1.7695 -2.9995 -4.2655 
-3.13 -3.4405 -3.7415 -6.0595 -5.127501 -4.358 -6.728 
-7.428 -3.7415 -6.3685 -6.2265 -6.713 -7.867 
-8.0115 -6.3685 -6.5195 -6.9375 -8.657001 
-10.2695 -6.5195 -7.123001 -9.101501 
-3.13 0 -1.7565 -4.02 -2.674 -4.4635 -1.934 -1.4985 -4.0305 -2.3335 -2.7295 -2.4945 -2.6165 -4.0225 -3.325 -2.9995 -4.2655 0 
-3.13 -1.7565 -5.4345 -6.7955 -5.6675 -6.092 -2.6125 -5.056 -6.3595 -4.056 -3.7725 -3.8065 -6.1855 -6.703 -5.4565 -6.728 -4.2655 
-5.637 -5.4345 -8.5965 -10.0675 -6.9315 -6.997 -6.072001 -7.305 -8.030001 -5.0485 -5.0715 -7.167 -8.908501 -9.1675 -9.7155 -6.728 
-9.491501 -8.5965 -11.9619 -11.8829 -8.544001 -10.5425 -7.9235 -8.713 -9.057501 -6.145 -8.503 -9.943001 -10.0075 -13.7535 -9.7155 
-12.7457 -11.9619 -13.7773 -13.4954 -12.2989 -12.394 -9.5745 -10.04 -10.686 -9.5815 -11.547 -11.0014 -14.7705 -13.7535 
-2.925 -4.4615 -3.13 0 -1.7565 -3.1385 -2.6165 -5.2115 -1.7695 -2.9995 -4.2655 
-9.588 -9.32 -3.13 -1.7565 -4.388 -5.7965 -7.067 -5.282 -4.358 -6.728 
-14.3641 -9.32 -5.637 -4.388 -6.962 -9.225 -7.141 -7.3285 -7.867 
-14.3641 -10.477 -8.4445 -6.962 -10.2085 -9.254001 -8.29 -9.389001 
-15.5211 -13.2845 -11.4463 -10.2085 -10.246 -10.3355 -10.13 
-3.13 0 -1.7565 -3.1385 -3.4405 -2.6165 -5.0075 -1.7695 -2.9995 -4.2655 0 
-3.13 -1.7565 -4.388 -6.906 -3.7415 -8.476001 -5.113 -4.358 -6.728 -4.2655 
-5.637 -4.388 -8.092001 -7.284 -9.085 -8.546 -7.97 -7.867 -6.728 
-8.4445 -8.092001 -8.534501 -13.0729 -9.123 -9.629001 -9.992001 -7.867 
-12.5763 -8.534501 -14.2276 -13.1109 -10.048 -11.751 -9.992001 
