-4.759 
n/a 
n/a 
n/a 
n/a 
-4.759 
n/a 
n/a 
n/a 
n/a 
-4.759 
n/a 
n/a 
n/a 
n/a 
-4.759 
n/a 
n/a 
n/a 
n/a 
-3.5025 -1.934 -5.1845 -4.8395 -3.473 -4.0385 0 
-5.7415 -6.564 -11.3184 -8.552501 -9.334 -4.0385 
-10.4855 -13.3101 -15.0314 -14.8663 -9.334 
-17.2316 -17.0231 -21.3452 -14.8663 
-20.9446 -23.3369 -21.3452 
-1.934 -3.4605 -2.3085 -3.275 -8.7285 -8.616501 -3.522 0 
-6.186 -5.7865 -5.908 -12.6719 -17.863 -13.3111 -3.522 
-9.108001 -9.227001 -16.1985 -21.8064 -22.5576 -13.3111 
-12.7013 -19.6911 -25.333 -26.501 -22.5576 
-23.1654 -28.8256 -30.0276 -26.501 
-2.3085 -2.674 -3.881 -1.934 -1.4985 -3.308 -4.154 -1.4985 -5.1845 -5.2285 
-3.6555 -5.5815 -5.05 -2.6125 -4.846 -7.674 -4.6685 -6.5205 -11.7074 
-6.0815 -7.085 -5.829 -6.3745 -9.015 -8.243501 -9.9805 -13.7588 
-7.581 -7.735 -8.874001 -9.846001 -9.4505 -13.6901 -17.2188 
-8.082001 -9.823 -12.8483 -10.378 -15.0717 -20.9284 
0 -8.7285 -8.616501 0 -2.8645 -3.881 -1.934 -3.16 
-8.7285 -17.863 -8.616501 -2.8645 -5.4695 -5.05 -5.4145 
-17.863 -17.863 -12.6536 -5.4695 -7.369 -9.024 
-17.863 -21.9001 -15.2586 -7.369 -11.8788 
-21.9001 -24.5051 -17.1581 -11.8788 
