-4.759 
n/a 
n/a 
n/a 
n/a 
-4.759 
n/a 
n/a 
n/a 
n/a 
-4.759 
n/a 
n/a 
n/a 
n/a 
-4.759 
n/a 
n/a 
n/a 
n/a 
-2.3615 -4.201 -6.562 -3.995 -2.186 0 -12.16972 
-6.607 -9.533501 -10.389 -5.7465 -2.186 -12.16972 
-12.4995 -13.6771 -12.4027 -5.7465 -15.56612 
-16.6431 -15.6908 -12.4027 -19.62442 
-18.6568 -15.6908 -26.28062 
0 -7.448 0 -2.3615 -2.186 -3.932 -1.7695 -3.979 -3.995 -2.229 -4.8685 0 -4.347 -6.266 -6.142 0 
-7.448 -7.448 -2.3615 -3.5005 -5.4855 -4.4665 -5.528 -8.523001 -5.324 -7.4095 -4.8685 -4.347 -9.094 -11.152 -5.1775 
-7.448 -10.019 -3.5005 -6.919 -5.9925 -7.9095 -9.85 -8.8405 -8.255501 -7.4095 -8.8135 -7.4545 -12.9955 -11.1155 
-10.019 -10.7225 -6.919 -7.304 -9.863001 -12.6479 -9.877 -12.7738 -8.255501 -10.757 -12.0946 -13.3207 -13.3207 
-10.7225 -14.141 -7.304 -11.4099 -14.8874 -12.6749 -13.9489 -12.7738 -11.8326 -14.0381 -17.9608 -13.3207 
0 -5.25 -3.976 0 -2.3615 -2.186 -3.995 -4.8685 0 -3.784 -11.7695 
-5.25 -8.410001 -3.976 -2.3615 -3.5005 -6.5515 -7.97 -4.8685 -3.784 -17.0885 
-8.410001 -8.410001 -6.628 -3.5005 -8.256001 -10.4115 -7.97 -9.0845 -17.8175 
-8.410001 -11.2878 -7.318501 -8.256001 -11.9756 -10.4115 -12.5344 -23.2766 
-11.2878 -11.9783 -12.3888 -11.9756 -11.9756 -14.9759 -26.7265 
0 -3.976 -6.04 0 -2.3615 -2.186 -3.995 -2.229 0 -4.347 -7.097001 -4.323 
-3.976 -9.981 -6.04 -2.3615 -3.5005 -6.5515 -5.324 -2.229 -4.347 -10.101 -9.4215 
-9.981 -9.981 -8.434501 -3.5005 -8.256001 -7.939 -5.324 -7.009 -8.715 -11.2385 
-9.981 -12.4087 -9.347 -8.256001 -9.408001 -7.939 -10.316 -11.6991 -11.5467 
-12.4087 -13.3212 -14.1593 -9.408001 -9.408001 -13.166 -15.0061 -14.5308 
