-4.759 
n/a 
n/a 
n/a 
n/a 
-4.759 
n/a 
n/a 
n/a 
n/a 
-4.759 
n/a 
n/a 
n/a 
n/a 
-4.759 
n/a 
n/a 
n/a 
n/a 
-3.321 -2.3335 -4.168 -5.872 -3.959 0 
-5.384 -6.4825 -9.540501 -8.635 -3.959 
-10.6875 -12.1826 -12.4839 -8.635 
-16.3876 -15.126 -12.4839 
-19.331 -15.126 
-3.882 -2.4265 -4.425 -2.664 -5.282 -1.7565 -5.148 -3.959 0 
-5.945001 -5.2995 -5.9135 -6.416 -6.627 -6.344 -7.1695 -3.959 
-8.368 -6.8825 -8.515 -7.134 -9.844501 -8.329 -7.1695 
-10.054 -10.2635 -8.7165 -10.292 -11.8757 -8.329 
-13.435 -10.465 -12.4429 -12.3232 -11.8757 
-3.321 -2.4265 -3.2015 -1.4985 -5.149 -3.959 0 
-4.872 -5.732 -4.57 -6.161 -8.354 -3.959 
-10.031 -7.5895 -8.656501 -9.989 -8.354 
-11.8885 -11.913 -12.9789 -9.989 
-16.212 -16.2354 -12.9789 
-3.321 -2.4265 -4.168 
-4.872 -6.9335 
-9.986 
n/a 
n/a 
