-4.759 
n/a 
n/a 
n/a 
n/a 
-4.759 
n/a 
n/a 
n/a 
n/a 
-4.759 
n/a 
n/a 
n/a 
n/a 
-4.759 
n/a 
n/a 
n/a 
n/a 
-4.6525 -4.0375 -2.186 -4.1205 -1.7695 -2.489 -1.4985 -4.86 -1.7565 -1.4985 -3.7205 -3.0695 -2.8645 -3.1125 -3.951 -3.091 -4.043 -3.308 -3.4025 -3.5065 -4.1045 0 
-7.513 -6.076 -5.007 -5.1155 -3.1405 -3.9675 -5.9835 -6.369 -2.4195 -5.829 -6.863501 -4.5495 -3.5345 -6.1895 -6.6645 -6.3795 -7.432 -5.031 -5.2575 -5.956 -4.1045 
-9.5835 -8.9335 -5.68 -5.2255 -4.568 -8.2115 -7.0065 -7.0055 -6.594501 -8.801001 -9.331501 -5.3815 -6.6455 -8.433001 -9.826 -10.389 -9.269501 -8.649 -10.674 -5.956 
-12.5698 -9.6385 -5.763 -6.1065 -8.4315 -8.817 -7.5515 -11.6529 -9.690001 -10.9256 -10.7345 -7.797 -8.564 -10.064 -14.3073 -12.2265 -13.2185 -14.7819 -10.674 
-13.2748 -9.696501 -6.563 -9.359 -8.937 -9.418501 -12.4607 -14.7484 -11.8294 -12.3286 -13.15 -10.2375 -10.0645 -15.2913 -16.1448 -16.1755 -19.3514 -14.7819 
-4.6525 -4.0375 -3.0695 -2.186 -3.3425 -1.4985 -3.672 -3.308 -3.5065 -4.1045 -2.186 -4.1205 -2.5045 -2.871 -1.7565 -1.4985 -5.449 -1.7565 -1.4985 -3.308 0 
-7.513 -7.058001 -4.2675 -5.2235 -4.0125 -4.936 -7.486 -7.086 -5.956 -6.927001 -5.007 -5.3175 -4.7085 -3.5385 -2.4195 -6.2095 -6.28 -2.4195 -4.846 -3.308 
-9.6055 -8.119 -6.671 -6.0635 -7.307 -9.015501 -10.7495 -10.0747 -8.207001 -9.348001 -6.317 -6.802 -4.9525 -3.7675 -6.6235 -6.7095 -6.771501 -6.2025 -4.846 
-10.8893 -10.6931 -7.4775 -9.478001 -12.0227 -12.54 -13.7382 -12.3257 -10.7414 -10.565 -7.384 -7.0365 -5.1005 -6.863 -7.023 -7.309 -11.2547 -6.2025 
-13.4634 -11.4996 -10.7495 -14.1475 -15.5472 -15.5287 -15.9892 -14.8601 -11.9584 -11.632 -7.486001 -7.093 -7.798501 -7.081 -7.578 -11.8572 -11.2547 
-1.934 -4.1045 0 -4.6525 -4.0375 -2.186 -3.0835 -3.6385 -2.9705 -2.186 -3.2955 -4.2115 
-5.346 -4.1045 -4.6525 -7.513 -6.076 -5.597 -6.440001 -6.6175 -3.89 -4.348001 -8.173 
-5.346 -8.9055 -7.513 -9.5835 -9.396501 -9.384501 -9.559 -7.3075 -5.7615 -10.0539 
-10.096 -10.304 -9.5835 -13.0328 -13.497 -12.6567 -10.1165 -10.151 -12.4608 
-11.4945 -12.5795 -13.0328 -17.1333 -16.7692 -13.2142 -13.2224 -16.8503 
-1.934 -4.1045 -4.6525 -4.0375 -2.9805 -2.186 -1.4985 -3.668 -1.7565 -5.487 
-5.346 -8.9055 -7.513 -6.986501 -4.1635 -3.339 -5.2425 -4.660501 -7.165 
-10.096 -10.304 -10.5435 -8.259501 -5.312 -7.1665 -5.9085 -10.5924 
-11.4945 -13.5395 -11.8165 -9.2145 -9.113001 -7.6605 -11.8146 
-14.73 -14.8125 -12.7715 -13.2101 -9.508 -13.774 
