-4.759 
n/a 
n/a 
n/a 
n/a 
-4.759 
n/a 
n/a 
n/a 
n/a 
-4.759 
n/a 
n/a 
n/a 
n/a 
-4.759 
n/a 
n/a 
n/a 
n/a 
-4.219 -3.2645 -2.489 -4.4655 -3.819 -1.934 -3.6055 -3.8445 -3.277 0 
-7.245001 -3.7195 -5.38 -7.619 -5.237 -4.8595 -6.1055 -4.7735 -3.277 
-7.634001 -6.436 -8.1285 -8.885501 -7.1705 -7.4985 -6.4385 -4.7735 
-9.529501 -9.151501 -9.487 -9.734 -8.583501 -8.623 -6.4385 
-12.238 -10.3285 -10.4285 -10.5665 -8.756001 -8.623 
-4.219 -3.2645 -2.489 -4.4655 -1.934 -1.8085 -4.5075 -1.7565 -4.144 -3.8445 -3.277 
-7.245001 -3.7195 -5.38 -5.350501 -3.2685 -6.283501 -5.123 -6.1885 -7.4425 -4.7735 
-7.634001 -6.436 -6.087 -6.4315 -8.4875 -6.685501 -9.264001 -9.3395 -7.9385 
-9.529501 -7.198 -6.95 -12.3473 -9.083501 -9.753501 -10.7585 -9.735001 
-10.4525 -7.8945 -13.1968 -12.9433 -12.2399 -11.4014 -11.154 
-4.219 -3.3875 -2.489 -3.8535 -3.6055 -2.5645 -7.883 
-7.151 -3.7975 -4.6325 -6.854 -6.0915 -9.2565 
-7.3415 -5.927 -7.415501 -8.766001 -13.9397 
-10.0675 -8.448 -9.082001 -17.1708 
-12.6453 -10.1265 -17.6232 
-3.6055 -4.219 -3.8405 -2.186 -4.144 -3.8445 -3.277 0 
-6.977 -6.892 -5.629 -7.0865 -7.4425 -4.7735 -3.277 
-9.755501 -8.4785 -9.9865 -10.259 -7.9385 -4.7735 
-11.4116 -13.1194 -13.159 -10.755 -7.9385 
-16.0525 -16.2919 -13.655 -10.755 
