-4.759 
n/a 
n/a 
n/a 
n/a 
-4.759 
n/a 
n/a 
n/a 
n/a 
-4.759 
n/a 
n/a 
n/a 
n/a 
-4.759 
n/a 
n/a 
n/a 
n/a 
-5.3885 -4.6915 -2.8645 -4.7925 -3.222 -3.54 -4.7945 
-8.500501 -8.3695 -7.012 -5.2095 -5.6115 -7.505 
-13.3869 -12.5276 -8.521 -6.088 -9.737 
-17.545 -14.0366 -9.585501 -10.27 
-19.054 -15.1011 -13.8041 
-5.3885 -4.7885 -5.592 -2.186 -4.7925 -3.222 -3.54 -4.029 
-9.776001 -10.75 -7.7205 -5.544001 -5.2095 -5.6115 -5.9835 
-16.8399 -12.8785 -10.329 -5.673501 -6.088 -9.4285 
-18.9684 -15.487 -10.4 -6.528501 -10.238 
-21.5769 -15.558 -11.255 -10.8407 
-5.3885 -5.104 -2.186 -4.7925 -1.934 -3.54 -4.7945 0 
-8.887501 -8.0815 -5.544001 -6.33 -5.0325 -7.505 -4.7945 
-12.6828 -11.6975 -6.954 -7.4855 -10.1425 -7.505 
-16.2988 -13.1075 -7.957001 -13.2989 -10.1425 
-17.7088 -14.1105 -13.9012 -13.2989 
-5.3885 -5.104 -2.186 -5.412 -4.7925 -3.222 -2.461 -3.6185 0 
-8.887501 -8.0815 -6.654 -7.569 -5.2095 -6.3125 -5.504001 -3.6185 
-12.6828 -12.8075 -8.397 -7.608 -7.0655 -9.1995 -5.504001 
-17.4088 -14.5505 -8.443001 -9.664001 -10.078 -9.1995 
-19.1518 -14.5965 -10.4855 -12.8293 -10.078 
