-4.759 
n/a 
n/a 
n/a 
n/a 
-4.759 
n/a 
n/a 
n/a 
n/a 
-4.759 
n/a 
n/a 
n/a 
n/a 
-4.759 
n/a 
n/a 
n/a 
n/a 
-2.5045 -3.543 -10.9605 -4.1935 0 -1.8085 -4.0535 -3.5965 -2.7765 -3.013 -2.9995 -4.106 -3.8755 -2.3345 -3.571 -3.5965 0 -1.934 -2.8965 -3.9355 -2.4265 -2.7765 -4.304 -2.5195 -4.065 -1.7695 -4.4005 -3.319 0 
-5.323 -16.5018 -16.7162 -4.1935 -1.8085 -5.2245 -7.653501 -6.2995 -4.479 -5.3135 -6.841001 -7.364 -4.4955 -5.384 -6.235 -3.5965 -1.934 -4.391 -4.9455 -5.9535 -4.346 -5.496 -7.114501 -6.7665 -6.376 -6.8125 -7.922501 -3.319 
-19.402 -21.6599 -16.7162 -6.3605 -5.2245 -8.0815 -9.885 -7.776 -7.0915 -8.630501 -10.0815 -7.456501 -7.613 -7.89 -6.235 -5.7545 -4.391 -4.962 -6.184 -7.695001 -6.757501 -8.3765 -11.7637 -7.6465 -8.589001 -10.8381 -7.922501 
-24.3699 -21.6599 -18.8832 -10.19 -8.0815 -9.948 -10.5785 -10.5225 -9.619 -12.0584 -10.174 -10.717 -10.5225 -7.89 -7.897 -8.2145 -4.962 -6.191 -7.9075 -10.328 -9.5775 -13.2585 -12.6437 -8.7345 -12.8812 -10.8381 
-24.3699 -23.8269 -22.7127 -13.047 -9.948 -10.602 -13.325 -13.05 -13.0679 -12.1509 -13.4345 -13.6265 -10.5225 -9.940001 -9.85 -8.384501 -6.191 -7.9125 -10.485 -13.148 -14.7103 -14.1385 -13.7317 -13.0907 -12.8812 
-3.9345 -1.7695 -12.006 -3.5035 0 -1.8085 -3.5965 -9.3865 -4.0005 -3.893 -1.7565 -4.264 0 -1.934 -2.8965 -3.9355 -1.4985 -4.028 -2.9705 -2.7765 -4.305 -3.6605 -8.0495 0 -2.186 -5.325 -1.7695 -4.5785 -1.7565 -4.433 -2.8965 -3.5965 0 -4.275 0 -2.5195 -1.8085 -3.5935 -3.5965 -1.7695 -4.0385 -3.5965 
-3.94 -14.987 -15.739 -3.5035 -1.8085 -4.795 -14.3574 -13.6596 -5.833 -4.1785 -5.684 -4.264 -1.934 -4.391 -4.9455 -5.3885 -5.08 -6.376 -4.677 -5.814 -8.050501 -13.142 -8.0495 -2.186 -6.193 -5.728 -7.327001 -5.4415 -5.836 -7.0555 -6.135 -3.5965 -4.275 -4.275 -2.5195 -3.8815 -4.887 -5.6385 -5.0345 -6.317 -7.0885 
-17.6956 -18.3216 -15.739 -5.801001 -4.795 -16.1875 -18.6305 -15.4921 -5.9085 -8.7765 -5.684 -5.762001 -4.391 -4.962 -5.726 -9.111 -7.2445 -7.759501 -7.73 -9.342501 -17.9868 -13.142 -9.920501 -6.193 -6.221 -10.733 -8.6365 -10.2185 -8.821 -10.389 -6.135 -8.266001 -4.275 -7.1915 -3.8815 -6.7785 -6.352 -7.247 -10.6215 -9.447001 
-21.147 -18.3216 -18.9825 -9.465501 -16.1875 -20.4606 -20.463 -15.5676 -9.538501 -8.7765 -6.9915 -8.220501 -4.962 -5.7295 -9.2345 -11.4097 -8.954 -9.937501 -11.3919 -19.4972 -17.9868 -15.013 -14.0739 -6.221 -11.495 -12.0425 -13.7243 -13.2035 -12.3839 -10.389 -10.4035 -8.266001 -7.1915 -8.5205 -6.7785 -7.843 -7.864 -13.6806 -13.7515 
-21.147 -21.5651 -22.647 -20.9772 -20.4606 -22.2931 -20.5385 -19.1976 -9.538501 -10.004 -9.283501 -8.5305 -5.7295 -9.236501 -11.5788 -13.1192 -11.3122 -13.6676 -21.5466 -19.4972 -19.8578 -19.1664 -14.1019 -11.495 -12.8045 -17.1303 -16.7093 -16.7664 -12.3839 -14.6575 -10.4035 -11.4759 -8.5205 -11.6543 -7.843 -8.923 -14.4874 -16.8106 
-1.934 -3.333 -1.7695 -3.2345 -1.4985 -3.6005 -3.777 -1.934 -1.4985 -3.127 -3.135 -4.8695 -2.915 -1.7695 -2.489 -3.7855 -1.7695 -1.4985 -3.2 -2.3335 -3.2645 -2.489 -1.934 -1.4985 -3.519 -1.7565 -3.598 -5.036 -2.228 -1.756 -4.1055 -3.333 -1.7695 -3.2345 -1.4985 -3.6005 -3.777 -1.934 -1.4985 -3.127 -3.135 -4.8695 -2.915 -1.7695 -2.489 -3.7855 -1.7695 -1.4985 -3.2 -2.3335 -3.2645 -2.489 -1.934 -1.4985 -3.519 -1.7565 -3.598 -5.036 -2.228 -1.756 -2.1715 0 
-3.9835 -4.022 -3.713 -4.328 -4.9615 -7.752 -4.5805 -2.6125 -4.269 -6.8155 -8.028501 -7.395 -4.548 -3.1405 -4.789001 -4.793 -2.7955 -4.259 -4.957 -4.997 -3.7195 -4.348 -2.6125 -4.4155 -4.4175 -5.209 -8.23 -6.459 -4.89 -7.2505 -6.7225 -4.022 -3.713 -4.328 -4.9615 -7.752 -4.5805 -2.6125 -4.269 -6.8155 -8.028501 -7.395 -4.548 -3.1405 -4.789001 -4.793 -2.7955 -4.259 -4.957 -4.997 -3.7195 -4.348 -2.6125 -4.4155 -4.4175 -5.209 -8.23 -6.459 -4.89 -4.749 -2.1715 
-4.0425 -5.5905 -4.717 -7.085001 -7.891 -9.2445 -5.495 -5.548 -7.862 -12.0652 -10.6714 -8.603001 -5.77 -5.6465 -5.3715 -5.356501 -5.609 -6.179501 -7.0365 -5.3065 -5.5955 -4.967 -4.8345 -4.839 -7.522501 -10.509 -11.189 -8.849501 -8.123001 -8.657001 -6.6325 -5.5905 -4.717 -7.085001 -7.891 -9.2445 -5.495 -5.548 -7.862 -12.0652 -10.6714 -8.603001 -5.77 -5.6465 -5.3715 -5.356501 -5.609 -6.179501 -7.0365 -5.3065 -5.5955 -4.967 -4.8345 -4.839 -7.522501 -10.509 -11.189 -8.849501 -6.1155 -4.749 
-5.5995 -6.3195 -7.323 -10.7035 -9.43 -9.981501 -8.5865 -8.8655 -13.2729 -14.7081 -11.8794 -9.1045 -7.630001 -6.2075 -5.9095 -8.402 -7.41 -7.139501 -7.1005 -7.002501 -6.1465 -6.2475 -4.9455 -7.9325 -12.9005 -12.6646 -13.4416 -12.1365 -10.3295 -9.1875 -8.172501 -6.3195 -7.323 -10.7035 -9.43 -9.981501 -8.5865 -8.8655 -13.2729 -14.7081 -11.8794 -9.1045 -7.630001 -6.2075 -5.9095 -8.402 -7.41 -7.139501 -7.1005 -7.002501 -6.1465 -6.2475 -4.9455 -7.9325 -12.9005 -12.6646 -13.4416 -10.3115 -6.1155 
-6.325 -9.142 -11.0423 -12.2425 -10.093 -13.073 -12.2416 -14.35 -15.9158 -15.9161 -12.3809 -9.3505 -7.942 -6.6385 -9.1355 -10.13 -9.7915 -7.147 -9.665501 -7.548 -7.482 -6.3225 -7.9605 -13.6189 -15.3321 -14.8436 -15.7791 -12.4435 -9.4575 -10.857 -8.993001 -9.142 -11.0423 -12.2425 -10.093 -13.073 -12.2416 -14.35 -15.9158 -15.9161 -12.3809 -9.3505 -7.942 -6.6385 -9.1355 -10.13 -9.7915 -7.147 -9.665501 -7.548 -7.482 -6.3225 -7.9605 -13.6189 -15.3321 -14.8436 -14.1391 -9.346001 
-2.911 -1.4985 -4.31 -3.644 -4.126 -1.7695 -3.5965 -4.385 -1.7565 -4.7715 0 
-4.546 -5.318 -8.393001 -7.780001 -5.987 -5.6105 -8.7545 -4.933 -7.3925 -4.7715 
-9.578501 -10.1465 -12.8832 -9.687 -10.4675 -11.4027 -9.586 -11.5334 -7.3925 
-14.4684 -14.6367 -14.7902 -14.5243 -16.2597 -12.2342 -16.5816 -11.5334 
-18.9586 -16.5437 -19.6275 -20.3165 -17.0912 -19.2298 -16.5816 
