-4.759 
n/a 
n/a 
n/a 
n/a 
-4.759 
n/a 
n/a 
n/a 
n/a 
-4.759 
n/a 
n/a 
n/a 
n/a 
-4.759 
n/a 
n/a 
n/a 
n/a 
-3.321 -2.9805 -3.8755 -2.3335 -4.0905 -3.515 -2.7415 -3.8755 -2.5045 -3.5585 -4.651 -3.849 -12.16972 -8.34 -1.934 -6.557 0 
-5.175 -6.089001 -6.451 -6.750501 -6.814501 -5.7705 -5.065001 -5.988501 -6.148 -8.942 -8.5825 -16.17932 -20.50972 -10.2595 -7.536 -6.557 
-8.384001 -8.303501 -11.1472 -10.1425 -9.3655 -8.013 -6.633 -9.745501 -12.0179 -13.1967 -21.12242 -24.51932 -22.42922 -15.8615 -7.536 
-10.8209 -13.0823 -14.5392 -12.6935 -11.612 -9.585 -11.128 -15.6154 -16.2726 -25.73662 -29.46242 -26.43882 -28.03122 -15.8615 
-15.5997 -16.4743 -17.0902 -14.94 -13.184 -14.1496 -16.9979 -19.8701 -28.81252 -34.07662 -31.38192 -32.04082 -28.03122 
-3.882 -2.356 -2.3335 -4.0905 -2.9805 -4.673 -1.8085 -3.693 -4.5675 -3.849 -5.1845 -5.74 -5.1845 -9.503 -8.34 0 
-6.104 -4.7045 -6.750501 -6.898001 -6.22 -6.5125 -4.8625 -7.686501 -7.422 -8.881001 -5.7465 -7.8715 -10.586 -11.0145 -8.34 
-8.272 -9.147 -9.820001 -10.1 -7.4655 -9.1415 -8.699 -10.004 -12.5568 -9.796 -7.8865 -14.2412 -12.0975 -11.0145 
-13.1775 -12.5137 -13.2474 -11.4241 -10.067 -13.3358 -10.3475 -15.1388 -13.4718 -12.0144 -14.4434 -15.7527 -12.0975 
-16.5442 -15.9411 -14.5715 -14.0256 -14.2613 -14.9843 -15.4823 -16.0538 -15.6902 -18.5713 -15.9549 -15.7527 
-2.3335 -3.809 -4.0375 -3.515 -2.7415 -4.281 -2.5045 -6.557 -3.693 -4.5675 0 
-6.005 -8.326 -7.3745 -5.7705 -5.383 -5.893 -9.9385 -10.9394 -7.686501 -4.5675 
-10.7175 -12.1844 -9.779 -7.9045 -6.785501 -13.6878 -14.3209 -14.9329 -7.686501 
-14.5759 -14.5889 -11.913 -9.465 -15.0743 -18.0702 -18.3144 -14.9329 
-16.9804 -16.7229 -13.4735 -17.8256 -19.4567 -22.0637 -18.3144 
-2.3335 -4.7405 -3.515 -3.2615 -3.693 -3.515 -1.934 -6.557 0 
-6.9475 -8.1145 -6.53 -7.56 -7.097 -5.256 -7.536 -6.557 
-10.4425 -11.6037 -11.3483 -11.3784 -8.797501 -10.6215 -7.536 
-14.3795 -16.422 -15.1667 -13.0789 -14.3746 -10.6215 
-19.1978 -20.2404 -16.8672 -18.656 -14.3746 
