-4.759 
n/a 
n/a 
n/a 
n/a 
-4.759 
n/a 
n/a 
n/a 
n/a 
-4.759 
n/a 
n/a 
n/a 
n/a 
-4.759 
n/a 
n/a 
n/a 
n/a 
-1.934 -3.531 -3.06 0 -4.704 -4.9225 -4.424 -3.034 -4.6295 -1.934 -1.8085 -5.387 -3.4425 -1.934 -9.8535 -5.994 -4.677 -1.934 -5.7125 0 
-5.012 -5.045 -3.06 -4.704 -10.5975 -9.2955 -6.3945 -7.176001 -5.492001 -3.2685 -6.301001 -7.8035 -5.188 -11.136 -15.9217 -7.763501 -6.2735 -6.7325 -5.7125 
-7.874001 -5.045 -7.529 -10.5975 -14.9705 -11.3948 -10.0155 -7.855 -6.245501 -6.668 -8.0165 -9.1915 -14.884 -17.2042 -17.6912 -8.729001 -9.569 -6.7325 
-7.874001 -10.7968 -13.6647 -14.9705 -17.0698 -15.0158 -10.218 -8.393001 -10.411 -8.195001 -9.485001 -18.9767 -20.9522 -18.9737 -18.6567 -12.5737 -9.569 
-13.8834 -16.9325 -18.0377 -17.0698 -20.6908 -15.2183 -10.673 -12.8187 -11.938 -9.690001 -19.2782 -25.0449 -22.7217 -19.9392 -22.5014 -12.5737 
-3.531 0 -3.06 0 -4.704 -5.088 -2.4945 -4.424 -1.934 -1.8085 -10.076 -5.994 -4.147 -4.677 -1.934 -5.7125 -3.851 -1.7695 -2.645 -4.6995 
-3.531 -3.06 -3.06 -4.704 -10.0545 -8.0065 -8.615 -5.195 -3.2685 -12.3829 -16.07 -10.233 -8.165501 -6.2735 -6.7325 -9.564501 -4.0015 -4.8565 -7.684501 
-5.045 -3.06 -7.529 -10.0545 -12.973 -14.2908 -9.308001 -6.338 -14.8169 -18.3769 -20.309 -14.3989 -9.441001 -9.569 -10.0475 -9.594 -6.9695 -10.3155 
-5.045 -7.529 -13.1217 -12.973 -19.2573 -14.9838 -10.362 -18.8242 -20.8109 -22.6159 -24.4749 -15.6744 -12.9377 -13.0818 -10.0905 -12.6638 -12.6081 
-10.7968 -13.1217 -16.0402 -19.2573 -19.9503 -16.0378 -23.444 -24.8182 -25.0499 -26.7818 -25.7504 -19.1711 -16.4505 -13.1248 -13.1603 -18.3024 
-3.531 -3.06 0 -3.2295 -4.704 -3.1385 -3.152 -4.493 -1.934 -1.8085 -5.893 -1.934 -10.076 -5.994 -4.677 -1.934 -5.7125 0 
-5.045 -3.06 -3.2295 -8.224501 -7.9105 -5.219 -5.593 -5.1865 -3.2685 -7.127 -7.775 -13.0164 -16.07 -7.763501 -6.2735 -6.7325 -5.7125 
-5.045 -6.8815 -8.224501 -11.82 -9.623 -6.315001 -6.176001 -6.1955 -8.093 -8.5915 -19.198 -19.0104 -17.8395 -8.729001 -9.569 -6.7325 
-9.494 -10.513 -11.82 -13.5325 -10.496 -6.896501 -6.913001 -8.8345 -9.2665 -20.3533 -25.192 -20.7799 -18.805 -12.5737 -9.569 
-13.2883 -14.6651 -13.5325 -14.4055 -11.0775 -7.767001 -9.086 -9.842 -21.0643 -26.3473 -26.9615 -21.7454 -22.6497 -12.5737 
-3.531 -7.764 -4.9225 -4.493 -1.934 -5.7125 -4.677 -4.6485 
-9.514001 -13.4225 -9.554001 -5.1865 -6.7325 -8.969 -9.472 
-16.9325 -18.2962 -10.2105 -10.044 -10.5225 -14.6502 
-21.564 -18.9527 -15.2164 -13.834 -16.2037 
-22.2205 -23.9586 -19.0064 -19.5152 
