-4.759 
n/a 
n/a 
n/a 
n/a 
-4.759 
n/a 
n/a 
n/a 
n/a 
-4.759 
n/a 
n/a 
n/a 
n/a 
-4.759 
n/a 
n/a 
n/a 
n/a 
-2.8965 -4.103 0 -2.9705 -3.8125 -1.7695 -4.4035 -4.0995 -3.914 -3.7555 -4.789 -2.4285 -4.3465 -4.789 -2.5195 -4.278 0 
-6.264501 -4.103 -2.9705 -6.042 -5.4535 -4.8505 -9.361 -7.9325 -8.675 -8.279 -6.8095 -7.163001 -8.575001 -6.0575 -5.3 -4.278 
-6.264501 -6.562 -6.042 -7.1845 -8.561001 -9.663 -13.5088 -13.2849 -13.4063 -11.0975 -12.4426 -11.6337 -10.7713 -10.199 -5.3 
-8.558001 -9.9835 -7.1845 -9.741501 -13.8929 -13.8972 -18.8612 -18.0162 -16.2248 -16.7306 -16.9133 -13.83 -14.9128 -10.199 
-12.2501 -11.3146 -9.741501 -15.7724 -18.1271 -19.2496 -23.5925 -20.8347 -21.8579 -21.2013 -19.1096 -17.9715 -14.9128 
-2.8965 -4.2115 -2.9705 -4.3035 -1.7695 -4.052 -1.4985 -3.914 -3.918 -1.7565 -3.1385 -2.742 -3.0465 -3.2015 -1.756 -3.0785 -2.5195 -4.278 0 
-5.571 -6.532001 -7.42 -4.6755 -4.393 -4.752 -5.0465 -5.014501 -5.2315 -4.388 -5.1415 -4.8155 -5.907001 -4.741 -4.899 -5.338 -5.3 -4.278 
-7.437 -11.8313 -7.541 -7.479001 -4.9985 -7.508 -6.071 -6.817501 -7.948 -6.506001 -6.884501 -8.1595 -7.056 -6.6295 -7.1455 -9.01 -5.3 
-13.4265 -11.9523 -10.1425 -8.0015 -7.7205 -8.273 -7.2885 -9.738501 -10.586 -8.207001 -10.3885 -9.368 -8.8335 -8.202001 -11.0975 -9.01 
-13.5475 -14.5538 -10.4105 -10.7379 -8.601001 -9.0065 -10.0955 -12.3155 -12.287 -11.925 -11.597 -10.675 -9.439 -12.4178 -11.0975 
-1.7695 -4.5305 -1.4985 -3.914 -1.7565 -6.732501 -1.756 -3.6845 -1.4985 -3.571 -3.432 -3.8125 -2.0935 -4.278 0 
-5.015 -5.548501 -5.0465 -4.677 -8.604 -8.030001 -5.0105 -4.8155 -6.7215 -8.0135 -6.9395 -5.1715 -6.855 -4.278 
-5.9365 -9.331501 -5.7695 -12.2629 -10.4345 -11.6919 -6.147 -10.1635 -10.1635 -11.837 -8.6855 -9.3065 -6.855 
-9.630501 -9.912001 -13.6822 -14.0934 -14.0964 -12.8284 -11.6256 -13.6055 -14.4564 -13.583 -12.9189 -9.3065 
-10.165 -17.8683 -15.5127 -17.7553 -15.2329 -18.307 -15.0676 -17.8984 -16.2024 -17.8164 -12.9189 
-4.426 -1.7565 -1.4985 -3.6115 -4.7285 -4.1555 -3.147 0 
-5.47 -2.4195 -4.081 -6.5495 -8.4455 -5.77 -3.147 
-5.9535 -5.180501 -6.670501 -9.978001 -9.541501 -5.77 
-8.462501 -7.797 -10.054 -11.0524 -9.541501 
-10.2375 -11.2985 -11.1648 -11.0524 
