-4.759 
n/a 
n/a 
n/a 
n/a 
-4.759 
n/a 
n/a 
n/a 
n/a 
-4.759 
n/a 
n/a 
n/a 
n/a 
-4.759 
n/a 
n/a 
n/a 
n/a 
-12.16972 -4.4945 -3.091 -8.5955 -2.3345 -1.4985 -3.8235 -1.7565 0 -1.934 0 -2.9705 -2.186 -1.4985 -3.228 -3.8235 -1.934 -5.1845 
-16.66422 -6.371 -12.9723 -10.884 -3.233 -4.53 -5.004 -1.7565 -1.934 -1.934 -2.9705 -3.89 -3.339 -3.9575 -5.945001 -5.598001 -6.564 
-18.54072 -16.9579 -15.2608 -11.7825 -6.4415 -5.622 -5.004 -5.223001 -1.934 -4.051 -3.89 -5.027 -5.6495 -6.1645 -6.9795 -9.959001 
-29.12762 -19.2464 -16.1593 -14.991 -7.0245 -5.622 -8.682501 -5.223001 -4.051 -6.674 -5.027 -7.2475 -7.7235 -7.101501 -11.5909 
-31.41612 -20.1449 -19.3678 -15.574 -7.0245 -8.9665 -8.682501 -7.795501 -6.674 -7.639 -7.2475 -9.4265 -8.1995 -11.7197 
-8.214001 -4.2225 -2.356 -1.4985 -6.4735 -3.228 -4.0245 -1.934 
-11.1415 -6.213 -3.1615 -7.190001 -9.978001 -6.6805 -5.9775 
-13.132 -6.935 -8.6805 -10.6215 -13.6149 -8.102 
-13.854 -12.817 -12.318 -14.2584 -15.0364 
-19.736 -16.4545 -15.9549 -15.6799 
-3.498 -1.7565 -8.5955 -2.186 -3.498 -4.0245 -1.7565 -5.1845 -2.9505 0 -1.7695 -3.498 -1.7565 -3.6285 -8.214001 
-4.005 -10.1225 -10.115 -6.9615 -8.140501 -5.16 -6.580501 -8.8205 -2.9505 -1.7695 -4.8045 -4.005 -6.2555 -12.1151 
-13.4044 -11.642 -15.1715 -12.1344 -9.574 -11.3388 -10.6465 -8.8205 -5.886001 -4.8045 -6.0545 -8.997001 -15.3297 
-14.9239 -16.6985 -20.3444 -13.5679 -15.9498 -15.4048 -10.6465 -12.2368 -8.6955 -6.0545 -11.4539 -18.7574 
-19.9804 -21.8714 -21.7779 -19.9437 -20.0158 -15.4048 -14.0628 -15.0463 -9.5635 -11.4539 -21.2143 
-4.122 -5.1845 -4.2915 -1.7565 -3.498 -2.9505 -4.416 -8.55 0 
-10.1425 -8.646 -6.0825 -5.9405 -6.941 -7.96 -13.8376 -8.55 
-13.8192 -10.7698 -10.1675 -9.910501 -12.2589 -17.802 -13.8376 
-15.943 -14.8548 -15.4989 -15.2954 -22.1009 -17.802 
-20.028 -20.1862 -20.8838 -25.1374 -22.1009 
