-4.759 
n/a 
n/a 
n/a 
n/a 
-4.759 
n/a 
n/a 
n/a 
n/a 
-4.759 
n/a 
n/a 
n/a 
n/a 
-4.759 
n/a 
n/a 
n/a 
n/a 
-2.4265 -2.186 -4.6505 -4.394 -1.934 -1.4985 -3.5855 -1.7565 -1.4985 -3.0835 -3.193 -2.3335 -3.1385 -4.2215 -1.934 -6.557 -2.4285 -1.4985 -6.102 0 -5.1255 0 -5.003 -1.756 -2.8965 -6.77 -4.4615 -5.1845 -1.756 -3.8245 -1.934 -6.557 -2.4945 -3.849 -6.4735 
-3.292 -6.0075 -7.604 -6.1615 -2.6125 -4.794 -5.122 -2.4195 -3.535 -5.165 -5.4555 -4.9375 -6.698501 -4.885 -7.536 -9.580501 -4.002501 -6.931001 -6.102 -5.1255 -5.1255 -5.003 -6.091001 -3.751 -8.380501 -10.784 -9.26 -7.2435 -5.5 -4.7245 -7.536 -9.214001 -5.410501 -9.811001 
-7.205 -8.5745 -8.542001 -6.664 -5.833 -5.4055 -5.6495 -4.6785 -5.390501 -7.215 -8.1365 -8.3935 -7.108 -10.3745 -10.0885 -11.1907 -9.297001 -6.931001 -7.8815 -5.1255 -7.4705 -6.091001 -7.806 -9.8125 -12.5207 -15.5825 -10.1955 -11.7595 -6.293 -10.1635 -9.627001 -12.2134 -11.6661 
-9.641001 -9.3585 -8.8245 -9.396 -6.704 -5.828 -7.7425 -6.715001 -7.278501 -9.908001 -11.7597 -8.789001 -13.1517 -12.927 -11.6987 -16.4852 -9.297001 -9.241501 -7.8815 -7.4705 -7.81 -7.806 -14.6043 -14.0121 -17.3192 -16.518 -14.7115 -12.5525 -12.0244 -12.2545 -12.6264 -18.469 
-10.6235 -9.630501 -11.8561 -10.029 -7.021501 -7.82 -10.403 -8.908001 -9.927501 -13.7142 -12.1552 -15.0057 -15.7042 -14.5372 -16.9932 -16.4852 -11.7115 -9.241501 -8.8575 -7.81 -9.3925 -14.6043 -18.8039 -18.8106 -18.2547 -21.034 -15.5045 -18.2839 -14.1154 -15.2539 -18.882 
-1.4985 -3.0835 -3.193 -1.7565 -1.4985 -3.7455 -4.7595 -2.3335 -8.1485 -3.757 -3.1385 -3.0695 -3.152 -4.2215 -1.934 -6.557 0 -1.756 -1.4985 -5.1875 0 -4.832 0 -4.0955 -3.7875 -4.632 -1.7565 -6.557 -2.4945 -3.849 -2.5045 -1.4985 -8.27 -3.4945 -2.9995 -4.5815 0 
-3.535 -5.165 -4.5615 -2.4195 -5.021501 -8.745001 -5.9165 -10.8415 -12.2661 -6.957 -4.286 -4.8015 -5.698501 -4.885 -7.536 -6.557 -1.756 -3.0405 -5.496 -5.1875 -4.832 -4.832 -4.0955 -8.515 -9.081 -6.0705 -7.653501 -9.214001 -5.410501 -6.305 -3.583 -9.271501 -12.1913 -4.9185 -6.1325 -4.5815 
-5.390501 -5.4395 -5.0995 -6.022 -10.2135 -9.9532 -14.7751 -14.9591 -15.4661 -7.9755 -5.8625 -6.5885 -6.352 -10.3745 -7.536 -8.2015 -3.0405 -7.7675 -5.496 -7.328501 -4.832 -7.175 -8.515 -13.8975 -10.718 -12.7193 -9.651501 -12.2134 -7.648001 -7.3745 -11.528 -13.175 -13.6153 -7.113501 -6.1325 
-5.5835 -5.946 -8.965 -11.49 -11.5579 -18.8118 -18.8927 -18.1591 -16.4846 -9.901 -7.413 -7.0245 -12.2269 -10.3745 -8.774501 -9.412001 -7.7675 -7.7675 -8.394501 -7.328501 -7.175 -12.5189 -13.8975 -15.5345 -17.3668 -14.7173 -12.8005 -14.4509 -8.773001 -15.4979 -15.4315 -14.599 -15.8103 -7.113501 
-5.98 -10.7575 -14.595 -12.8344 -20.4165 -22.9294 -22.0927 -19.1776 -18.4101 -11.4515 -7.695 -13.0642 -12.2269 -11.613 -9.876 -14.1744 -7.7675 -9.8335 -8.394501 -8.245001 -12.5189 -17.9014 -15.5345 -22.1833 -19.3648 -17.8663 -15.038 -15.5759 -17.0534 -19.4014 -16.8555 -16.794 -15.8103 
-2.7835 -2.7295 -3.5395 -8.27 -3.757 0 -2.5685 -2.4945 -4.2215 -1.934 -6.557 -6.2215 -1.756 -3.511 -2.5045 -5.1875 0 -4.832 -1.756 -5.003 -2.4945 -2.5685 -5.1845 -4.468 -2.3615 -3.2645 -2.489 -4.367 -1.7565 -3.0835 -3.193 
-4.405 -5.392 -12.6711 -12.4538 -3.757 -2.5685 -5.3665 -5.9125 -4.885 -7.536 -13.4679 -7.412001 -5.11 -6.094501 -7.963 -5.1875 -4.832 -6.4175 -6.4755 -6.32 -4.6335 -8.3965 -8.8645 -6.9645 -5.153 -3.7195 -8.6595 -6.653501 -5.237 -5.165 
-7.415501 -15 -16.8549 -12.4538 -6.179 -5.3665 -8.323 -7.047 -10.3745 -14.6947 -14.6584 -11.5452 -7.4845 -12.2924 -7.963 -7.328501 -6.4175 -9.026001 -7.7905 -8.555 -10.322 -10.688 -11.524 -9.526001 -5.496 -9.651001 -10.4765 -11.1336 -7.706501 
-17.3825 -19.1838 -16.8549 -14.8758 -8.751501 -8.323 -9.479 -13.2005 -17.5332 -15.8852 -18.7916 -13.9197 -13.7956 -12.2924 -9.314501 -8.4145 -9.026001 -10.2865 -9.5885 -14.4611 -12.6135 -13.3475 -14.0855 -9.7305 -10.4585 -11.5712 -14.9566 -13.6031 
-21.5663 -19.1838 -19.2769 -17.4483 -11.8624 -9.479 -15.7773 -20.3592 -18.7237 -20.0184 -21.1661 -20.2308 -13.7956 -13.6439 -10.5045 -11.5806 -10.2865 -12.0845 -15.5726 -16.7526 -15.273 -15.909 -14.29 -15.0024 -12.3787 -16.0513 -17.4261 
-8.27 -2.4945 -3.45 -3.0695 -2.4945 -4.2215 -1.934 -5.1845 -5.74 0 -2.5685 -5.1875 -4.832 -5.003 -1.756 -5.1845 -4.4615 -3.1385 -3.0695 -3.511 -1.934 -5.1845 -5.74 0 -3.644 -1.4985 -4.367 -1.7565 -1.4985 -3.0835 -3.845 0 
-9.5465 -5.1125 -4.273 -4.2085 -5.9125 -4.885 -6.564 -5.7465 -5.74 -2.5685 -8.1915 -7.328501 -8.708 -6.091001 -7.0085 -7.859 -6.835 -4.286 -5.514501 -4.582 -6.564 -5.7465 -5.74 -3.644 -4.97 -5.862 -6.653501 -2.4195 -3.535 -5.74 -3.845 
-12.1979 -5.9735 -5.167 -7.0975 -7.047 -9.569 -6.819 -5.7465 -9.019 -8.1915 -9.911 -10.485 -9.413 -12.3299 -9.1325 -8.567 -8.1805 -6.087 -5.868001 -9.699 -6.819 -5.7465 -9.431001 -4.97 -10.0255 -7.354 -6.9275 -4.6785 -6.226001 -5.74 
-13.0589 -6.848001 -7.798 -8.037001 -12.395 -9.606001 -6.819 -9.029 -14.8714 -9.911 -13.2725 -11.19 -16.0645 -14.4539 -9.566 -10.3815 -9.399501 -6.4185 -10.76 -9.778501 -6.819 -9.434501 -10.9286 -10.0255 -11.6249 -7.7825 -9.9835 -7.034 -6.226001 
-13.9334 -9.088 -8.7365 -13.601 -12.432 -9.606001 -9.627001 -14.885 -16.5909 -13.2725 -13.9775 -17.8415 -18.1885 -14.8874 -12.0325 -11.6005 -9.573001 -11.5003 -10.8395 -9.778501 -9.885 -10.9341 -15.9841 -11.6249 -12.0534 -10.2695 -12.468 -7.034 
