-4.759 
n/a 
n/a 
n/a 
n/a 
-4.759 
n/a 
n/a 
n/a 
n/a 
-4.759 
n/a 
n/a 
n/a 
n/a 
-4.759 
n/a 
n/a 
n/a 
n/a 
-7.786 -5.1845 -3.16 -3.913 -4.9045 0 -3.047 -1.4985 -4.6955 -1.7565 -3.16 -5.266 -2.5045 -2.871 -3.602 0 -3.7935 0 -5.1845 -7.642 -10.546 
-14.3005 -8.900001 -6.9215 -9.369 -4.9045 -3.047 -4.095 -5.653 -5.315001 -5.1555 -8.3065 -7.476501 -4.905 -5.4115 -3.602 -3.7935 -3.7935 -5.1845 -10.985 -18.58 
-18.7736 -13.0057 -13.0665 -9.369 -8.133 -4.095 -8.821501 -5.847 -9.737 -9.755 -11.053 -9.185 -5.6635 -5.4115 -7.1715 -3.7935 -8.827001 -10.985 -21.923 
-22.8793 -19.1507 -13.0665 -13.4097 -9.173 -8.821501 -9.267 -10.485 -14.4851 -12.8935 -12.7615 -10.6751 -5.6635 -9.2465 -7.1715 -8.827001 -15.0505 -21.923 
-29.0243 -19.1507 -17.1072 -14.4497 -14.2161 -9.267 -13.9846 -15.2331 -17.6236 -14.602 -14.2516 -10.6751 -9.4565 -9.2465 -12.3592 -15.0505 -25.9885 
-5.1845 -3.473 -3.759 -2.871 -4.103 -3.819 -3.5015 -3.047 -3.759 -8.717 -5.1845 -7.642 -10.546 
-10.27 -8.219 -6.9115 -7.144 -7.907001 -7.7305 -6.8525 -7.1665 -13.4724 -14.3987 -10.985 -18.58 
-15.016 -11.7931 -11.7597 -10.7175 -12.1523 -10.7175 -11.1218 -17.9109 -19.1541 -20.1992 -21.923 
-18.5901 -16.6413 -15.3332 -15.8188 -15.1393 -14.9868 -21.8662 -23.5926 -24.9546 -31.1372 
-23.4383 -20.2148 -20.4345 -18.8058 -19.4086 -25.7312 -27.5479 -29.3931 -35.8926 
-10.0995 -12.16972 -2.871 0 -3.16 -3.913 -6.794 -1.934 -2.871 -3.5015 0 -7.144001 0 -5.1845 -5.101 
-24.08562 -15.04072 -2.871 -3.16 -6.9215 -12.0538 -9.091001 -4.2805 -5.183 -3.5015 -7.144001 -7.144001 -5.1845 -11.5799 
-26.95662 -15.04072 -6.3335 -6.9215 -15.7513 -14.3508 -11.5235 -5.298 -5.183 -10.7025 -7.144001 -13.1261 -11.5799 
-26.95662 -18.50322 -11.082 -15.7513 -18.0483 -16.7833 -12.541 -5.298 -13.1564 -10.7025 -13.1261 -19.5215 
-30.41912 -23.25172 -19.9118 -18.0483 -20.4808 -17.8008 -12.541 -13.4226 -13.1564 -16.6846 -19.5215 
-1.8085 -5.1845 -3.4605 -6.355 -1.4985 -3.275 -3.9725 -2.3585 0 -10.651 
-7.2815 -9.135 -8.899 -7.080501 -4.7845 -6.692 -4.0525 -2.3585 -10.651 
-10.0285 -15.9199 -11.7735 -10.8995 -8.456501 -6.7145 -4.0525 -14.5649 
-16.9216 -17.9096 -13.6842 -13.5799 -8.485001 -6.7145 -16.2325 
-18.9113 -19.5601 -18.4864 -14.2432 -8.485001 -19.2447 
