-4.759 
n/a 
n/a 
n/a 
n/a 
-4.759 
n/a 
n/a 
n/a 
n/a 
-4.759 
n/a 
n/a 
n/a 
n/a 
-4.759 
n/a 
n/a 
n/a 
n/a 
-2.872 -2.4265 -2.186 -5.914001 -3.998 -2.5045 -4.292 -2.3345 -4.559 0 -3.0415 -2.4265 -2.186 -5.2155 -3.4625 -3.849 -2.5045 -3.8745 -1.7565 -4.559 0 -4.1065 -4.1755 0 
-4.062 -3.292 -7.457001 -7.39 -6.3415 -7.486501 -4.8245 -6.917 -4.559 -3.0415 -4.551 -3.292 -6.7065 -7.6595 -5.9165 -6.305 -7.711 -5.8715 -5.683 -4.559 -4.1065 -8.9335 -4.1755 
-4.7985 -8.684501 -9.028001 -10.0345 -11.8623 -7.644501 -8.984501 -6.917 -7.628 -4.551 -5.318 -8.3835 -10.451 -9.935 -7.985001 -11.6151 -8.4545 -8.7985 -5.683 -8.2745 -8.9335 -8.9335 
-10.6215 -9.6 -12.8243 -15.6373 -12.0203 -12.3981 -8.984501 -9.9805 -8.7325 -5.318 -9.697001 -12.5068 -12.7265 -12.0597 -13.6621 -12.3586 -11.4007 -8.7985 -9.337001 -13.3163 -8.9335 
-11.537 -13.4221 -18.4271 -15.7953 -16.7739 -12.3981 -12.3336 -11.085 -9.572001 -9.697001 -13.9641 -14.7823 -14.8512 -17.7368 -14.4056 -15.3048 -11.4007 -12.8125 -14.5066 -13.3163 
-3.929 -2.4265 -2.7415 -5.822001 -4.0585 -2.5045 -2.4265 -5.0075 -1.7695 -1.4985 -4.559 0 -2.4265 -2.186 -4.4155 -3.0415 0 -1.934 -4.1755 
-5.029 -3.681 -7.1385 -9.583501 -6.72 -4.228 -6.053 -5.113 -2.7955 -7.208 -4.559 -2.4265 -3.292 -6.001 -7.157001 -3.0415 -1.934 -5.365 
-5.9705 -8.3665 -11.6416 -12.4218 -8.218 -8.2065 -6.3615 -5.7335 -8.5935 -7.208 -6.905 -3.292 -6.997 -8.515 -7.157001 -5.1215 -5.365 
-10.7025 -13.1868 -14.4799 -13.9198 -12.4111 -8.272 -6.7645 -11.8903 -8.5935 -9.953501 -7.474 -6.997 -9.542001 -8.515 -9.318001 -9.08 
-15.5228 -16.0251 -15.9779 -18.1129 -12.4766 -8.6925 -13.2165 -11.8903 -11.4768 -10.499 -11.4172 -9.542001 -9.542001 -10.27 -13.3823 
-2.872 0 -4.559 0 -2.5045 -3.5435 0 -3.5205 -3.873 -2.186 -4.1375 -4.0585 -4.2055 -2.186 -3.8755 0 -2.186 -4.078 -4.138 -4.2765 0 -4.3235 -1.934 -12.16972 
-2.872 -4.559 -4.559 -2.5045 -6.349501 -3.5435 -3.5205 -6.505 -5.709 -5.2415 -8.932501 -9.484001 -6.6415 -5.2415 -3.8755 -2.186 -7.5205 -8.282 -9.5935 -4.2765 -4.3235 -5.264 -15.11012 
-7.540501 -4.559 -6.773 -6.349501 -6.349501 -7.941 -6.505 -8.485001 -9.572001 -10.1345 -14.5496 -12.1788 -10.1995 -5.2415 -6.635 -7.5205 -11.9817 -14.0715 -9.5935 -8.8815 -5.264 -19.13232 
-7.540501 -6.773 -11.1156 -6.349501 -11.2728 -11.6505 -8.485001 -12.6194 -14.5092 -15.7516 -17.2444 -15.7368 -10.1995 -7.6755 -12.3071 -11.9817 -17.7712 -14.0715 -14.2309 -9.8835 -19.13232 
-10.0675 -11.1156 -11.1156 -11.2728 -14.9823 -13.6305 -12.6194 -17.5566 -20.1263 -18.4464 -20.8024 -15.7368 -12.8197 -13.6092 -16.7683 -17.7712 -17.7712 -18.7089 -15.2329 -23.73242 
-3.4765 -6.982501 -4.275 -9.952001 -3.5205 -4.7365 -3.8745 -1.7695 -5.822001 -4.0585 -1.4985 -3.5185 -2.0935 -6.7115 0 
-11.7504 -11.8805 -14.4146 -13.5629 -8.460501 -10.2435 -6.4905 -7.933501 -9.583501 -4.7185 -5.873 -6.426 -8.604 -6.7115 
-16.6484 -22.0201 -18.0255 -18.5029 -14.2867 -12.8595 -13.1885 -10.6215 -10.2105 -10.2485 -9.207001 -13.6769 -8.604 
-26.788 -25.631 -22.9655 -24.3291 -16.9027 -19.5575 -15.8765 -11.2485 -15.7405 -13.5825 -16.6133 -13.6769 
-30.3989 -30.571 -28.7917 -26.9451 -23.6007 -22.2455 -16.5035 -16.7785 -19.0745 -20.9888 -16.6133 
