-4.759 
n/a 
n/a 
n/a 
n/a 
-4.759 
n/a 
n/a 
n/a 
n/a 
-4.759 
n/a 
n/a 
n/a 
n/a 
-4.759 
n/a 
n/a 
n/a 
n/a 
-4.365 -5.226 -2.186 -4.164 -1.7695 -4.8435 -2.5045 -5.732 -3.3755 
-8.7075 -7.367001 -5.337 -6.532 -7.025001 -6.714 -8.131001 -5.8985 
-10.1115 -10.76 -7.6545 -12.4395 -9.194 -13.2517 -8.155001 
-13.7875 -13.0775 -13.7168 -14.6085 -15.8823 -13.2757 
-16.105 -19.1398 -15.8858 -21.2968 -15.9063 
-1.7695 -1.4985 -4.295 -2.3335 -1.4985 -3.7075 -5.083 -2.356 -4.1545 -1.7695 -1.4985 -3.352 -3.723 -1.7565 -4.1595 
-2.7955 -5.0575 -6.247 -3.3515 -4.6235 -8.320001 -6.436 -4.54 -4.5375 -2.7955 -4.43 -7.066 -5.216001 -6.127 
-6.442 -6.732501 -7.0825 -6.584 -8.431001 -10.335 -9.956 -4.5645 -5.023 -5.4965 -7.988501 -8.272 -8.38 
-8.1615 -7.3475 -9.606001 -9.293 -10.5425 -13.855 -9.974 -5.0465 -8.0035 -8.7305 -8.494 -8.555501 
-8.643001 -9.765 -10.266 -11.6877 -14.0625 -13.873 -10.1725 -8.046 -9.262 -8.8725 -8.783 
-1.4985 -3.788 -4.365 -5.226 0 -4.365 -5.226 0 -2.186 -3.2955 -1.7695 -4.4195 -1.7695 -1.4985 -4.295 -2.3335 -1.4985 -3.7075 -5.083 -3.3255 -3.7345 -1.934 -1.4985 -5.732 -3.3755 0 
-4.6805 -8.076 -8.7075 -5.226 -4.365 -8.7075 -5.226 -2.186 -4.348001 -3.9425 -5.4005 -4.535501 -2.7955 -5.0575 -6.247 -3.3515 -4.6235 -8.320001 -6.512 -6.5795 -5.35 -2.6125 -6.261001 -5.8985 -3.3755 
-8.740001 -10.564 -8.7075 -9.182 -8.7075 -8.7075 -7.367001 -4.348001 -4.837 -6.3265 -5.5585 -5.002 -6.442 -6.732501 -7.0825 -6.584 -8.431001 -9.111 -8.294001 -7.923501 -5.892 -7.082 -6.3015 -5.8985 
-10.575 -10.564 -9.861501 -10.311 -8.7075 -10.1115 -9.7075 -4.837 -6.9095 -6.349 -6.0825 -8.758501 -8.1615 -7.3475 -9.606001 -9.293 -9.137501 -9.828501 -9.264 -8.746 -9.940001 -7.11 -6.3015 
-10.575 -12.347 -10.4985 -10.311 -10.1115 -12.735 -10.363 -6.9095 -6.93 -6.8685 -9.871 -10.434 -8.643001 -9.765 -10.266 -9.911 -9.861 -10.2905 -9.805 -10.341 -9.944 -7.11 
-4.365 -5.226 -3.99 -1.4985 -4.295 -1.934 -2.9705 -5.732 -3.3755 -3.5285 0 
-8.7075 -10.0045 -5.329 -5.0575 -5.888 -4.051 -10.2285 -5.8985 -7.403 -3.5285 
-13.8656 -11.3435 -9.321501 -6.6635 -6.603 -11.622 -10.395 -10.275 -7.403 
-15.2046 -15.336 -10.271 -6.724 -14.667 -11.7885 -14.7715 -10.275 
-19.1971 -16.2855 -10.2855 -14.8402 -14.8335 -16.165 -14.7715 
