-4.759 
n/a 
n/a 
n/a 
n/a 
-4.759 
n/a 
n/a 
n/a 
n/a 
-4.759 
n/a 
n/a 
n/a 
n/a 
-4.759 
n/a 
n/a 
n/a 
n/a 
-3.1495 -2.4945 -3.6705 -1.934 -4.335 -1.7565 -3.689 -4.6055 -4.161 -2.356 -4.3905 -3.9115 -3.897 -4.6355 0 
-4.459 -5.072001 -4.865 -5.511 -4.436 -5.442 -5.6545 -8.2325 -6.212501 -6.073501 -7.294 -9.120501 -7.0205 -4.6355 
-8.023001 -6.355 -9.649001 -6.111 -8.761001 -7.719501 -9.1575 -9.84 -10.2815 -8.664001 -12.9692 -12.6538 -7.0205 
-9.477501 -10.757 -9.696501 -10.7175 -10.575 -10.468 -10.8004 -13.988 -12.872 -14.4598 -16.5025 -12.6538 
-13.8917 -10.779 -14.4128 -12.5315 -13.3235 -12.1109 -14.9484 -16.5785 -18.6678 -17.9931 -16.5025 
-2.3615 -2.186 -3.6705 -1.934 -4.335 -1.7565 -4.161 -2.356 -3.2015 -1.7565 -3.897 -4.0715 -3.2 0 
-3.5005 -5.076 -4.865 -5.511 -4.436 -5.6765 -6.212501 -5.6355 -4.706 -5.719501 -8.457001 -6.831 -3.2 
-7.041 -6.389 -9.649001 -6.111 -7.354 -7.6395 -9.4925 -6.998001 -8.27 -9.5915 -8.694501 -6.831 
-8.592 -10.76 -9.696501 -10.0605 -9.3535 -11.0893 -11.3654 -10.7566 -12.5846 -9.887001 -8.694501 
-13.13 -10.8075 -13.7558 -12.06 -12.9471 -12.9622 -15.124 -15.0712 -12.8801 -9.887001 
-3.1495 -4.9165 -4.617 -1.934 -4.335 -1.7565 -3.689 -3.9115 -3.897 -5.275 
-8.816501 -8.909 -5.591 -5.511 -4.436 -5.442 -6.839 -9.120501 -7.6775 
-12.95 -9.6225 -10.3815 -6.111 -8.761001 -8.3855 -12.7378 -13.3108 
-13.6635 -14.5942 -10.446 -10.7175 -11.4007 -14.7619 -16.9281 
-18.6352 -14.6587 -15.0525 -13.3572 -17.7771 -18.9522 
-2.925 -3.7445 -2.264 -4.335 -1.7565 -4.187 -4.3905 -3.897 -3.9605 -3.2 -4.161 0 
-6.007501 -5.218 -6.494 -4.436 -6.2795 -8.3955 -9.557 -6.1735 -4.664001 -7.778501 -4.161 
-7.3585 -9.238 -6.5105 -9.84 -9.880501 -13.769 -12.1531 -6.2995 -8.577001 -7.778501 
-11.6347 -9.2565 -12.3931 -13.441 -15.3354 -16.3651 -12.2791 -10.3675 -8.577001 
-11.6532 -15.5553 -15.9941 -18.8959 -17.9315 -16.4911 -16.3471 -10.3675 
