-4.759 
n/a 
n/a 
n/a 
n/a 
-4.759 
n/a 
n/a 
n/a 
n/a 
-4.759 
n/a 
n/a 
n/a 
n/a 
-4.759 
n/a 
n/a 
n/a 
n/a 
-3.091 -3.992 -2.186 -1.4985 -2.871 -3.0695 -4.3535 -6.144 -3.989 -2.7765 -3.013 -2.9995 -3.89 -3.644 -3.1575 -3.769 0 
-6.0465 -5.739 -3.339 -4.316 -5.059 -6.777 -10.265 -9.636 -6.609 -4.479 -5.3135 -6.01 -7.084001 -4.568501 -5.38 -3.769 
-7.4755 -6.812 -5.399 -5.4975 -8.001 -13.2965 -13.757 -12.3496 -8.862 -7.0915 -7.243001 -8.5835 -7.329 -6.405 -5.38 
-8.7165 -8.668 -6.318501 -8.6835 -14.8075 -16.7885 -16.4706 -14.6026 -11.9733 -8.330001 -10.151 -9.0965 -10.1225 -6.405 
-10.134 -10.2135 -9.453001 -15.575 -18.2995 -19.5021 -18.7236 -17.7139 -13.2118 -10.6465 -10.5205 -12.1636 -10.1225 
-2.9805 -4.7815 -2.3335 -2.871 -3.0695 -2.186 -4.8555 -5.951 -1.7695 -10.939 0 -3.423 -4.305 -2.5685 -1.4985 -2.8965 -4.6865 -4.478 0 
-5.947001 -5.3995 -4.7635 -5.059 -4.2675 -5.309 -7.9515 -6.0395 -13.6907 -10.939 -3.423 -6.761 -6.2535 -3.7015 -3.928 -6.169 -8.063 -4.478 
-6.5385 -7.68 -7.2185 -6.039001 -8.9515 -9.621 -7.960001 -19.0507 -13.6907 -14.362 -6.761 -8.577001 -6.984 -5.397 -7.993 -10.341 -8.063 
-8.837 -9.553501 -8.070001 -10.322 -10.6605 -9.6265 -21.224 -19.0507 -17.1137 -17.7 -8.577001 -9.0835 -8.953501 -8.925 -12.371 -10.341 
-10.8549 -10.6422 -12.4932 -12.031 -10.683 -23.0647 -21.224 -22.4737 -20.4517 -19.516 -9.0835 -11.076 -9.690001 -13.5042 -12.371 
-3.091 -3.998 -2.186 -1.4985 -3.6385 -3.0695 -3.659 -1.756 -4.3895 -1.4985 -2.915 -1.7565 -8.153501 -2.7765 -3.8115 -1.7695 -3.013 -2.5685 -1.4985 -3.213 -2.356 -3.4155 -1.934 -3.8475 0 
-6.8095 -6.1505 -3.339 -4.690001 -4.965 -6.863501 -5.4945 -5.988 -5.4965 -4.1675 -5.2705 -10.075 -11.3986 -7.680501 -3.8325 -3.7215 -5.3405 -3.7015 -4.3955 -4.4165 -5.218 -5.824 -5.531 -3.8475 
-8.2375 -7.3875 -6.166 -5.4355 -10.5225 -8.43 -11.1853 -6.818 -8.7045 -6.247001 -14.3044 -13.3201 -16.3026 -7.714001 -5.3695 -5.8345 -5.9065 -6.0295 -6.639501 -7.4875 -8.869 -10.281 -5.531 
-9.484 -10.27 -6.8475 -11.231 -10.776 -14.4538 -12.0153 -10.0095 -11.1 -15.6517 -17.5495 -18.2241 -16.3361 -9.137501 -7.228 -6.273 -6.706501 -8.351501 -9.156 -11.5915 -13.6632 -10.281 
-12.4745 -10.619 -12.8314 -11.4845 -18.6722 -15.2838 -15.2068 -12.3946 -20.5047 -18.8968 -22.4535 -18.2576 -17.7596 -11.4376 -7.874 -7.3125 -8.851001 -11.055 -13.496 -16.3857 -13.6632 
-3.9845 -8.9005 -4.3895 -2.3345 -2.871 -3.6765 0 -2.7765 -3.013 -2.9995 -3.213 -1.934 -3.564 -3.3435 0 
-14.1306 -13.7884 -4.6785 -4.9425 -5.168 -3.6765 -2.7765 -4.479 -5.3135 -5.8745 -4.4465 -5.3585 -5.8305 -3.3435 
-19.0185 -14.0774 -6.73 -6.7055 -5.168 -5.8055 -4.479 -7.0915 -7.072001 -7.160501 -7.6475 -7.3535 -5.8305 
-19.3075 -16.1289 -9.9175 -6.7055 -6.694 -7.187 -7.0915 -8.896001 -8.4165 -10.6085 -10.172 -7.3535 
-21.359 -19.3164 -9.9175 -8.7805 -7.8725 -9.885501 -8.896001 -10.1035 -11.8063 -13.7614 -10.172 
