-4.759 
n/a 
n/a 
n/a 
n/a 
-4.759 
n/a 
n/a 
n/a 
n/a 
-4.759 
n/a 
n/a 
n/a 
n/a 
-4.759 
n/a 
n/a 
n/a 
n/a 
-3.9225 -1.4985 -3.3235 -3.898 -4.109 -3.468 -6.557 -2.186 -2.871 -1.7565 -3.1715 -1.934 -3.8735 
-4.463 -5.1515 -8.4665 -8.009501 -7.8715 -9.5445 -8.833 -4.247 -3.5385 -4.5595 -5.1815 -4.885 
-7.8565 -10.6735 -12.8348 -12.2984 -14.3118 -11.8581 -10.2185 -4.411 -8.0775 -6.4965 -7.614 
-14.0001 -15.0418 -17.1237 -18.7387 -16.6254 -13.2436 -10.2725 -8.902 -10.6065 -9.790001 
-18.3684 -19.3307 -23.564 -21.0523 -18.0109 -13.2976 -15.3959 -11.51 -13.9 
-5.1845 -5.74 -6.225 -2.5045 -2.871 -1.7565 -1.4985 -6.798 -4.7195 -3.468 -1.7565 -3.8735 0 
-5.7465 -12.9076 -7.726 -4.7085 -3.5385 -2.4195 -8.033501 -9.31 -9.8545 -4.7385 -5.112 -3.8735 
-12.9559 -14.4086 -9.892 -4.9525 -3.7675 -8.699 -10.717 -14.7016 -11.3056 -7.347001 -5.112 
-14.4569 -16.5746 -9.929001 -5.1005 -10.1345 -11.5141 -16.1086 -16.1527 -13.9141 -7.347001 
-16.6229 -16.6116 -10.03 -11.9151 -12.9496 -16.9057 -17.5597 -18.7612 -13.9141 
-6.557 -3.251 -1.8085 -3.301 -3.898 -1.934 -3.655 -4.651 -3.9225 -1.4985 -3.468 -1.934 -3.8735 0 
-9.9205 -4.1695 -4.019 -6.9775 -4.962501 -5.7665 -5.962501 -7.9675 -4.463 -5.0815 -5.1985 -4.885 -3.8735 
-10.839 -5.7645 -8.0735 -7.6795 -8.2565 -7.639 -9.5375 -8.6115 -6.773 -6.4525 -7.561501 -4.885 
-12.434 -9.7615 -9.208 -11.2487 -10.0675 -12.2478 -10.0115 -10.9617 -7.6385 -8.794001 -7.561501 
-16.431 -10.506 -12.8998 -13.0597 -14.6763 -12.7218 -12.4361 -11.8272 -10.0065 -8.794001 
-6.557 -2.186 -2.871 -1.7565 -1.4985 -4.09 -4.109 -3.1715 -1.934 -3.8735 
-8.833 -4.247 -3.5385 -2.4195 -5.988 -7.857 -7.6875 -5.1815 -4.885 
-10.2185 -4.411 -3.7675 -6.7535 -8.8865 -10.4425 -9.030001 -7.614 
-10.2725 -4.5655 -8.612 -9.656501 -12.0134 -11.785 -11.7219 
-10.3035 -9.477 -10.586 -12.7814 -13.3559 -14.4769 
