-4.759 
n/a 
n/a 
n/a 
n/a 
-4.759 
n/a 
n/a 
n/a 
n/a 
-4.759 
n/a 
n/a 
n/a 
n/a 
-4.759 
n/a 
n/a 
n/a 
n/a 
-6.542 -5.5335 -3.557 -1.934 -3.5455 -3.676 0 -3.013 -2.6165 -2.674 -4.536 -4.5145 0 
-7.526 -9.0245 -4.4175 -4.8495 -4.521501 -3.676 -3.013 -3.724 -4.2165 -7.433001 -9.3225 -4.5145 
-10.3675 -9.219501 -7.233 -5.2535 -4.521501 -6.967 -3.724 -4.6215 -8.627 -12.5493 -9.3225 
-10.4965 -12.472 -7.6075 -5.2535 -8.225 -7.7905 -4.6215 -8.9305 -13.9031 -12.5493 
-13.749 -12.8465 -7.6075 -8.469001 -8.589001 -8.62 -8.9305 -14.288 -13.9031 
-3.5455 -3.676 -2.229 -4.052 -1.4985 -12.16972 -12.16972 -4.7555 -5.678 -3.013 -5.651501 -2.674 0 
-4.521501 -4.593 -7.1575 -4.752 -14.76202 -24.33944 -16.92522 -11.6933 -8.991501 -8.529501 -6.316 -2.674 
-6.145 -10.8959 -8.532001 -19.00992 -26.93174 -29.09494 -23.86302 -15.0068 -13.9176 -10.8065 -7.900001 
-13.3077 -12.2704 -22.90292 -31.17964 -31.68724 -36.03274 -27.17652 -19.9329 -15.3791 -9.218 
-14.6822 -26.64132 -35.07264 -35.93514 -38.62504 -39.34624 -32.10262 -21.3944 -15.3791 
-1.934 -3.5455 -3.676 -4.25 -12.16972 -12.16972 -4.567 -2.674 -4.5145 
-4.8495 -4.521501 -8.048 -17.69492 -24.33944 -16.73672 -5.667 -7.767 
-5.2535 -8.9245 -21.99252 -29.86464 -28.90644 -17.83672 -10.468 
-9.356501 -23.02122 -34.16224 -34.43164 -30.00644 -22.63772 
-23.46922 -35.19094 -38.72924 -35.53164 -34.80744 
-5.5335 -4.5145 -1.7565 -3.5455 -3.676 -3.013 -2.6165 -2.674 -4.536 -4.5145 0 
-8.47 -5.939 -4.8635 -4.521501 -6.967 -3.724 -4.2165 -7.433001 -9.3225 -4.5145 
-10.1827 -9.896001 -5.453 -8.225 -7.7905 -4.6215 -8.627 -12.5493 -9.3225 
-14.1397 -10.567 -9.113501 -8.589001 -8.62 -8.9305 -13.9031 -12.5493 
-14.8107 -14.2275 -9.5205 -9.482 -13.0232 -14.288 -13.9031 
