-4.759 
n/a 
n/a 
n/a 
n/a 
-4.759 
n/a 
n/a 
n/a 
n/a 
-4.759 
n/a 
n/a 
n/a 
n/a 
-4.759 
n/a 
n/a 
n/a 
n/a 
-2.0935 -3.135 -3.1385 0 -1.4985 -4.6955 -1.7565 -8.621 -2.7765 -2.489 -3.0465 -3.5445 -3.2495 -3.6175 0 
-4.4665 -4.8745 -3.1385 -1.4985 -5.892 -6.7515 -9.588 -11.9429 -3.495 -6.916 -7.101501 -5.655 -6.0855 -3.6175 
-6.125 -4.8745 -4.564 -5.892 -7.5885 -15.185 -12.9697 -12.6614 -8.026501 -11.3366 -8.612 -10.7595 -6.0855 
-6.125 -7.02 -10.155 -7.5885 -16.4382 -18.5667 -13.6882 -17.1929 -12.8287 -12.8471 -14.0881 -10.7595 
-7.356501 -12.2616 -12.0307 -16.4382 -19.8199 -19.2852 -18.2197 -21.9951 -14.3392 -18.3232 -14.0881 
-3.135 -5.352 -3.098 -3.2495 
-7.849 -8.441501 -5.281 
-11.6709 -10.228 
-13.4574 
n/a 
-3.135 -3.6765 -2.229 -4.3775 -4.6955 -5.387 -2.742 -2.489 -3.557 -1.934 -3.183 -3.2495 -3.6175 0 
-6.7885 -4.9715 -6.797 -7.1775 -8.3855 -7.549 -3.301 -4.467 -4.4175 -5.191 -5.645 -6.0855 -3.6175 
-8.330501 -8.801001 -9.7325 -8.3975 -10.7981 -7.709 -6.0655 -5.022 -7.9155 -6.664001 -8.217 -6.0855 
-12.3458 -12.2377 -11.1101 -10.8151 -10.9581 -10.451 -6.660501 -8.320001 -9.486501 -9.257501 -8.217 
-15.7825 -13.6153 -13.5277 -10.9751 -13.7001 -11.046 -10.5635 -10.259 -12.1538 -9.257501 
-3.135 -1.7565 -4.6955 -1.756 -3.9105 -3.0465 -1.4985 -3.6175 0 
-3.9195 -6.461 -6.302501 -5.502501 -7.512501 -4.046 -5.186 -3.6175 
-10.209 -7.7825 -10.7316 -9.618 -8.138 -8.189 -5.186 
-11.5305 -12.6222 -14.8471 -10.4929 -12.9896 -8.189 
-16.3702 -16.7377 -15.722 -15.3445 -12.9896 
