-4.759 
n/a 
n/a 
n/a 
n/a 
-4.759 
n/a 
n/a 
n/a 
n/a 
-4.759 
n/a 
n/a 
n/a 
n/a 
-4.759 
n/a 
n/a 
n/a 
n/a 
-2.264 -3.508 -4.937 -12.16972 -3.5015 -3.3155 -8.643001 -5.189 -1.934 -3.2795 -3.152 -2.925 -3.152 -3.046 -4.587 -3.3155 -1.934 -6.6585 -4.1355 -2.7415 -3.676 -4.0875 -3.2015 
-4.813 -6.277 -18.38772 -15.67122 -5.1555 -12.9263 -14.047 -6.7225 -5.671 -6.191501 -5.722 -4.203 -6.3735 -8.115001 -7.8885 -5.559 -7.809 -11.5526 -7.192 -7.153501 -7.7365 -9.1495 
-7.115 -20.45912 -21.88922 -17.32522 -15.2121 -18.3303 -15.5805 -10.4345 -9.506001 -9.2925 -7.303 -7.208 -12.4167 -11.7105 -10.1675 -12.1972 -13.1603 -14.6091 -11.8844 -12.149 -13.0615 
-21.45132 -23.96062 -23.54322 -27.38182 -20.6161 -19.8638 -19.2925 -14.2695 -12.6568 -10.9629 -10.609 -13.4164 -16.0122 -13.9895 -16.7261 -17.5485 -16.2168 -19.3015 -16.8799 -17.474 
-24.95282 -25.61462 -33.59982 -32.78582 -22.1496 -23.5758 -23.1275 -17.4203 -14.3272 -14.2689 -16.8174 -17.0119 -18.2912 -20.5481 -22.0774 -20.605 -20.9092 -24.297 -22.2049 
-1.934 -4.937 -3.508 0 -1.934 -1.4985 -3.5015 -1.7565 -10.546 -2.5195 -6.6585 -1.4985 -4.969 -2.5195 -6.6585 -4.68 -1.934 -1.4985 -4.0325 -1.7565 -4.2805 -3.4425 -1.756 -2.925 -4.6215 -1.4985 -4.889 -1.934 -1.4985 -4.295 -1.7565 -4.2805 -2.5195 -2.3335 -6.0045 -1.7565 -3.4975 -1.756 -4.3435 -3.152 -4.874 0 
-7.9415 -6.7955 -3.508 -1.934 -2.6125 -4.737 -4.783 -13.2517 -13.0655 -8.6335 -8.7425 -5.927 -7.844001 -8.6335 -12.0971 -6.276 -2.6125 -4.933001 -5.3175 -5.818 -8.251 -4.9015 -4.2585 -6.6885 -5.936 -5.8525 -6.462501 -2.6125 -5.0575 -5.0085 -5.818 -5.9405 -4.9535 -9.281501 -8.5725 -4.91 -5.486 -6.0325 -8.548 -6.21 -4.874 
-10.028 -6.7955 -6.5635 -2.6125 -6.0435 -5.5595 -16.9756 -15.7712 -19.1795 -10.468 -13.4328 -8.835501 -14.2802 -14.2543 -13.6931 -6.756001 -6.071 -5.612 -8.815001 -9.621 -9.513 -7.16 -7.957 -7.776 -8.6095 -7.497 -7.115001 -5.628 -5.2355 -7.914001 -7.9635 -8.898001 -12.4847 -12.0241 -12.135 -6.8835 -7.8655 -9.032001 -11.7384 -6.21 
-10.028 -9.250001 -7.2275 -6.0435 -6.478001 -17.8437 -19.4951 -21.8852 -21.014 -15.1583 -16.3413 -15.4261 -19.901 -15.8503 -14.1731 -10.5225 -6.5755 -9.210001 -12.8928 -11.2236 -11.8693 -11.0249 -8.922501 -10.6563 -9.992001 -8.0675 -10.078 -5.777 -8.285501 -10.426 -10.6595 -16.7756 -15.2273 -15.5866 -14.1085 -9.0425 -11.2214 -12.3106 -11.7384 
-12.7025 -9.7025 -11.0065 -6.478001 -19.0622 -20.3632 -25.6091 -23.7197 -25.7043 -18.0668 -22.9319 -21.0469 -21.497 -16.3303 -17.9396 -10.6255 -10.597 -13.4332 -14.4954 -13.5799 -15.7342 -11.9904 -11.974 -12.0388 -10.346 -11.1957 -10.1245 -8.8645 -10.5635 -13.3496 -18.5371 -19.5182 -18.7898 -17.5601 -16.2675 -12.581 -14.5 -12.3106 
-3.508 -3.2815 0 -10.6255 -5.612 -4.1555 -1.7695 -3.563 -1.4985 -4.889 
-5.406 -3.2815 -10.6255 -16.2375 -10.468 -4.988501 -4.525 -5.088 -5.8525 
-5.406 -14.468 -16.2375 -21.0935 -11.301 -9.147501 -5.672 -9.6295 
-17.7477 -20.08 -21.0935 -21.9265 -15.46 -10.2 -9.9585 
-23.3597 -24.936 -21.9265 -26.0855 -16.5125 -14.4865 
-3.4975 -1.756 -4.3435 -5.5005 -3.152 -4.874 -1.934 -1.8085 -4.889 -7.9185 -2.3345 -1.4985 -4.5845 -4.348 -1.934 -1.4985 -5.0695 -1.7565 -4.628 -5.939 -3.599 -3.918 -1.934 -6.4975 -10.9935 0 
-5.486 -6.0325 -9.1625 -7.8885 -6.21 -5.694 -3.2685 -5.919001 -10.6605 -9.816501 -3.233 -5.802501 -9.296501 -5.622 -2.6125 -5.8625 -7.592 -6.107501 -5.9615 -8.3485 -6.101501 -5.666 -8.7255 -18.1422 -10.9935 
-7.8655 -9.507501 -10.758 -11.2735 -6.877 -6.6225 -7.381001 -12.3431 -12.5585 -10.7618 -7.871 -10.4425 -10.4865 -6.2375 -8.046 -7.965001 -12.3216 -7.357501 -8.361 -10.265 -7.091001 -12.9167 -20.808 -18.1422 
-11.6969 -11.188 -14.143 -11.9405 -7.603 -8.5695 -14.6419 -14.2411 -13.5038 -15.3998 -12.8832 -11.6325 -11.102 -12.2168 -9.637001 -12.85 -13.5716 -10.0155 -10.2865 -11.4219 -15.0041 -24.9992 -20.808 
-13.3774 -14.573 -14.81 -12.6665 -9.2605 -17.1714 -16.5399 -15.1864 -18.1418 -20.412 -14.0732 -12.248 -17.0813 -13.8078 -14.8872 -14.1 -16.2296 -11.7084 -11.4538 -19.335 -27.0866 -24.9992 
