-4.759 
n/a 
n/a 
n/a 
n/a 
-4.759 
n/a 
n/a 
n/a 
n/a 
-4.759 
n/a 
n/a 
n/a 
n/a 
-4.759 
n/a 
n/a 
n/a 
n/a 
-5.1465 0 0 -1.934 -3.8735 0 -1.8085 -4.057 -3.614 0 -2.882 -8.5275 -5.1465 -3.531 -5.1465 0 -6.4405 0 -22.2835 0 0 -10.306 0 -4.975 0 0 -8.505 0 -3.5195 -10.108 0 0 -10.4975 0 -3.508 -4.975 0 -3.115 -3.614 -1.756 -12.16972 -3.075 -3.809 -3.8735 0 -1.8085 -3.6085 -3.614 -3.152 -4.254 -2.3345 -3.595 -2.5045 -3.6285 0 
-5.1465 0 -1.934 -4.885 -3.8735 -1.8085 -5.399 -7.548 -3.614 -2.882 -10.8455 -12.8765 -8.718 -7.8365 -5.1465 -6.4405 -6.4405 -19.691 -19.691 0 -10.306 -10.306 -4.975 -4.975 0 -8.505 -8.505 -3.5195 -8.675 -6.028501 0 -10.4975 -10.4975 -3.508 -7.943501 -4.975 -3.115 -8.080501 -4.8565 -14.93432 -15.24472 -6.702 -7.7665 -3.8735 -1.8085 -6.34 -7.974501 -6.154 -7.2015 -6.5645 -5.597 -5.227 -5.914001 -3.6285 
-5.1465 -1.934 -4.885 -4.885 -6.283 -5.399 -10.057 -7.548 -6.4085 -11.0501 -12.6536 -14.0387 -9.785 -7.8365 -12.2702 -6.4405 -26.9702 -20.0617 -20.0617 -10.306 -10.306 -15.281 -4.975 -4.975 -8.505 -8.505 -12.4605 -10.304 -10.304 -6.028501 -10.4975 -10.4975 -14.1187 -7.943501 -7.943501 -9.344001 -8.080501 -9.479001 -19.13342 -18.00932 -18.87172 -11.2327 -7.7665 -6.283 -6.34 -11.3714 -10.9695 -8.888 -8.37 -8.956 -7.081 -9.188001 -5.914001 
-7.0605 -4.885 -4.885 -6.876 -10.1345 -10.057 -10.057 -11.1249 -15.2256 -12.6536 -16.6103 -15.1057 -9.785 -15.3934 -12.2702 -26.9962 -26.9962 -20.0877 -31.5625 -10.306 -15.281 -15.281 -4.975 -14.1106 -8.505 -12.4605 -19.245 -10.304 -10.304 -18.5646 -10.4975 -14.1187 -18.5542 -7.943501 -12.6613 -14.5063 -9.479001 -23.75592 -22.20842 -21.63632 -23.40242 -11.2327 -9.832001 -11.2833 -11.3714 -14.3664 -13.7035 -10.9749 -10.7575 -10.8152 -11.1032 -9.188001 
-10.1465 -4.885 -6.876 -10.749 -14.7925 -10.057 -13.7881 -19.942 -16.8291 -16.6103 -17.6773 -15.1057 -17.7451 -15.3934 -32.8259 -26.9962 -26.9962 -31.5625 -31.5625 -15.281 -15.281 -15.281 -14.1106 -14.1106 -12.4605 -19.245 -19.245 -10.304 -22.4657 -18.5646 -14.1187 -18.5542 -18.5542 -12.6613 -17.8236 -15.9048 -23.75592 -26.83092 -25.83542 -26.16702 -23.40242 -13.2982 -14.9137 -16.3147 -14.3664 -17.1004 -15.7904 -13.3624 -12.6167 -14.8374 -11.1032 
-1.7695 -5.1465 0 0 -4.378 -1.7565 -3.8735 0 -2.882 -5.129 -1.7695 -3.3985 -8.6775 -5.1465 0 -6.4405 -22.2835 0 0 -12.16972 0 -4.975 0 0 -8.505 0 -3.5195 -10.108 0 0 -8.425 0 -3.508 -4.975 0 0 -1.934 -3.1495 -4.535 -1.756 -3.074 -12.16972 -2.4285 -3.809 -3.8735 -4.535 -2.9805 -4.254 -2.5045 -1.8085 -3.758 0 
-7.668001 -5.1465 0 -4.378 -6.1755 -5.112 -3.8735 -2.882 -7.496 -7.301001 -5.6125 -11.368 -13.0235 -5.1465 -6.4405 -26.888 -20.08 0 -12.16972 -12.16972 -4.975 -4.975 0 -8.505 -8.505 -3.5195 -8.675 -6.028501 0 -8.425 -8.425 -3.508 -7.943501 -4.975 0 -1.934 -4.5395 -7.246 -5.679501 -4.566 -16.24412 -14.59822 -6.113 -7.7665 -8.98 -7.3065 -5.5985 -5.522 -3.3625 -5.6505 -3.758 
-7.668001 -5.1465 -4.378 -6.1755 -9.437 -5.112 -6.9865 -7.496 -9.243501 -9.785001 -14.1947 -12.8202 -9.785 -12.2702 -27.6007 -27.6007 -20.7927 -12.16972 -12.16972 -17.14472 -4.975 -4.975 -8.505 -8.505 -12.4605 -10.304 -10.304 -6.028501 -8.425 -8.425 -12.1906 -7.943501 -7.943501 -4.975 -1.934 -4.5395 -8.278501 -8.418 -8.448501 -17.92212 -18.67262 -18.28272 -10.9641 -13.3952 -12.0145 -9.422001 -6.3975 -5.7455 -7.603 -5.6505 
-7.668001 -9.3105 -6.1755 -9.437 -9.437 -8.0635 -11.9325 -9.243501 -11.9501 -14.7172 -15.2617 -12.8202 -17.7451 -33.4304 -27.6007 -27.6007 -34.13122 -12.16972 -17.14472 -17.14472 -4.975 -14.1106 -8.505 -12.4605 -19.245 -10.304 -10.304 -16.4921 -8.425 -12.1906 -16.6261 -7.943501 -7.943501 -6.972001 -4.5395 -8.278501 -9.192 -11.3148 -22.00182 -20.35062 -22.35712 -23.13382 -16.5928 -16.4297 -14.13 -10.6225 -6.568501 -10.6215 -7.603 
-12.1482 -11.3636 -9.437 -9.437 -12.4685 -13.2547 -13.68 -11.9501 -16.8823 -15.7842 -15.2617 -20.7803 -38.9053 -33.4304 -27.6007 -40.93922 -34.13122 -17.14472 -17.14472 -17.14472 -14.1106 -14.1106 -12.4605 -19.245 -19.245 -10.304 -20.3932 -16.4921 -12.1906 -16.6261 -16.6261 -7.943501 -9.191501 -10.185 -8.278501 -9.192 -12.2686 -24.86812 -24.43032 -24.03512 -27.20822 -28.76252 -19.6273 -18.5452 -15.3305 -10.7935 -11.7023 -10.6215 
-5.1465 0 0 -4.057 -3.8735 0 -2.882 -22.7965 0 -7.0765 0 -22.2835 0 0 -12.16972 0 -4.975 0 0 -8.505 0 -3.5195 -10.108 0 0 -8.425 0 -4.975 0 -1.756 -12.16972 -2.4285 -3.809 -3.8735 -2.4945 -1.4985 -4.379 -3.074 -3.6705 -2.3345 -8.395 0 
-5.1465 0 -4.057 -8.484501 -3.8735 -2.882 -22.2575 -19.8905 -7.0765 -7.0765 -19.691 -19.691 0 -12.16972 -12.16972 -4.975 -4.975 0 -8.505 -8.505 -3.5195 -8.675 -6.028501 0 -8.425 -8.425 -4.975 -4.975 -1.756 -14.93432 -14.59822 -6.113 -7.7665 -6.502501 -3.9315 -6.355 -7.869 -6.1185 -6.631001 -10.4945 -8.395 
-5.1465 -4.057 -8.484501 -8.484501 -6.9865 -17.068 -17.068 -22.7397 -7.0765 -27.3897 -20.0617 -20.0617 -12.16972 -12.16972 -17.14472 -4.975 -4.975 -8.505 -8.505 -12.4605 -10.304 -10.304 -6.028501 -8.425 -8.425 -13.6576 -4.975 -6.826 -14.93432 -17.36282 -18.28272 -10.9641 -10.9177 -7.8755 -8.7335 -9.09 -11.2621 -9.923 -15.061 -10.4945 
-9.6435 -8.484501 -8.484501 -12.2469 -21.5045 -17.068 -25.1077 -22.7397 -27.4157 -27.4157 -20.0877 -33.42622 -12.16972 -17.14472 -17.14472 -4.975 -14.1106 -8.505 -12.4605 -19.245 -10.304 -10.304 -16.4921 -8.425 -13.6576 -13.6576 -6.826 -20.70092 -17.36282 -21.04732 -23.13382 -14.1153 -12.2907 -13.0151 -11.7053 -12.6039 -15.0666 -18.4002 -15.061 
-14.2008 -8.484501 -12.2469 -26.7649 -21.5045 -25.1077 -25.1077 -43.0789 -27.4157 -27.4157 -33.42622 -33.42622 -17.14472 -17.14472 -17.14472 -14.1106 -14.1106 -12.4605 -19.245 -19.245 -10.304 -20.3932 -16.4921 -13.6576 -13.6576 -15.5086 -20.70092 -23.12942 -21.04732 -25.89842 -26.28502 -15.4883 -17.4303 -15.9869 -15.2192 -16.4084 -23.5438 -18.4002 
-5.1465 0 0 -1.934 -1.8085 -4.057 -3.849 -3.8735 0 -2.882 -3.9985 -3.3985 -8.6775 -5.1465 0 -7.0765 0 -22.2835 0 0 -10.37 0 -4.975 0 0 -8.505 0 -3.5195 -10.108 0 0 -8.425 0 -3.508 -4.975 0 -1.756 -3.074 -1.934 -1.8085 -3.6085 -3.852 -3.849 -12.16972 -2.4285 -3.809 -3.8735 -2.9805 -4.254 -2.5045 -3.925 0 
-5.1465 0 -1.934 -3.2685 -5.399 -8.023001 -8.059501 -3.8735 -2.882 -6.151 -6.9895 -11.368 -13.0235 -5.1465 -7.0765 -7.0765 -19.691 -19.691 0 -10.37 -10.37 -4.975 -4.975 0 -8.505 -8.505 -3.5195 -8.675 -6.028501 0 -8.425 -8.425 -3.508 -7.943501 -4.975 -1.756 -4.566 -4.93 -3.2685 -6.34 -7.497001 -6.898001 -16.17932 -14.59822 -6.113 -7.7665 -6.729 -5.5985 -5.522 -6.3475 -3.925 
-5.1465 -1.934 -3.2685 -7.0505 -9.018001 -12.6705 -8.059501 -6.9865 -6.151 -9.083 -15.8976 -12.8202 -9.785 -12.9062 -7.0765 -27.3897 -20.0617 -20.0617 -10.37 -10.37 -15.345 -4.975 -4.975 -8.505 -8.505 -12.4605 -10.304 -10.304 -6.028501 -8.425 -8.425 -12.1906 -7.943501 -7.943501 -6.826 -4.566 -6.0865 -6.57 -8.4855 -10.6735 -9.546 -19.36992 -18.60782 -18.28272 -10.9641 -10.1 -9.026001 -6.3975 -8.4215 -6.3475 
-7.0605 -3.2685 -7.0505 -11.0575 -13.9855 -12.6705 -11.5959 -10.4505 -9.083 -18.6953 -16.9646 -12.8202 -18.3811 -12.9062 -27.4157 -27.4157 -20.0877 -31.6265 -10.37 -15.345 -15.345 -4.975 -14.1106 -8.505 -12.4605 -19.245 -10.304 -10.304 -16.4921 -8.425 -12.1906 -16.6261 -7.943501 -9.3855 -9.5655 -6.0865 -7.555501 -11.998 -13.0898 -12.7225 -22.37332 -21.79842 -22.29232 -23.13382 -13.2976 -12.5374 -9.615001 -9.1245 -8.4215 
-8.88 -7.0505 -11.0575 -16.025 -13.9855 -16.2069 -15.0599 -13.3825 -18.6953 -19.7623 -16.9646 -21.4163 -18.3811 -33.2454 -27.4157 -27.4157 -31.6265 -31.6265 -15.345 -15.345 -15.345 -14.1106 -14.1106 -12.4605 -19.245 -19.245 -10.304 -20.3932 -16.4921 -12.1906 -16.6261 -16.6261 -9.3855 -12.3422 -10.3365 -7.555501 -13.0749 -16.6023 -15.1388 -25.54982 -24.80182 -25.48292 -27.14342 -25.46732 -15.735 -13.1264 -12.1502 -9.1245 
