-4.759 
n/a 
n/a 
n/a 
n/a 
-4.759 
n/a 
n/a 
n/a 
n/a 
-4.759 
n/a 
n/a 
n/a 
n/a 
-4.759 
n/a 
n/a 
n/a 
n/a 
-1.4985 -8.237 -3.59 -2.7415 -4.09 -1.934 -3.0435 0 -1.756 -3.824 -3.433 0 
-9.090501 -10.981 -6.039001 -5.289001 -5.2875 -4.8565 -3.0435 -1.756 -5.4855 -7.847 -3.433 
-11.0045 -12.651 -9.182501 -6.215 -9.203501 -4.8565 -4.5065 -5.4855 -9.285501 -7.847 
-13.4902 -15.8613 -10.075 -10.5624 -9.203501 -5.9805 -9.021501 -9.285501 -9.285501 
-16.7005 -16.7538 -14.4734 -10.5624 -10.168 -10.543 -12.9549 -9.285501 
-4.518 -3.519 -2.264 -3.433 -1.756 -3.824 -3.6215 -3.5455 -4.684 -4.153 0 -5.712501 -4.4605 -1.8085 -3.8175 -3.9825 -1.934 -1.4985 -3.3825 -1.7565 -5.3435 0 -4.712 0 -5.264 -1.756 -4.4225 -3.9555 0 
-6.934 -5.686 -5.6855 -4.713 -5.4855 -7.338 -6.964001 -8.567501 -5.274 -4.153 -4.749001 -10.5445 -5.447001 -4.55 -5.9455 -4.624 -2.6125 -4.4135 -4.3095 -7.1825 -5.3435 -4.712 -4.712 -5.264 -6.287001 -6.005 -7.3665 -3.9555 
-9.414001 -10.028 -6.534501 -9.400001 -8.77 -10.3285 -12.5224 -8.8745 -5.274 -10.459 -10.543 -11.8035 -6.660501 -6.002501 -6.064 -5.1565 -5.2155 -4.563 -9.692501 -7.1825 -10.7335 -4.712 -9.6105 -6.287001 -9.4855 -9.1645 -7.3665 
-14.0434 -11.1612 -11.8599 -12.8701 -11.8417 -15.8869 -12.8294 -8.8745 -11.7625 -16.253 -11.8035 -13.0558 -6.7175 -6.097 -6.573 -6.438 -5.3605 -9.832001 -9.692501 -12.9941 -10.7335 -9.6105 -11.2035 -9.4855 -12.7544 -9.1645 
-15.1766 -16.4866 -15.33 -15.9418 -17.4001 -16.1939 -12.8294 -15.453 -17.5565 -17.5135 -13.0558 -13.1128 -6.797 -6.5955 -7.66 -6.508 -10.7697 -9.832001 -15.6471 -12.9941 -15.632 -11.2035 -14.402 -12.7544 -12.7544 
-5.036 -2.3335 -2.7415 -1.8085 -5.827 -3.9665 -1.934 -3.655 -1.756 -4.283 -3.433 0 -2.8645 -1.8085 -3.4155 -3.9825 -1.934 -1.4985 -4.02 -7.778501 -3.115 -3.2895 0 -4.712 0 -5.264 -1.756 -4.698 -4.6605 0 
-7.5285 -4.2725 -3.891 -6.7725 -7.2085 -5.47 -5.7665 -4.9815 -5.6395 -6.9375 -3.433 -2.8645 -3.9785 -4.0495 -6.926001 -4.624 -2.6125 -4.969501 -13.2411 -10.688 -8.099001 -3.2895 -4.712 -4.712 -5.264 -6.287001 -6.6535 -8.807501 -4.6605 
-8.499001 -5.469501 -8.4495 -7.254 -7.2615 -9.045001 -6.6875 -8.821 -7.6905 -6.9375 -5.76 -3.9785 -5.7495 -7.077001 -7.642 -5.1565 -5.589 -14.9392 -16.1506 -15.672 -8.099001 -8.581501 -4.712 -9.6105 -6.287001 -10.5035 -11.133 -8.807501 
-9.9895 -10.0505 -9.243 -7.279 -12.2353 -9.995501 -10.2535 -10.66 -7.6905 -9.561 -7.319 -5.7495 -8.6075 -7.691501 -8.169001 -8.679501 -16.1667 -17.8487 -21.1346 -15.672 -14.0236 -8.581501 -9.6105 -11.2035 -10.5035 -14.983 -11.133 
-15.4135 -11.1564 -9.756001 -12.5756 -13.1858 -13.6517 -12.0925 -10.66 -10.733 -11.2908 -8.969501 -8.6075 -9.0305 -8.217501 -11.8434 -19.372 -19.0762 -22.8327 -21.1346 -21.5966 -14.0236 -13.9628 -11.2035 -15.42 -14.983 -14.983 
-3.7875 -3.7905 -1.8085 -5.0645 -3.9665 -1.934 -4.569 -1.756 -4.1115 -4.134 -1.934 -1.4985 -4.684 -4.153 0 -1.4985 -3.4225 -4.0965 -4.303 -1.8085 -3.8175 -3.9825 -1.934 -4.216 -1.4985 -3.641 -2.229 -4.414 -3.115 -4.256 0 -4.712 0 -9.333 -1.756 -5.133 -4.6605 
-6.823 -4.255 -6.055 -7.888 -5.47 -6.431 -5.774 -5.7375 -8.087501 -5.434 -2.6125 -5.553 -5.274 -4.153 -1.4985 -3.9655 -4.2 -9.123001 -5.363 -4.55 -5.9455 -4.624 -5.044 -5.454 -4.644 -6.004001 -6.0445 -7.327 -8.1695 -4.256 -4.712 -4.712 -9.333 -10.513 -6.571 -6.907001 
-7.5845 -8.458501 -8.1765 -8.937 -9.832001 -7.606501 -10.7685 -10.3271 -9.943001 -6.007501 -6.1695 -5.7765 -5.274 -5.544001 -3.9655 -5.179 -9.3455 -9.578501 -6.5135 -6.002501 -6.064 -6.6895 -6.106 -8.719501 -6.6375 -10.181 -8.987 -12.7543 -8.1695 -9.794001 -4.712 -15.101 -10.513 -15.328 -8.5205 
-11.8992 -9.738501 -9.0985 -13.5676 -11.1779 -12.8134 -15.3581 -12.1826 -10.2795 -10.118 -6.261 -5.7765 -6.609 -7.723001 -5.179 -9.4565 -9.870501 -10.278 -6.5835 -6.097 -8.035 -7.39 -9.446501 -10.564 -11.3171 -13.2417 -14.7985 -12.7543 -14.0817 -9.794001 -15.101 -16.281 -15.328 -17.2775 
-13.1792 -10.5665 -13.8039 -14.9135 -16.3848 -17.403 -17.2136 -12.5191 -14.39 -10.1955 -6.261 -6.7875 -8.724 -9.062 -9.4565 -9.9045 -10.738 -10.373 -6.634 -8.052 -8.5535 -10.467 -11.4228 -15.2436 -14.3778 -19.0532 -14.7985 -18.6665 -14.0817 -20.2482 -16.281 -21.096 -17.2775 
