-4.759 
n/a 
n/a 
n/a 
n/a 
-4.759 
n/a 
n/a 
n/a 
n/a 
-4.759 
n/a 
n/a 
n/a 
n/a 
-4.759 
n/a 
n/a 
n/a 
n/a 
-1.8085 -5.3085 -2.4285 -5.5035 -4.4845 0 -4.2135 -3.6885 -12.16972 0 0 -3.9815 -4.4845 0 -2.186 -1.8085 -3.593 -1.7565 -3.4715 -4.828 -4.413 -2.3345 -1.4985 -5.288 -1.7565 -1.8085 -3.6885 -3.957 -1.7565 -1.8085 -3.7435 -1.7565 -3.4715 0 -4.0955 -2.664 -4.3355 0 -2.872 -2.7765 -4.474 -1.934 -3.6885 -4.645 
-6.4585 -7.745501 -7.488 -6.4965 -4.4845 -4.2135 -6.1705 -17.06062 -12.16972 0 -3.9815 -9.0255 -4.4845 -2.186 -3.164 -4.638 -4.507 -4.699 -7.135 -7.901 -4.6955 -3.233 -6.3 -6.152 -3.2595 -4.3555 -6.179501 -5.0905 -3.2595 -5.3785 -4.905 -4.699 -3.4715 -4.0955 -6.513 -6.219501 -4.3355 -2.872 -5.226 -5.497001 -5.244 -5.257 -7.3205 
-8.2895 -9.439501 -8.818501 -6.4965 -8.983001 -6.1705 -20.25122 -17.06062 -12.16972 -3.9815 -9.0255 -9.0255 -6.4315 -3.164 -6.1295 -4.696 -7.7705 -7.9675 -10.2435 -7.9905 -5.413 -7.943 -6.693501 -7.4905 -5.616 -6.7025 -6.5445 -6.5565 -6.382 -6.0695 -6.305501 -4.699 -7.134501 -6.513 -10.238 -6.219501 -7.066501 -5.226 -7.64 -6.350501 -7.942 -8.459001 
-9.791 -9.5325 -8.818501 -11.6954 -11.1026 -20.25122 -20.25122 -17.06062 -16.15122 -9.0255 -9.0255 -11.5915 -7.382 -6.1295 -6.169 -8.1245 -10.0035 -11.4472 -10.2785 -8.643001 -8.969501 -8.205 -7.944001 -9.0825 -7.9775 -6.809 -9.1125 -9.102501 -6.9985 -6.898 -6.305501 -8.316 -10.1305 -10.238 -10.238 -8.5965 -9.475 -7.64 -8.252501 -9.055501 -10.085 
-9.828 -9.5325 -14.004 -13.815 -25.18332 -20.25122 -20.25122 -21.04212 -21.19522 -9.0255 -11.5915 -12.542 -9.703001 -6.169 -9.6365 -10.012 -13.973 -11.4822 -10.931 -12.4231 -9.080501 -9.357 -9.363001 -9.856501 -8.072001 -9.212501 -10.147 -9.863501 -7.5605 -6.898 -9.211 -10.76 -13.8555 -10.238 -12.615 -11.161 -11.8298 -8.252501 -10.749 -11.3763 
-5.3085 0 -4.2135 -3.8235 -3.757 0 -3.9815 -4.4845 0 0 -4.4995 -3.851 -1.7695 -1.4985 -2.871 -2.4285 -2.645 -4.6165 -4.4845 -4.017 -1.756 -3.882 -5.044 -5.288 -1.7565 -3.4715 -2.5195 -1.8085 -4.1115 -2.4285 -1.8085 -3.8645 0 
-5.3085 -4.2135 -7.1365 -6.886001 -3.757 -3.9815 -9.0255 -4.4845 0 -4.4995 -7.769501 -4.0015 -2.7955 -4.316 -4.4275 -4.1105 -7.258 -6.97 -7.508501 -5.202 -5.047 -8.432501 -8.8675 -6.152 -4.699 -5.5535 -3.8815 -5.798 -6.444 -4.126 -6.005 -3.8645 
-8.821 -7.1365 -9.74 -6.886001 -8.4005 -9.0255 -9.0255 -4.4845 -4.4995 -7.769501 -7.778501 -4.5775 -5.661 -5.921 -4.587 -8.026501 -10.204 -10.2595 -8.592001 -9.0085 -10.4265 -12.9748 -9.0465 -8.456 -6.463 -6.5595 -7.662 -8.195001 -8.025001 -7.946001 -6.005 
-10.5975 -9.74 -9.74 -11.5159 -13.8415 -9.0255 -9.0255 -9.394501 -7.769501 -7.778501 -8.300501 -7.9185 -7.1055 -5.978 -8.637 -11.3987 -13.4935 -11.343 -12.5251 -14.2682 -14.9688 -13.1538 -9.9785 -9.599 -7.4605 -9.781 -9.816501 -8.9755 -9.031501 -7.946001 
-13.201 -9.74 -14.3699 -16.9569 -13.8415 -9.0255 -14.5545 -12.8211 -7.778501 -8.300501 -11.7803 -9.9775 -7.1505 -9.88 -12.2078 -14.6882 -14.577 -15.2761 -17.7848 -18.8105 -15.1478 -14.0858 -11.1937 -10.6755 -10.8494 -10.114 -11.063 -9.663501 -9.031501 
-7.775001 -3.757 -4.3125 0 -2.871 -1.756 -2.645 -6.2155 -4.1115 -4.828 
-11.9876 -8.099 -4.3125 -2.871 -4.864 -3.898 -7.868501 -9.279501 -7.447001 
-16.3296 -8.099 -7.1845 -4.864 -7.59 -8.893001 -11.3319 -12.9458 
-16.3296 -11.3242 -8.4735 -7.59 -12.9322 -12.3778 -14.9982 
-19.5548 -12.6132 -11.3929 -12.9322 -16.417 -16.0441 
-5.3085 -5.3285 -1.4985 -4.2995 -1.7565 -4.3125 -3.893 -1.7565 -3.4715 -2.5195 -2.871 -3.5015 -1.7695 -3.571 0 
-11.656 -5.9025 -5.2815 -5.232 -6.331 -6.0255 -4.1785 -4.699 -5.5535 -4.743 -5.183 -4.5585 -4.6785 -3.571 
-12.23 -9.700001 -5.732501 -9.2345 -8.676001 -6.081 -6.1655 -6.463 -7.627501 -6.4635 -6.3245 -6.6015 -4.6785 
-16.0275 -9.9425 -9.515 -11.8415 -8.718 -8.4265 -8.2305 -8.354501 -8.865001 -6.593 -6.631 -6.6015 
-16.27 -13.7254 -12.1524 -11.8835 -11.2217 -10.155 -10.3225 -9.6905 -8.924001 -6.6375 -6.631 
