-4.759 
n/a 
n/a 
n/a 
n/a 
-4.759 
n/a 
n/a 
n/a 
n/a 
-4.759 
n/a 
n/a 
n/a 
n/a 
-4.759 
n/a 
n/a 
n/a 
n/a 
-3.9225 -1.4985 -3.948 -4.017 -1.7565 -4.3055 -6.341 0 -10.3565 -5.5055 -2.186 -1.4985 -3.17 -4.4695 -2.871 0 
-4.463 -4.7695 -5.906 -4.8305 -6.1225 -7.64 -6.341 -10.3565 -16.0418 -7.1675 -3.339 -3.7115 -5.473001 -7.1955 -2.871 
-6.419 -6.757 -6.095 -9.3205 -8.248 -7.64 -17.3405 -16.0418 -17.7038 -8.571501 -4.888 -5.7745 -7.8765 -7.1955 
-8.655001 -6.8435 -10.253 -10.758 -8.248 -19.0905 -23.0258 -17.7038 -19.1078 -10.0215 -7.0265 -7.953501 -7.8765 
-8.7045 -10.6205 -11.8079 -10.758 -19.8477 -24.7758 -24.6878 -19.1078 -20.5578 -12.16 -8.878 -7.953501 
-3.383 -4.4695 -9.682501 -3.7435 -2.5045 -6.648 -2.186 -9.186001 -3.1435 -9.862 -1.7565 -4.1465 -3.8385 0 
-6.6995 -14.9272 -13.7438 -5.98 -9.906501 -8.585501 -12.5824 -12.6937 -14.2003 -11.6185 -5.8335 -8.588 -3.8385 
-17.5136 -18.9885 -15.9803 -14.0206 -11.9328 -19.5757 -16.0901 -23.7505 -15.9568 -15.6955 -10.1305 -8.588 
-21.5749 -21.225 -24.0209 -16.0469 -22.923 -23.0834 -27.1469 -25.507 -20.0338 -19.9925 -10.1305 
-23.8114 -29.2656 -26.0472 -27.0371 -26.4307 -34.1402 -28.9034 -29.584 -24.3308 -19.9925 
-12.16972 -12.16972 -12.16972 -9.186001 -10.2885 -2.186 -3.383 -4.4695 -5.2045 -2.8645 -3.1125 -4.1465 -4.0265 -1.7565 -4.1465 -3.074 0 
-24.33944 -24.33944 -21.35572 -19.8387 -12.4745 -4.438 -6.6995 -9.0495 -6.77 -3.5345 -8.843 -7.381001 -4.985 -5.8335 -7.726 -3.074 
-36.50916 -33.52544 -32.00842 -22.0247 -14.7265 -7.6475 -10.7005 -10.4355 -6.7305 -9.6745 -12.3547 -9.16 -8.467 -9.117001 -7.726 
-45.69516 -44.17814 -34.19442 -24.2767 -17.936 -11.8045 -11.6325 -11.0785 -13.283 -13.215 -14.1337 -12.9998 -12.3285 -9.117001 
-56.34786 -46.36414 -36.44642 -27.4862 -22.093 -13.1025 -12.363 -17.6617 -16.9647 -14.994 -17.9735 -16.8613 -12.3285 
-4.3055 -6.341 -9.186001 -6.2805 -2.186 -3.383 -3.6975 -1.756 -2.3615 -4.4385 -2.186 -12.16972 -2.186 -3.074 -3.6975 
-7.64 -11.1355 -15.8307 -8.192 -4.438 -5.5455 -5.6965 -4.4615 -6.924 -6.318501 -15.56612 -14.35572 -4.156 -6.723001 
-12.8855 -17.7802 -17.7422 -11.6204 -6.5085 -6.733 -8.276001 -8.9595 -7.895 -20.15162 -17.75212 -16.32572 -7.3 
-19.5302 -19.6917 -21.1706 -13.6909 -7.440001 -8.895 -12.8926 -9.552501 -21.93392 -22.33762 -19.72212 -19.46972 
-21.4417 -23.1201 -23.2411 -14.6224 -9.620501 -13.5858 -13.4856 -23.63622 -24.11992 -24.30762 -22.86612 
