-4.759 
n/a 
n/a 
n/a 
n/a 
-4.759 
n/a 
n/a 
n/a 
n/a 
-4.759 
n/a 
n/a 
n/a 
n/a 
-4.759 
n/a 
n/a 
n/a 
n/a 
-2.4265 -2.186 -2.664 -3.699 -3.331 -1.7695 -3.6845 -2.664 -3.9555 -1.7565 -4.3905 -3.9655 -5.662 0 -2.664 -3.4295 0 -4.0205 0 -1.756 -8.573 -2.0935 -1.4985 -3.1385 0 
-3.292 -3.8555 -4.654 -7.304 -3.669 -4.2695 -5.545 -6.308001 -5.097 -6.1415 -8.635 -8.076 -5.662 -2.664 -4.8355 -3.4295 -4.0205 -4.0205 -1.756 -10.014 -11.205 -2.9725 -4.2575 -3.1385 
-5.11 -5.2675 -7.698 -7.967 -6.141 -6.01 -9.445001 -7.912001 -9.93 -9.804501 -13.0881 -8.076 -8.644 -4.8355 -4.8355 -8.3105 -4.0205 -5.399 -10.1505 -12.5875 -12.2225 -5.5795 -4.2575 
-6.52 -8.386001 -8.564 -10.485 -8.209001 -9.834001 -11.6358 -13.0108 -13.6966 -14.4954 -13.0881 -11.4164 -10.6745 -4.8355 -9.9405 -8.3105 -5.399 -14.7755 -12.5875 -13.497 -14.404 -5.5795 
-10.2375 -8.875001 -11.146 -12.553 -12.1214 -12.2508 -16.7346 -16.7774 -18.3875 -14.4954 -16.4285 -13.4469 -10.6745 -9.9405 -9.9405 -9.6665 -14.7755 -17.2125 -13.497 -15.6785 -14.404 
-3.97 -3.6885 -4.102 -1.7695 -3.383 -3.699 -2.0935 -4.9225 0 
-7.62 -8.382501 -5.5585 -5.849 -5.014 -5.118 -7.373001 -4.9225 
-13.8338 -10.304 -10.085 -8.049001 -6.1555 -9.8295 -7.373001 
-15.7553 -14.8305 -12.4048 -9.597501 -10.5635 -9.8295 
-20.2818 -17.1503 -13.9533 -14.0447 -10.5635 
-2.3345 -5.538 -3.9655 -5.036 -1.756 -4.0515 -1.8085 -4.884 -3.046 0 -2.9905 -4.9325 0 -4.4155 -4.132 -2.186 -5.311 -2.0935 -1.4985 -5.1035 -1.7565 -3.0435 -4.0805 -1.756 -3.1385 -2.229 -4.221 0 
-6.632501 -9.3365 -8.191501 -6.144 -5.3365 -4.9985 -6.8545 -7.729 -3.046 -2.9905 -7.816 -4.9325 -4.4155 -8.444 -6.076 -6.166 -7.278501 -2.9725 -6.0895 -5.786 -4.5275 -6.346001 -5.144 -5.0125 -4.6125 -5.725 -4.221 
-10.702 -13.8081 -9.198501 -9.142 -6.3145 -10.6465 -8.343 -7.729 -7.299001 -7.816 -7.816 -10.533 -8.444 -10.3105 -10.0785 -7.849501 -8.135 -7.233001 -6.146 -8.863001 -7.448 -7.4525 -7.088 -6.627 -5.9965 -5.725 
-15.1736 -14.8151 -12.2645 -10.348 -12.1969 -10.695 -8.343 -12.4738 -12.5085 -7.816 -13.3819 -14.5615 -10.3105 -14.313 -11.762 -8.611501 -12.5149 -7.258501 -9.2335 -10.5975 -8.553 -10.134 -9.1885 -7.8735 -5.9965 
-16.1806 -17.8811 -13.4705 -16.2304 -12.2454 -10.695 -13.4444 -17.6833 -12.5085 -13.3819 -17.4104 -16.428 -14.313 -15.9965 -12.524 -13.0674 -12.5404 -10.5864 -11.1292 -11.7025 -11.3533 -12.2345 -10.0195 -7.8735 
-2.4265 -2.186 -3.989 -2.3335 -1.4985 -3.4985 -1.7565 -3.9655 -5.8935 -1.756 -7.238 -3.307 -2.186 -4.079 -2.0935 -4.3035 -1.756 -4.5445 -1.7565 -4.221 
-3.292 -4.923 -6.359 -3.3515 -4.798 -4.622 -5.1895 -10.1075 -7.0015 -8.1395 -11.132 -5.4735 -5.386 -5.1445 -6.866 -5.571 -6.016 -4.771 -6.1875 
-6.239 -6.878 -7.874001 -6.7755 -5.425 -8.275001 -11.9751 -11.2155 -13.9162 -12.1893 -13.2985 -8.983001 -5.922 -9.6705 -7.909 -8.734 -6.305501 -6.9545 
-7.232 -8.577001 -11.382 -7.785501 -8.8695 -15.5906 -13.0831 -18.1302 -17.966 -14.3558 -16.808 -9.692 -10.5535 -10.6495 -11.4386 -8.738501 -8.5085 
-9.221001 -12.139 -12.392 -11.2558 -16.2843 -16.6986 -19.9978 -22.18 -20.1325 -17.8653 -17.517 -14.4681 -11.5325 -14.1791 -11.4431 -11.9705 
