-4.759 
n/a 
n/a 
n/a 
n/a 
-4.759 
n/a 
n/a 
n/a 
n/a 
-4.759 
n/a 
n/a 
n/a 
n/a 
-4.759 
n/a 
n/a 
n/a 
n/a 
-5.891 -4.4675 -2.186 -3.402 -2.264 -4.2705 0 -3.213 0 -4.6555 -1.756 -4.2655 
-9.908501 -6.31 -4.6135 -3.793 -6.6765 -4.2705 -3.213 -3.213 -4.6555 -5.774 -5.637 
-11.751 -7.507501 -4.731 -7.763 -6.6765 -8.525001 -3.213 -8.3955 -5.774 -9.224001 
-12.9485 -7.577001 -9.305 -7.763 -11.9242 -8.525001 -8.3955 -8.922001 -9.224001 
-13.018 -12.371 -9.305 -13.3301 -11.9242 -13.9873 -8.922001 -12.8048 
-5.891 -4.2655 -4.7615 0 -3.705 0 -5.4075 -1.756 -2.8965 -3.1575 -5.6055 0 
-8.09 -10.3225 -4.7615 -3.705 -3.705 -5.4075 -6.278501 -3.751 -4.4055 -9.343 -5.6055 
-14.7618 -10.3225 -8.426001 -3.705 -8.9195 -6.278501 -9.0465 -6.5695 -10.733 -9.343 
-14.7618 -13.987 -8.426001 -8.9195 -9.4925 -9.0465 -12.0914 -13.5094 -10.733 
-18.4263 -13.987 -14.1515 -9.4925 -12.5959 -12.0914 -19.0313 -13.5094 
-5.891 -4.0395 -2.7415 -3.402 -2.264 -4.2705 0 -4.351 0 -4.886 -1.756 -2.8965 -3.7375 -7.384 0 
-8.547501 -6.299 -5.4985 -3.793 -6.6765 -4.2705 -4.351 -4.351 -4.886 -5.9995 -3.751 -7.892 -10.1115 -7.384 
-10.523 -8.6035 -5.617001 -7.763 -6.6765 -10.078 -4.351 -7.563001 -5.9995 -8.0135 -8.947001 -14.242 -10.1115 
-12.8275 -8.6885 -9.7325 -7.763 -13.4772 -10.078 -7.563001 -8.826 -8.0135 -13.4229 -15.3788 -14.242 
-12.9125 -12.8752 -9.7325 -14.8831 -13.4772 -13.29 -8.826 -10.9696 -13.4229 -19.8547 -15.3788 
-5.891 -4.2655 -2.8645 -4.2705 0 -3.972 -1.756 -3.9285 -5.0075 -1.7695 -3.277 
-8.09 -6.6745 -8.303 -4.2705 -3.972 -5.173 -5.3565 -9.668 -5.113 -4.619 
-11.1138 -12.5944 -8.303 -8.3555 -5.173 -9.79 -11.8628 -9.758 -7.3165 
-17.0337 -12.5944 -12.8384 -9.956 -9.79 -16.3449 -11.9528 -12.1685 
-17.0337 -17.1298 -14.4389 -14.573 -16.3449 -16.4349 -14.3633 
