-4.759 
n/a 
n/a 
n/a 
n/a 
-4.759 
n/a 
n/a 
n/a 
n/a 
-4.759 
n/a 
n/a 
n/a 
n/a 
-4.759 
n/a 
n/a 
n/a 
n/a 
-1.934 -1.4985 -4.2775 -3.4425 -1.4985 -4.532 -4.58 -1.7565 -1.4985 -6.5175 -3.1385 0 -1.756 -6.5175 -3.1385 -3.511 -3.0365 -1.934 -1.4985 -4.4445 -1.7565 -4.632501 0 
-2.6125 -5.1745 -7.1075 -5.1395 -5.751 -8.651501 -5.597001 -2.4195 -7.340501 -8.481001 -3.1385 -1.756 -8.043501 -8.481001 -5.979 -6.0405 -5.238 -2.6125 -5.4015 -5.1695 -5.9635 -3.881 
-5.7755 -7.792 -9.045 -8.9965 -9.372001 -9.734 -6.137501 -8.138 -8.867001 -8.481001 -4.6325 -8.043501 -9.894001 -11.4763 -7.6425 -7.6735 -5.721 -6.746 -5.565 -8.334001 -6.065001 
-8.207001 -9.389 -12.9318 -12.6545 -10.108 -10.506 -12.7472 -9.414001 -8.867001 -9.6695 -10.7025 -9.894001 -12.8893 -13.1398 -9.278501 -8.342501 -10.2837 -6.9185 -9.109 -7.893001 
-9.634001 -13.2928 -16.5898 -13.3905 -10.765 -17.1157 -14.0232 -9.414001 -9.927501 -15.8313 -12.553 -12.8893 -14.5528 -14.7758 -10.026 -13.111 -10.4562 -9.438001 -9.071501 
-3.502 -5.213 
-9.2075 
n/a 
n/a 
n/a 
-1.934 -1.4985 -4.02 -3.8195 0 -2.5045 -3.543 -1.4985 -4.8875 -1.756 -2.3345 -1.4985 -3.6205 0 -2.871 -3.859 -1.7565 -3.277 -2.4945 -6.899 -4.1455 -2.4945 -5.5495 0 
-2.6125 -4.969501 -7.3725 -3.8195 -2.5045 -5.323 -5.62 -6.547 -6.4915 -4.614 -3.233 -4.755 -3.6205 -2.871 -5.348001 -5.23 -4.25 -5.237 -9.543501 -12.0549 -5.8435 -7.365 -5.5495 
-5.589 -8.160501 -7.3725 -5.797 -5.323 -5.8685 -11.1767 -8.2515 -9.091001 -5.34 -6.4275 -4.755 -6.7215 -5.348001 -5.528 -7.204 -5.3725 -12.2846 -15.2136 -13.7529 -9.606501 -7.365 
-8.525001 -8.160501 -9.6075 -8.481 -5.8685 -11.638 -12.8812 -10.494 -9.708501 -9.393 -6.4275 -8.017 -9.130501 -5.528 -7.568501 -8.119 -12.5097 -17.9547 -16.9116 -17.5159 -9.606501 
-8.525001 -10.3605 -12.3793 -8.929 -11.638 -13.3425 -15.1237 -11.1115 -13.8411 -9.393 -9.540501 -10.322 -9.243 -7.568501 -8.4215 -15.4434 -18.1798 -19.6527 -20.6746 -17.5159 
-1.934 -4.2775 -4.5685 0 -4.067 -2.871 -3.859 -1.7565 -4.02 -2.4945 -6.5175 -3.851 -1.7695 -5.7565 -1.756 -4.532 -6.5175 -5.25 0 
-5.5535 -6.9195 -4.5685 -4.067 -6.318001 -5.348001 -5.23 -5.4345 -6.378 -9.031 -10.543 -4.0015 -7.9175 -6.9655 -6.0255 -12.1521 -9.8485 -5.25 
-8.129001 -6.9195 -8.773001 -6.318001 -7 -5.528 -8.979 -8.111 -10.5225 -13.2775 -10.56 -10.5745 -9.254001 -12.3292 -13.9974 -15.4831 -9.8485 
-8.129001 -11.5944 -10.2925 -7 -7.144001 -9.282001 -10.688 -12.3851 -14.769 -13.2945 -17.133 -11.911 -14.9079 -20.3011 -17.3284 -15.4831 
-12.8825 -13.1139 -10.767 -7.144001 -10.5525 -11.0534 -14.9621 -16.6316 -14.786 -19.8675 -18.4695 -17.5649 -22.8798 -23.6321 -17.3284 
