-4.759 
n/a 
n/a 
n/a 
n/a 
-4.759 
n/a 
n/a 
n/a 
n/a 
-4.759 
n/a 
n/a 
n/a 
n/a 
-4.759 
n/a 
n/a 
n/a 
n/a 
-4.698 -2.8645 -1.4985 -3.2895 -1.7695 -3.2345 -1.4985 -3.5035 -1.756 -3.757 -2.8645 -7.4715 -3.519 -1.7695 -3.2345 -1.4985 -3.5035 0 
-6.5245 -4.3545 -4.862 -4.985001 -3.713 -4.328 -4.4895 -4.74 -5.5175 -6.016 -10.763 -10.7145 -4.761 -3.713 -4.328 -4.4895 -3.5035 
-8.116 -7.2805 -5.677 -7.277 -4.717 -7.428 -5.6635 -8.664001 -8.4735 -14.3861 -14.6744 -13.5234 -6.2645 -4.717 -7.428 -4.4895 
-11.6418 -7.471 -7.932 -8.452001 -7.736501 -8.7995 -9.718 -11.941 -17.1508 -18.3865 -16.9409 -15.1769 -7.45 -7.736501 -7.428 
-11.8323 -9.243501 -8.771501 -11.7221 -9.2025 -13.1238 -12.9556 -20.6183 -21.1512 -20.653 -18.5944 -16.3624 -9.320001 -7.736501 
-3.098 -1.4985 -4.698 -1.756 -1.4985 -3.757 0 -4.645 -3.3255 -3.1385 -2.229 -4.037 0 -2.4945 -5.569 -1.7695 -4.204 -4.179 
-4.514 -5.740001 -5.804501 -3.0405 -4.5435 -3.757 -4.645 -7.739501 -6.842 -4.6125 -6.1965 -4.037 -2.4945 -6.719 -6.079 -6.0635 -8.913 
-9.101501 -6.908 -6.471001 -6.075 -4.5435 -7.066501 -7.739501 -11.7948 -7.709001 -8.085 -6.1965 -7.1455 -6.719 -6.9155 -9.838 -9.1155 
-10.4115 -7.443501 -8.580501 -6.075 -8.207001 -9.8785 -11.7948 -12.6618 -11.6143 -8.085 -8.470501 -11.7444 -6.9155 -10.8437 -13.0196 
-10.687 -9.0165 -8.580501 -9.856 -10.5425 -13.947 -12.6618 -16.5671 -11.6143 -10.526 -13.7852 -11.9409 -10.8437 -14.0253 
-1.4985 -4.698 -2.8645 -2.664 -4.0735 -1.7695 -3.5185 -3.84 -1.756 -1.4985 -3.757 -3.074 -2.8645 -1.4985 -3.486 -2.3345 -3.237 -4.498 0 
-5.740001 -6.5245 -4.7155 -6.0395 -5.056 -4.134 -7.3175 -4.8045 -3.0405 -4.5435 -6.851 -4.9765 -4.3545 -3.5655 -6.556 -5.602 -7.412001 -4.498 
-7.580501 -8.824501 -8.471001 -7.2695 -7.408501 -7.672 -8.328 -6.3865 -6.075 -7.0725 -8.351501 -6.069 -5.544 -6.607 -9.485001 -8.942 -7.412001 
-9.5725 -12.901 -9.163 -9.81 -9.171 -8.667001 -10.634 -9.93 -8.785 -8.459001 -9.001 -7.5935 -10.2325 -9.543 -13.6248 -8.942 
-13.671 -13.593 -11.8407 -11.6591 -9.4925 -10.749 -14.1775 -12.8406 -10.2325 -9.055 -11.1243 -12.3224 -13.1685 -13.8304 -13.6248 
-2.0935 -1.4985 -3.757 -3.0695 -4.0955 -5.334 -2.3345 -4.498 
-2.9725 -4.5435 -6.1235 -6.643001 -8.322001 -8.1905 -6.455501 
-6.277 -6.847 -9.908001 -9.928 -11.3895 -12.7251 
-8.392 -10.228 -13.193 -13.0167 -15.9241 
-11.8872 -13.513 -16.2817 -17.5513 
