-4.759 
n/a 
n/a 
n/a 
n/a 
-4.759 
n/a 
n/a 
n/a 
n/a 
-4.759 
n/a 
n/a 
n/a 
n/a 
-4.759 
n/a 
n/a 
n/a 
n/a 
-4.617 0 -6.3665 -7.3365 -10.377 0 -5.943501 0 0 -4.094 0 
-4.617 -6.3665 -14.0082 -18.4849 -10.377 -5.943501 -5.943501 0 -4.094 -4.094 
-11.142 -14.0082 -25.1566 -18.4849 -16.4925 -5.943501 -5.943501 -4.094 -4.094 
-18.7837 -25.1566 -25.1566 -24.6004 -16.4925 -5.943501 -11.1639 -4.094 
-29.9321 -25.1566 -31.2721 -24.6004 -16.4925 -11.1639 -11.1639 
-4.617 0 -6.3665 -7.3365 -10.377 0 -5.943501 0 0 -3.6455 0 
-4.617 -6.3665 -14.0082 -18.4849 -10.377 -5.943501 -5.943501 0 -3.6455 -3.6455 
-11.142 -14.0082 -25.1566 -18.4849 -16.4925 -5.943501 -5.943501 -3.6455 -3.6455 
-18.7837 -25.1566 -25.1566 -24.6004 -16.4925 -5.943501 -10.9315 -3.6455 
-29.9321 -25.1566 -31.2721 -24.6004 -16.4925 -10.9315 -10.9315 
-4.617 -6.3665 -7.3365 -12.16972 0 -5.943501 0 0 -4.094 0 
-11.142 -14.0082 -20.27762 -12.16972 -5.943501 -5.943501 0 -4.094 -4.094 
-18.7837 -26.94932 -20.27762 -18.11322 -5.943501 -5.943501 -4.094 -4.094 
-31.72482 -26.94932 -26.22112 -18.11322 -5.943501 -11.1639 -4.094 
-31.72482 -32.89282 -26.22112 -18.11322 -11.1639 -11.1639 
-4.617 -6.779 -7.3365 -12.16972 0 -5.943501 0 0 -10.6015 0 
-11.7902 -14.6037 -20.27762 -12.16972 -5.943501 -5.943501 0 -10.6015 -10.6015 
-19.6149 -27.54482 -20.27762 -18.11322 -5.943501 -5.943501 -10.6015 -10.6015 
-32.55602 -27.54482 -26.22112 -18.11322 -5.943501 -17.6714 -10.6015 
-32.55602 -33.48832 -26.22112 -18.11322 -17.6714 -17.6714 
