-4.759 
n/a 
n/a 
n/a 
n/a 
-4.759 
n/a 
n/a 
n/a 
n/a 
-4.759 
n/a 
n/a 
n/a 
n/a 
-4.759 
n/a 
n/a 
n/a 
n/a 
-2.9805 -2.7415 -4.2215 -1.934 -3.9785 -3.391 -6.378 -3.9535 -8.066 -9.178 -2.5045 -4.1985 0 -1.934 -5.3885 -8.840501 
-4.004 -4.7885 -4.885 -5.7575 -5.38 -9.678 -8.863001 -13.2073 -17.5716 -10.8025 -6.7585 -4.1985 -1.934 -6.4035 -15.1968 
-5.7885 -5.2365 -9.0965 -7.061501 -8.9735 -11.1295 -18.6548 -22.7129 -19.1961 -15.0565 -6.7585 -5.8505 -6.4035 -16.5386 
-6.226 -9.502001 -10.151 -11.19 -10.8605 -20.7496 -28.3292 -24.3374 -23.4501 -15.0565 -8.276501 -10.3885 -16.5386 
-10.3345 -10.759 -14.7191 -13.6572 -21.0277 -30.2552 -29.9537 -28.5914 -23.4501 -16.5745 -13.0101 -20.5236 
-9.634001 -3.584 -1.4985 -4.188 -3.3435 -3.284 -2.5045 -1.8085 -7.179 -2.7415 -1.8085 -3.9785 -3.3975 
-13.4752 -5.0595 -6.5935 -7.535 -6.671 -5.8915 -3.3625 -7.849 -7.772501 -3.891 -5.666 -8.603001 
-14.9507 -10.0815 -10.513 -11.5665 -10.1425 -6.5645 -8.2545 -8.3985 -8.76 -7.5205 -10.4105 
-19.9727 -14.1946 -14.9631 -15.038 -10.8155 -10.082 -8.688001 -9.118501 -11.8405 -12.7228 
-24.0858 -18.6447 -18.4346 -15.711 -14.2575 -10.821 -9.435 -12.6508 -17.6572 
-8.110001 -5.991 -1.934 -1.8085 -3.9785 -3.391 -3.3975 -1.7565 -6.1615 -2.9805 -3.0835 -4.254 -2.5045 -1.8085 -3.284 -4.1985 0 -3.321 -4.339 -3.222 -1.4985 -3.9655 -4.336 -1.7565 -1.4985 -5.965 -5.237 0 
-14.5474 -8.284 -3.2685 -5.666 -5.38 -6.839001 -4.960001 -7.756501 -9.153001 -5.948501 -7.212 -5.522 -3.3625 -4.997 -5.834001 -4.1985 -3.321 -6.196 -5.703 -3.7835 -4.9875 -6.6 -5.715001 -2.4195 -7.2945 -7.9445 -5.237 
-16.8404 -9.883 -6.9725 -6.677 -7.1545 -8.309501 -9.0115 -10.304 -12.2098 -8.0045 -8.109 -5.7455 -6.491 -6.9735 -5.834001 -7.3455 -6.196 -7.416 -6.197001 -6.97 -6.839 -8.536 -6.216001 -7.913501 -8.311001 -7.9445 
-18.4394 -13.6478 -7.651501 -7.6105 -8.578501 -12.6672 -10.7575 -13.3608 -14.2658 -8.595 -8.253 -8.224501 -7.765 -6.9735 -8.900001 -9.832001 -7.416 -7.9395 -9.2255 -8.9165 -8.757 -8.947001 -12.491 -8.789001 -8.311001 
-22.2042 -14.3268 -8.378501 -8.925 -13.1404 -14.4132 -13.8143 -15.4168 -14.8563 -8.7375 -10.6875 -8.766001 -7.765 -9.6075 -10.6885 -10.392 -7.9395 -11.0136 -11.6146 -10.4765 -9.1925 -15.4756 -13.3665 -8.789001 
-8.110001 -2.7415 -4.2215 -1.934 -1.8085 -3.9785 -3.391 -9.578501 -6.378 -3.9535 -3.091 -4.5925 -2.5045 -1.8085 -4.1985 -1.934 -5.965 -5.237 -5.4885 0 
-9.8325 -4.7885 -4.885 -3.2685 -5.666 -5.38 -13.5457 -15.883 -8.863001 -6.091001 -7.8275 -7.032001 -3.3625 -5.2985 -5.8505 -7.337 -7.9445 -11.8481 -5.4885 
-11.9607 -5.2365 -6.5425 -6.9725 -6.677 -16.5455 -19.8502 -18.3545 -9.7475 -8.97 -9.0755 -7.8575 -6.094501 -6.589 -10.7595 -9.207001 -14.7802 -11.8481 
-12.4087 -6.9585 -9.076501 -7.651501 -18.3355 -22.85 -22.3217 -19.323 -12.356 -9.500501 -9.321 -10.523 -7.1615 -11.7496 -12.6295 -16.0975 -14.7802 
-14.1307 -9.493501 -9.112 -19.8328 -24.64 -25.3215 -23.2902 -22.0115 -12.92 -9.7635 -12.0131 -11.59 -12.4173 -13.6196 -19.52 -16.0975 
