-4.759 
n/a 
n/a 
n/a 
n/a 
-4.759 
n/a 
n/a 
n/a 
n/a 
-4.759 
n/a 
n/a 
n/a 
n/a 
-4.759 
n/a 
n/a 
n/a 
n/a 
-1.4985 -3.9725 -1.7565 -12.16972 -4.673 -7.211 -1.7695 -3.091 -3.5015 -1.756 -4.9385 -3.5015 -2.0935 -3.595 -1.7695 -4.008 0 
-4.88 -4.9685 -14.87542 -16.84272 -12.8814 -10.0285 -4.458 -5.8855 -5.087 -6.2695 -8.949 -4.7905 -4.819 -4.634 -4.6125 -4.008 
-5.4975 -19.19002 -19.54842 -25.05112 -15.6989 -12.717 -7.106 -6.888 -9.6145 -10.761 -10.3415 -7.2305 -5.5825 -6.7885 -4.6125 
-19.88982 -23.86302 -27.75682 -27.86862 -18.3874 -15.365 -7.996001 -11.8663 -14.117 -12.1535 -12.7815 -7.756 -7.6825 -6.7885 
-24.56282 -32.07142 -30.57432 -30.55712 -21.0354 -16.255 -13.2633 -16.3688 -15.5095 -14.5935 -13.307 -9.184501 -7.6825 
-3.321 -4.379 -1.7695 -9.9495 -3.9725 0 -2.9805 -7.9935 -2.871 -4.806 -1.7695 -7.211 -2.0935 -3.8245 0 
-7.1895 -6.218 -12.7012 -14.0172 -3.9725 -2.9805 -9.4025 -11.1355 -7.297 -6.965 -9.665 -9.992001 -5.878 -3.8245 
-9.028501 -17.8593 -16.7689 -14.0172 -6.654 -9.4025 -12.7297 -15.5615 -9.803 -15.3105 -12.5236 -13.7765 -5.878 
-20.9528 -21.927 -16.7689 -16.6987 -13.3456 -12.7297 -17.1557 -18.0675 -18.9477 -18.1691 -16.3081 -13.7765 
-25.0205 -21.927 -19.4504 -23.3903 -16.6728 -17.1557 -19.6617 -27.2122 -21.8063 -21.9536 -16.3081 
-3.2615 -9.9495 -3.9725 -4.5915 -1.7695 -6.515501 0 -3.511 -1.7695 -8.066501 -1.934 -7.7885 0 
-14.3246 -14.0172 -9.18 -5.976501 -8.7935 -6.515501 -3.511 -5.814 -10.0475 -11.046 -10.586 -7.7885 
-18.3923 -19.2247 -9.968 -14.0321 -8.7935 -10.7335 -5.814 -14.8694 -14.0724 -19.698 -10.586 
-23.5998 -20.0127 -18.7578 -14.0321 -13.1795 -13.0365 -14.8694 -18.8943 -22.7244 -19.698 
-24.3878 -28.8025 -18.7578 -18.4181 -15.4825 -22.0919 -18.8943 -27.5463 -22.7244 
-3.2615 -9.9495 -3.9725 -4.5915 -1.7695 -6.515501 -7.7885 -1.756 -3.511 -8.066501 0 
-14.3246 -14.0172 -9.18 -5.976501 -8.7935 -14.8316 -9.745501 -5.11 -12.8307 -8.066501 
-18.3923 -19.2247 -9.968 -14.0321 -17.2776 -16.7886 -13.1573 -15.4391 -12.8307 
-23.5998 -20.0127 -18.7578 -22.5162 -19.2346 -20.2004 -23.4864 -15.4391 
-24.3878 -28.8025 -27.2419 -24.4732 -22.6464 -30.5295 -23.4864 
