-4.759 
n/a 
n/a 
n/a 
n/a 
-4.759 
n/a 
n/a 
n/a 
n/a 
-4.759 
n/a 
n/a 
n/a 
n/a 
-4.759 
n/a 
n/a 
n/a 
n/a 
-5.0075 0 -3.0695 -2.4945 -3.917 0 -2.4945 -5.227 -2.0935 -1.4985 -3.7535 -3.774 -3.074 0 
-5.0075 -3.0695 -4.2085 -5.7075 -3.917 -2.4945 -6.695 -7.477 -2.9725 -4.9135 -8.3295 -6.3005 -3.074 
-6.8955 -4.2085 -7.3145 -5.7075 -6.962501 -6.695 -9.7124 -8.038 -6.469 -9.5135 -11.1818 -6.3005 
-7.645 -7.3145 -7.3145 -8.526501 -11.531 -9.7124 -10.2734 -11.8949 -11.7474 -12.551 -11.1818 
-10.6735 -7.3145 -9.1855 -13.169 -14.5484 -10.2734 -14.1303 -17.1733 -14.7849 -12.551 
-5.0075 -4.77 -6.4645 -3.918 -1.756 -4.7275 -2.3615 -3.1385 0 
-10.3045 -12.3815 -10.4765 -6.752 -5.9595 -6.5115 -6.399 -3.1385 
-18.1214 -16.3935 -13.3105 -11.7193 -8.9165 -11.5778 -6.399 
-22.1334 -19.2275 -18.2778 -14.6763 -13.8868 -11.5778 
-24.9674 -24.1948 -21.2348 -19.6466 -13.8868 
-3.074 -4.645 -2.0935 -5.0075 -4.393 -3.8495 0 
-7.1385 -6.451001 -7.055 -7.9375 -5.463 -3.8495 
-8.8105 -12.4435 -10.4578 -7.9825 -5.463 
-14.822 -15.8463 -10.5028 -7.9825 
-18.2248 -15.8913 -10.5028 
-5.66 -1.4985 -5.0075 -3.0785 -3.2795 
-7.5045 -6.186501 -7.517 -6.476501 
-12.5709 -10.4855 -12.5946 
-16.8699 -15.5631 
-21.9475 
