-4.759 
n/a 
n/a 
n/a 
n/a 
-4.759 
n/a 
n/a 
n/a 
n/a 
-4.759 
n/a 
n/a 
n/a 
n/a 
-4.759 
n/a 
n/a 
n/a 
n/a 
-4.7615 -5.1845 -3.1385 -4.4755 0 
-10.172 -7.4095 -7.4645 -4.4755 
-12.6632 -12.1119 -7.4645 
-17.3656 -12.1119 
-17.3656 
-4.4755 -1.7565 -5.1845 -3.1385 -1.934 -3.995 
-5.392 -6.580501 -7.4095 -4.522 -6.139 
-11.018 -8.684001 -8.46 -9.243 
-13.1215 -9.513 -13.678 
-13.9505 -14.7354 
-5.1845 -3.1385 -2.229 -4.6975 -1.934 -1.4985 -3.995 0 
-7.4095 -4.6125 -6.2705 -6.2765 -2.6125 -4.712 -3.995 
-9.0015 -8.6555 -7.6485 -6.833 -6.1055 -4.712 
-13.3427 -9.889001 -8.179501 -9.938001 -6.1055 
-14.5762 -10.284 -11.4315 -9.938001 
-1.4985 -4.6385 -1.7565 -5.1845 -3.288 -1.934 -1.4985 -3.188 
-5.842501 -5.8995 -6.580501 -7.7045 -5.248 -2.6125 -3.619 
-6.443 -10.504 -9.7825 -8.656501 -5.947 -4.377 
-11.2063 -13.706 -10.5455 -9.282001 -7.141 
-14.4083 -14.469 -11.171 -10.7436 
