-4.759 
n/a 
n/a 
n/a 
n/a 
-4.759 
n/a 
n/a 
n/a 
n/a 
-4.759 
n/a 
n/a 
n/a 
n/a 
-4.759 
n/a 
n/a 
n/a 
n/a 
-5.7105 -5.9185 -2.229 -3.9195 -3.9535 -2.264 -3.486 -3.158 -1.7565 -1.4985 -8.4565 -2.229 -3.956 0 
-6.078 -8.189501 -6.2475 -7.2945 -5.513 -6.119 -5.6975 -4.71 -2.4195 -10.802 -10.9575 -5.2205 -3.956 
-8.4135 -10.66 -9.451 -8.1385 -9.872001 -9.824 -7.808001 -5.4415 -11.9138 -13.303 -13.949 -5.2205 
-10.6605 -13.8635 -10.412 -12.8727 -13.8428 -11.9345 -8.5315 -15.63 -14.4148 -16.2945 -13.949 
-13.864 -14.8245 -15.1462 -16.8435 -15.9533 -12.658 -18.798 -18.131 -17.4063 -16.2945 
-5.7105 -5.9185 -3.9535 -1.7695 -3.859 -2.5045 -1.4985 -3.158 -1.7565 -6.942 -3.956 0 
-6.078 -10.1265 -5.098001 -4.462 -7.021501 -3.1915 -4.178 -4.71 -8.6125 -11.1165 -3.956 
-10.348 -11.3946 -7.232 -7.4785 -7.776 -6.7915 -5.562 -10.1075 -13.27 -11.1165 
-11.6963 -13.5286 -9.935 -8.282001 -11.6686 -8.347501 -11.4387 -16.3678 -13.27 
-13.8303 -16.2316 -10.279 -12.1838 -13.2246 -14.3524 -17.699 -16.3678 
-5.7105 -5.9185 -2.229 -3.213 -3.9535 -1.934 -1.4985 -3.486 -3.158 -1.7565 -6.942 -2.229 -3.956 
-6.078 -8.189501 -4.994 -6.9275 -5.3325 -2.6125 -3.5655 -5.6975 -4.71 -8.6125 -8.802501 -5.2205 
-8.4135 -9.995001 -8.912001 -7.643 -6.08 -4.5805 -5.870501 -7.808001 -10.1075 -9.8015 -9.645 
-10.3545 -14.6828 -9.663 -8.479501 -8.1085 -6.246 -7.911 -13.4163 -10.1175 -9.9785 
-15.5095 -15.4338 -10.4065 -10.7094 -9.2215 -8.266001 -13.6133 -13.4263 -10.124 
-3.9195 -1.7565 -5.7105 -5.9185 -4.53 -1.934 -1.4985 -3.486 -3.158 -3.034 -8.4565 -2.186 -4.19 0 
-4.9355 -7.305 -6.078 -10.298 -5.8835 -2.6125 -3.5655 -5.6975 -5.5955 -12.6535 -10.4765 -5.4405 -4.19 
-9.666 -7.6915 -10.7575 -11.9423 -6.5355 -4.5805 -5.870501 -7.9345 -15.4344 -14.6735 -13.731 -5.4405 
-9.745501 -12.8256 -12.4018 -12.5943 -8.739 -6.246 -8.1005 -17.891 -17.4544 -17.928 -13.731 
-14.9538 -14.4699 -13.0538 -14.7978 -10.533 -8.5765 -18.062 -19.911 -20.7089 -17.928 
