-4.759 
n/a 
n/a 
n/a 
n/a 
-4.759 
n/a 
n/a 
n/a 
n/a 
-4.759 
n/a 
n/a 
n/a 
n/a 
-4.759 
n/a 
n/a 
n/a 
n/a 
-3.0835 -3.522 -2.264 -8.863001 -12.16972 
-6.3975 -5.2185 -12.159 -21.61672 
-7.807 -15.0875 -24.91272 
-17.844 -27.84122 
-30.59772 
-4.359 -4.867 -8.1485 -2.229 -3.594 -1.7565 -4.6035 0 
-11.046 -14.0113 -10.119 -5.7155 -4.857 -6.3015 -4.6035 
-20.1903 -15.9818 -13.7553 -7.2035 -8.625 -6.3015 
-22.1608 -19.6181 -15.2433 -11.5665 -8.625 
-25.7971 -21.1061 -19.6063 -11.5665 
-8.27 -3.594 -1.7565 -4.6035 -2.186 -1.4985 -3.0835 -4.584 
-12.2908 -4.857 -6.3015 -6.672 -3.339 -3.535 -7.693501 
-13.5538 -8.625 -8.2745 -7.8995 -4.8925 -8.099501 
-17.3218 -10.504 -9.4125 -9.465501 -9.6945 
-19.2008 -11.642 -11.0121 -14.3789 
-4.0105 -4.867 0 -3.594 -1.7565 -4.6035 -1.7565 -8.27 
-9.665001 -4.867 -3.594 -4.857 -6.3015 -6.306001 -9.440001 
-9.665001 -8.1855 -4.857 -8.625 -8.803 -14.5755 
-13.1631 -10.029 -8.625 -11.4589 -17.1837 
-15.0066 -13.9184 -11.4589 -19.8396 
