-4.759 
n/a 
n/a 
n/a 
n/a 
-4.759 
n/a 
n/a 
n/a 
n/a 
-4.759 
n/a 
n/a 
n/a 
n/a 
-4.759 
n/a 
n/a 
n/a 
n/a 
-1.4985 -4.007 -2.7765 -4.0445 -4.349 -1.756 -5.4235 -4.861 -2.872 -3.0365 -2.4945 -3.135 -5.3445 -3.8035 -1.934 -1.4985 -4.007 0 
-5.2025 -6.4525 -6.798501 -9.423 -5.8885 -6.154 -11.4173 -6.763 -4.651 -3.688 -4.575 -7.5235 -8.104 -5.0955 -2.6125 -5.2025 -4.007 
-6.984 -11.3305 -12.552 -11.1955 -11.3445 -12.4164 -13.3193 -8.8985 -5.2155 -5.0805 -9.3085 -9.842501 -9.172501 -5.724 -6.631001 -5.2025 
-12.4818 -17.084 -14.3245 -16.6515 -17.6069 -14.3184 -15.4548 -9.335501 -6.243001 -9.531 -11.7413 -11.213 -9.962 -9.2805 -6.631001 
-18.2353 -18.8565 -19.7805 -22.9139 -19.5089 -16.4539 -15.8918 -10.255 -10.9647 -11.996 -13.1118 -12.0025 -13.5185 -9.2805 
-2.3615 -3.7745 -3.946 -8.4005 -12.16972 -6.259 -3.535 -3.535 -3.6885 0 
-6.7415 -8.466001 -13.3499 -20.89402 -18.42872 -10.204 -6.4245 -6.674 -3.6885 
-11.875 -18.0787 -25.84342 -27.15302 -22.37372 -13.0935 -10.553 -6.674 
-21.4877 -30.57222 -32.10242 -31.09802 -25.26322 -17.222 -10.553 
-33.98122 -36.83122 -36.04742 -33.98752 -29.39172 -17.222 
-2.3615 -3.9785 -4.126 -8.4005 -1.756 -12.16972 -6.201 -3.535 -3.6885 -2.264 -3.147 0 
-7.123 -7.689 -13.4561 -10.404 -14.93432 -18.37072 -10.6345 -6.674 -5.7475 -5.39 -3.147 
-9.4715 -17.3331 -15.4596 -23.58232 -21.13532 -22.80422 -13.7735 -8.704 -9.208 -5.39 
-19.216 -19.3366 -28.63792 -29.78332 -25.56882 -25.94322 -15.8035 -12.5001 -9.208 
-21.2195 -32.51492 -34.83892 -34.21682 -28.70782 -27.97322 -19.5996 -12.5001 
-2.3615 -4.007 -2.7765 -2.489 -4.518 -2.356 -4.349 -1.756 -6.047 -4.861 -1.756 -3.074 -4.3105 -3.8035 -2.4945 -3.962 0 
-5.9545 -6.4525 -3.495 -5.351501 -6.549 -6.410501 -5.8885 -7.557 -9.313001 -6.078 -4.566 -7.705 -6.8195 -5.59 -5.752 -3.962 
-7.664001 -6.666 -5.5515 -7.241 -10.9891 -7.6245 -8.467501 -9.5515 -10.761 -8.63 -9.1545 -9.861 -8.674 -8.2845 -5.752 
-7.86 -9.5785 -7.650501 -11.9285 -12.2031 -8.997001 -10.1995 -11.0625 -13.313 -13.4717 -11.3945 -11.9861 -11.5869 -8.2845 
-10.485 -11.4139 -12.4328 -13.1425 -13.5756 -11.9374 -11.7105 -13.6145 -18.1547 -15.7117 -13.5196 -14.899 -11.5869 
