-4.759 
n/a 
n/a 
n/a 
n/a 
-4.759 
n/a 
n/a 
n/a 
n/a 
-4.759 
n/a 
n/a 
n/a 
n/a 
-4.759 
n/a 
n/a 
n/a 
n/a 
-4.566 0 -9.7395 -12.16972 0 -4.094 0 
-4.566 -9.7395 -22.56222 -12.16972 -4.094 -4.094 
-14.7193 -22.56222 -22.56222 -16.26372 -4.094 
-27.54202 -22.56222 -26.65622 -16.26372 
-27.54202 -26.65622 -26.65622 
-4.566 0 -11.0235 -8.288 0 -4.936 0 
-4.566 -11.0235 -19.3115 -8.288 -4.936 -4.936 
-16.0033 -19.3115 -19.3115 -13.9916 -4.936 
-24.2913 -19.3115 -25.0151 -13.9916 
-24.2913 -25.0151 -25.0151 
-4.566 0 -11.0235 -8.288 0 -4.094 0 
-4.566 -11.0235 -19.3115 -8.288 -4.094 -4.094 
-16.0033 -19.3115 -19.3115 -13.1496 -4.094 
-24.2913 -19.3115 -24.1731 -13.1496 
-24.2913 -24.1731 -24.1731 
-4.566 -12.16972 -8.288 0 -4.094 -3.9825 0 
-17.14952 -20.45772 -8.288 -4.094 -9.066 -3.9825 
-25.43752 -20.45772 -13.1496 -9.066 -9.066 
-25.43752 -25.31932 -18.1216 -9.066 
-30.29912 -30.29132 -18.1216 
