-4.759 
n/a 
n/a 
n/a 
n/a 
-4.759 
n/a 
n/a 
n/a 
n/a 
-4.759 
n/a 
n/a 
n/a 
n/a 
-4.759 
n/a 
n/a 
n/a 
n/a 
-4.4245 0 -4.1465 -4.0265 0 -5.7865 0 0 -4.4485 -3.9825 0 
-4.4245 -4.1465 -7.381001 -4.0265 -5.7865 -5.7865 0 -4.4485 -6.759 -3.9825 
-8.752001 -7.381001 -7.381001 -8.889501 -5.7865 -5.7865 -4.4485 -6.759 -6.759 
-12.4375 -7.381001 -12.9506 -8.889501 -5.7865 -11.4066 -6.759 -6.759 
-12.4375 -12.9506 -12.9506 -8.889501 -11.4066 -13.7171 -6.759 
-4.4245 -4.1465 -4.0265 0 -8.854 0 0 -4.0275 -4.1665 0 
-8.752001 -7.381001 -4.0265 -8.854 -8.854 0 -4.0275 -8.997 -4.1665 
-12.4375 -7.381001 -13.8879 -8.854 -8.854 -4.0275 -8.997 -8.997 
-12.4375 -17.949 -13.8879 -8.854 -13.3567 -8.997 -8.997 
-23.0055 -17.949 -13.8879 -13.3567 -18.3262 -8.997 
-4.4245 0 -4.1465 -4.0265 0 -5.7865 0 0 -4.0275 -4.609 0 
-4.4245 -4.1465 -7.381001 -4.0265 -5.7865 -5.7865 0 -4.0275 -6.966001 -4.609 
-8.752001 -7.381001 -7.381001 -8.889501 -5.7865 -5.7865 -4.0275 -6.966001 -6.966001 
-12.4375 -7.381001 -12.9506 -8.889501 -5.7865 -10.9856 -6.966001 -6.966001 
-12.4375 -12.9506 -12.9506 -8.889501 -10.9856 -13.9241 -6.966001 
-4.4245 0 -4.1465 -4.0265 0 -5.7865 0 0 -4.0275 -3.6505 0 
-4.4245 -4.1465 -7.381001 -4.0265 -5.7865 -5.7865 0 -4.0275 -6.8435 -3.6505 
-8.752001 -7.381001 -7.381001 -8.889501 -5.7865 -5.7865 -4.0275 -6.8435 -6.8435 
-12.4375 -7.381001 -12.9506 -8.889501 -5.7865 -10.9856 -6.8435 -6.8435 
-12.4375 -12.9506 -12.9506 -8.889501 -10.9856 -13.8016 -6.8435 
