-4.759 
n/a 
n/a 
n/a 
n/a 
-4.759 
n/a 
n/a 
n/a 
n/a 
-4.759 
n/a 
n/a 
n/a 
n/a 
-4.759 
n/a 
n/a 
n/a 
n/a 
-6.3355 -5.5785 0 -5.4445 -5.5785 0 -7.877 -2.4945 -1.4985 -3.668 -2.0935 -4.1105 -4.1235 0 
-6.71 -5.5785 -5.4445 -6.8135 -5.5785 -7.877 -10.5035 -3.9315 -5.2425 -5.612 -6.191 -9.986501 -4.1235 
-6.71 -8.7965 -6.8135 -6.8135 -10.2485 -10.5035 -11.9405 -8.205501 -7.165 -10.341 -12.7122 -9.986501 
-9.836 -9.047501 -6.8135 -10.7175 -13.0654 -11.9405 -16.2145 -9.6475 -12.1548 -16.8622 -12.7122 
-9.995501 -9.047501 -10.7175 -13.5344 -14.5024 -16.2145 -17.6565 -14.7667 -18.676 -16.8622 
-8.285001 -5.5785 0 -5.4445 -5.5785 0 -7.877 -1.756 -2.5685 -2.4945 -1.4985 -4.224 0 
-9.240001 -5.5785 -5.4445 -6.8135 -5.5785 -7.877 -9.305 -4.2335 -5.3665 -3.9315 -5.670501 -4.224 
-9.240001 -8.7965 -6.8135 -6.8135 -10.2485 -9.305 -11.9013 -6.514 -7.085 -7.4995 -5.670501 
-13.0378 -9.047501 -6.8135 -10.7175 -11.8669 -11.9013 -14.1818 -8.700001 -10.733 -7.4995 
-13.2888 -9.047501 -10.7175 -12.3359 -14.4632 -14.1818 -16.3678 -12.6322 -10.733 
-1.4985 -3.2825 -1.756 -4.0375 -4.224 -2.4945 -6.3355 -5.5785 0 -7.5795 -5.5785 0 -7.877 0 
-3.712 -5.2085 -5.5375 -7.691501 -5.763 -9.925501 -6.71 -5.5785 -7.5795 -9.778 -5.5785 -7.877 -7.877 
-5.4675 -9.1505 -9.091001 -9.169001 -13.3862 -10.213 -6.71 -10.907 -9.778 -9.778 -10.2485 -7.877 
-9.374001 -12.8082 -10.181 -17.0212 -13.6737 -10.213 -12.6581 -13.1055 -9.778 -14.4876 -10.2485 
-13.0441 -13.8982 -18.2376 -17.3087 -13.6737 -16.1611 -14.8566 -13.1055 -14.4876 -14.4876 
-6.3355 -5.5785 0 -5.4445 -5.5785 0 -7.877 -2.4945 -3.383 -3.301 -4.224 0 
-6.71 -5.5785 -5.4445 -6.8135 -5.5785 -7.877 -10.5035 -4.732 -4.6415 -6.4155 -4.224 
-6.71 -8.7965 -6.8135 -6.8135 -10.2485 -10.5035 -12.741 -6.205 -7.9775 -6.4155 
-9.836 -9.047501 -6.8135 -10.7175 -13.0654 -12.741 -14.214 -8.686001 -7.9775 
-9.995501 -9.047501 -10.7175 -13.5344 -15.3029 -14.214 -16.695 -8.686001 
