-4.759 
n/a 
n/a 
n/a 
n/a 
-4.759 
n/a 
n/a 
n/a 
n/a 
-4.759 
n/a 
n/a 
n/a 
n/a 
-4.759 
n/a 
n/a 
n/a 
n/a 
-3.1385 -3.074 -4.6335 -1.7695 -3.852 -3.595 0 
-6.103001 -5.4815 -5.543 -4.341 -6.2035 -3.595 
-10.5425 -7.2285 -8.3225 -6.389 -6.2035 
-12.2895 -10.0745 -10.0275 -6.389 
-15.1355 -11.8449 -10.0275 
-3.237 -4.9225 -2.4945 -3.383 -7.456 -3.047 -3.595 0 
-9.749001 -6.9525 -4.732 -9.571 -11.5856 -5.4675 -3.595 
-11.779 -9.002501 -10.622 -14.2948 -14.0061 -5.4675 
-13.829 -15.1299 -15.0374 -16.7153 -14.0061 
-19.9564 -19.5453 -17.4579 -16.7153 
-6.2755 -3.465 -1.7695 -3.047 -3.595 
-9.522 -3.665 -3.768 -5.4675 
-10.08 -5.148 -5.8035 
-10.7255 -6.9925 
-12.57 
-3.1385 -3.465 -1.7695 -3.047 -3.595 0 
-5.617001 -3.665 -3.768 -5.4675 -3.595 
-5.8545 -5.148 -5.8035 -5.4675 
-7.1215 -6.9925 -5.8035 
-8.834001 -6.9925 
