-4.759 
n/a 
n/a 
n/a 
n/a 
-4.759 
n/a 
n/a 
n/a 
n/a 
-4.759 
n/a 
n/a 
n/a 
n/a 
-4.759 
n/a 
n/a 
n/a 
n/a 
-4.768 -3.886 -3.6785 -2.3335 -3.5075 -4.033 -4.424 -1.934 -10.8075 0 
-9.1255 -7.592501 -4.529 -6.646501 -5.4055 -7.6165 -5.195 -13.7479 -10.8075 
-13.0714 -8.623501 -8.5785 -8.2735 -9.696 -8.1515 -17.9861 -13.7479 
-14.1024 -12.71 -9.9895 -10.476 -10.406 -21.0608 -17.9861 
-18.1889 -14.121 -12.2778 -10.717 -23.3153 -21.0608 
-4.1885 -6.4185 -4.424 -1.934 -12.16972 0 
-10.1075 -10.2485 -5.195 -15.11012 -12.16972 
-14.1965 -11.2909 -19.34832 -15.11012 
-15.2389 -25.44422 -19.34832 
-29.39222 -25.44422 
-2.4265 -2.7415 -3.9205 -2.3335 -3.5075 0 -4.033 -2.7415 -4.424 -1.934 -7.5525 
-3.681 -5.733 -5.597 -6.646501 -3.5075 -4.033 -6.6245 -8.262 -5.195 -8.741501 
-6.602 -7.2065 -9.375501 -6.646501 -5.4055 -6.6245 -12.577 -9.086 -12.9797 
-7.2215 -11.1528 -9.375501 -8.2735 -8.215501 -12.577 -13.401 -16.9925 
-11.1804 -11.1528 -11.1055 -9.451 -14.271 -13.401 -21.3075 
-4.485 -6.4185 -2.7415 -4.9665 -1.934 -14.53122 -2.7415 -3.9205 -2.3345 -4.77 0 
-12.4055 -9.112 -7.687 -6.6995 -17.47162 -16.62472 -5.733 -5.811 -6.9855 -4.77 
-15.099 -14.2339 -9.2325 -23.18132 -19.56512 -19.75922 -7.2655 -9.3725 -6.9855 
-20.2209 -15.7794 -25.84852 -25.27482 -22.69962 -21.26922 -11.019 -9.3725 
-21.7664 -32.39542 -27.94202 -28.40932 -24.20962 -25.14172 -11.019 
