-4.759 
n/a 
n/a 
n/a 
n/a 
-4.759 
n/a 
n/a 
n/a 
n/a 
-4.759 
n/a 
n/a 
n/a 
n/a 
-4.759 
n/a 
n/a 
n/a 
n/a 
-1.934 -3.689 -3.1575 -1.8085 -3.6905 0 -4.87 -2.7415 -4.9385 
-5.33 -4.168 -4.4255 -4.7325 -3.6905 -4.87 -7.647 -6.226501 
-5.475 -5.3315 -6.147 -4.7325 -9.605501 -7.647 -11.3744 
-6.165 -6.462 -6.147 -11.2805 -12.5171 -11.3744 
-6.988501 -6.462 -13.1774 -14.1921 -16.2445 
-1.934 -3.689 -3.1575 -1.8085 -3.6905 -4.87 -2.7415 -4.9385 
-5.33 -4.168 -4.4255 -4.7325 -9.605501 -7.647 -6.226501 
-5.475 -5.3315 -6.147 -11.2805 -12.5171 -11.3744 
-6.165 -6.462 -13.1774 -14.1921 -16.2445 
-6.988501 -13.5706 -16.089 -17.9195 
-1.934 -3.689 -3.1575 -1.8085 -3.6905 0 -4.87 -2.7415 -3.9595 -3.2295 0 
-5.33 -4.168 -4.4255 -4.7325 -3.6905 -4.87 -7.647 -5.2105 -5.7385 -3.2295 
-5.475 -5.3315 -6.147 -4.7325 -9.605501 -7.647 -10.1905 -6.7925 -5.7385 
-6.165 -6.462 -6.147 -11.2805 -12.5171 -10.1905 -12.0043 -6.7925 
-6.988501 -6.462 -13.1774 -14.1921 -15.0606 -12.0043 -12.0043 
-5.333 -4.5635 -2.356 -1.934 -2.871 -3.6905 0 
-11.0145 -6.7895 -5.342 -4.2805 -5.346 -3.6905 
-13.2405 -10.204 -7.7025 -6.634 -5.346 
-16.655 -12.8019 -9.2355 -6.634 
-19.2529 -14.3349 -9.2355 
