-4.759 
n/a 
n/a 
n/a 
n/a 
-4.759 
n/a 
n/a 
n/a 
n/a 
-4.759 
n/a 
n/a 
n/a 
n/a 
-4.759 
n/a 
n/a 
n/a 
n/a 
-2.9805 -3.264 -1.934 -3.091 -4.121 -8.790501 -2.5685 -3.6645 -4.1555 -1.7695 -3.8905 0 -1.934 -4.098 -3.5075 -2.7405 -4.8495 -3.9795 -4.126 
-4.3595 -4.965 -4.2105 -5.304 -10.375 -11.6894 -6.07 -6.837501 -4.988501 -5.2345 -3.8905 -1.934 -6.94 -7.3145 -6.9685 -7.226501 -7.344 -7.807 
-5.969501 -6.359 -7.179 -11.9364 -13.2739 -15.1909 -7.676 -6.877 -8.413501 -5.2345 -5.5195 -6.94 -10.0815 -11.2281 -11.6593 -10.0645 -11.9167 
-7.132 -10.673 -14.8218 -14.8353 -16.7754 -16.7969 -7.687 -9.5375 -8.413501 -6.655 -11.4671 -10.0815 -13.9951 -15.9189 -14.4973 -14.683 
-11.4506 -18.3158 -17.7207 -18.3368 -18.3814 -16.8079 -10.238 -9.5375 -9.887501 -12.9324 -14.6086 -13.9951 -18.6859 -18.7569 -19.1158 
-6.359 -2.7405 0 -1.934 -4.8495 -4.126 -2.264 -2.3335 -3.9795 -3.7455 0 -2.9805 -4.1585 -2.5685 -4.1555 -1.7695 -3.8905 -3.264 -1.934 -5.1845 0 -2.9805 -4.1585 -4.36 -3.9355 
-10.4185 -2.7405 -1.934 -7.238 -8.8085 -6.485001 -4.6785 -6.816501 -8.0835 -3.7455 -2.9805 -5.319 -6.8865 -6.2335 -4.988501 -5.2345 -6.378 -4.965 -6.564 -5.1845 -2.9805 -5.319 -9.479 -7.99 
-10.4185 -5.1905 -7.238 -11.6516 -10.5755 -8.93 -8.952 -11.4071 -8.0835 -7.3215 -5.319 -8.208 -11.3931 -7.3435 -8.413501 -8.479501 -8.1945 -9.7165 -6.564 -8.553 -5.319 -10.8477 -13.2808 
-12.8685 -9.396501 -11.6516 -13.4186 -13.5275 -13.3421 -13.7774 -11.4071 -12.0147 -9.650001 -8.208 -13.0952 -12.5031 -10.4765 -11.8195 -9.889501 -13.3514 -9.7165 -9.323501 -11.2927 -10.8477 -14.6495 
-17.0745 -15.1065 -13.4186 -16.3706 -17.9396 -18.1675 -13.7774 -15.3383 -14.3432 -12.5904 -13.0952 -14.2052 -15.6361 -13.8825 -13.2295 -15.9114 -13.3514 -12.2268 -11.8986 -16.8214 -14.6495 
-11.333 -1.4985 -4.4695 -7.2255 -3.9035 -4.126 -2.9805 0 -2.229 -4.121 -5.0485 -5.1845 -7.173501 -10.0235 -12.16972 0 -2.0935 -12.16972 -3.3425 -3.9355 -2.0935 -3.595 
-13.7243 -5.252501 -12.4702 -11.7438 -8.2055 -6.735001 -2.9805 -2.229 -5.532001 -6.243001 -8.344 -13.6524 -17.804 -22.52802 -12.16972 -2.0935 -15.25422 -15.51222 -6.753 -5.6875 -4.819 
-17.6278 -13.2054 -16.9885 -16.0458 -11.1861 -6.735001 -4.2145 -5.532001 -7.8205 -8.347501 -17.7229 -24.2829 -30.30852 -22.52802 -14.26322 -15.25422 -18.59672 -18.92272 -8.9315 -8.2325 
-25.7803 -17.7237 -21.2905 -19.0264 -11.1861 -7.986501 -9.3435 -7.8205 -10.2998 -17.7502 -28.3534 -36.78742 -30.30852 -24.62152 -27.42394 -18.59672 -22.00722 -21.10122 -11.6893 
-30.2986 -22.0257 -24.2711 -19.0264 -12.4376 -13.2441 -11.7704 -10.2998 -19.7025 -28.3807 -40.85792 -36.78742 -32.40202 -37.78224 -30.76644 -22.00722 -24.18572 -23.85902 
-1.934 -6.359 -2.7405 -4.8495 -3.9795 -4.126 0 -2.9805 -5.5855 -3.0365 -3.091 -5.1325 -3.8235 -1.934 -5.1845 -3.6885 -2.5045 0 -2.5685 -7.889 -4.1555 -1.7695 -3.8905 0 
-8.849501 -10.4185 -7.226501 -7.344 -7.807 -4.126 -2.9805 -7.601501 -9.5415 -6.779 -7.297 -8.215 -5.598001 -6.564 -7.323501 -6.077001 -2.5045 -2.5685 -10.523 -13.0217 -4.988501 -5.2345 -3.8905 
-13.2092 -14.9045 -10.0645 -11.9167 -7.807 -6.735001 -7.601501 -10.564 -13.378 -11.1844 -10.7159 -9.838 -9.959001 -8.119 -9.553 -6.077001 -5.408 -10.523 -15.6557 -13.8547 -8.413501 -5.2345 
-17.6952 -17.7425 -14.683 -11.9167 -11.0866 -11.6296 -10.564 -14.9271 -17.7834 -14.6033 -12.3389 -14.2636 -11.514 -10.6875 -9.553 -9.019001 -13.7039 -15.6557 -16.4887 -17.2797 -8.413501 
-20.5332 -22.361 -14.683 -15.1963 -15.9812 -14.5921 -14.9271 -19.3325 -21.2023 -16.2263 -16.7645 -15.8186 -14.0825 -10.6875 -12.5816 -17.4077 -18.8366 -16.4887 -19.9137 -17.2797 
