-4.759 
n/a 
n/a 
n/a 
n/a 
-4.759 
n/a 
n/a 
n/a 
n/a 
-4.759 
n/a 
n/a 
n/a 
n/a 
-4.759 
n/a 
n/a 
n/a 
n/a 
-1.4985 -3.098 -5.889 -4.433 -6.0475 0 -4.7225 0 
-4.3095 -8.8275 -11.3244 -9.9355 -6.0475 -4.7225 -4.7225 
-9.285 -14.2663 -16.8269 -9.9355 -10.8025 -4.7225 
-14.8538 -19.7688 -16.8269 -14.8529 -10.8025 
-20.3563 -19.7688 -21.7443 -14.8529 
-5.889 -2.186 -1.8085 -3.8235 -2.9705 -4.508 -10.77 
-8.852501 -3.164 -4.9905 -6.4735 -5.867001 -14.496 
-9.637501 -6.3985 -7.212 -9.1525 -16.331 
-12.872 -8.0485 -9.929501 -19.8633 
-14.522 -10.485 -20.5483 
-1.4985 -3.8235 -5.889 0 -4.822 -1.7695 -1.8085 -4.9105 -4.7225 
-4.53 -10.27 -5.889 -4.822 -4.8595 -3.41 -6.136001 -8.6525 
-11.1293 -10.27 -11.7134 -4.8595 -5.6285 -7.579501 -10.0815 
-11.1293 -16.1942 -11.7509 -5.6285 -10.6735 -12.0734 
-17.0535 -16.2317 -12.5199 -10.6735 -15.1674 
-1.4985 -4.3955 -1.7565 -5.889 -2.186 -10.77 
-4.95 -4.9015 -7.050001 -8.852501 -13.4285 
-5.049 -10.757 -10.9713 -20.542 
-11.3485 -14.6783 -22.6608 
-15.2698 -26.3678 
