-4.759 
n/a 
n/a 
n/a 
n/a 
-4.759 
n/a 
n/a 
n/a 
n/a 
-4.759 
n/a 
n/a 
n/a 
n/a 
-4.759 
n/a 
n/a 
n/a 
n/a 
-1.4985 -3.9075 -5.1275 -5.1845 -5.74 -3.3255 -7.588 -3.8145 -4.0885 -1.7695 -4.356 -4.9625 
-4.9185 -7.8795 -10.209 -5.7465 -9.13 -10.9075 -8.6425 -8.474501 -5.043 -6.528 -7.843501 
-8.3885 -13.2734 -10.4045 -9.134501 -16.8568 -11.962 -13.5457 -9.244 -9.31 -9.6295 
-13.8598 -13.4689 -13.7925 -16.8601 -17.9113 -16.8652 -14.3152 -13.5486 -12.5045 
-14.0553 -16.8569 -21.5181 -17.9146 -22.8145 -17.6347 -18.6198 -16.7431 
-3.4765 -1.934 -1.4985 -5.224 -2.95 -2.4265 -4.523 -1.4985 -7.4885 0 -3.0695 -3.152 -3.383 -5.5165 -1.756 -1.4985 -7.400001 -2.186 -2.985 -3.3975 -3.8905 
-4.9925 -2.6125 -6.330501 -8.988501 -4.895 -6.096 -5.856 -8.1875 -7.4885 -3.0695 -4.8015 -5.31 -7.2625 -6.506001 -3.0405 -7.988001 -9.368001 -5.3955 -5.6305 -7.099 
-5.4645 -7.655 -10.264 -11.0583 -8.478001 -7.593 -13.0244 -8.1875 -9.5605 -4.8015 -7.1125 -9.021501 -7.916 -8.458 -9.5555 -10.0125 -12.6897 -8.348001 -9.346001 
-9.672 -11.9875 -12.3338 -14.6413 -10.013 -14.8884 -13.0244 -9.816501 -10.2665 -7.1125 -10.4265 -9.496 -10.181 -15.0906 -11.584 -13.3582 -15.6422 -12.1215 
-14.1385 -14.0573 -15.9168 -16.1763 -17.3084 -14.8884 -14.6534 -10.3445 -12.5775 -10.4265 -10.901 -11.761 -16.8136 -17.1191 -14.9297 -16.3107 -19.4157 
-7.400001 -2.186 -1.4985 -3.535 -3.534 -1.7565 -3.3825 -1.756 -4.2705 -1.4985 -7.9375 -3.8405 0 
-9.368001 -3.339 -4.255 -6.102 -4.6265 -5.1565 -4.5235 -5.6125 -5.7555 -8.901 -9.603001 -3.8405 
-10.0585 -5.657 -6.4005 -6.304 -8.198501 -6.177 -8.273001 -6.915 -13.7492 -10.4765 -9.603001 
-12.4815 -7.115 -6.4915 -9.4455 -9.3465 -10.0675 -9.802501 -15.1655 -15.3247 -10.4765 
-13.9395 -7.191 -9.519501 -10.8361 -13.2994 -11.696 -18.053 -16.741 -15.3247 
-5.377 -1.7565 -4.092 -1.7695 -6.864 -3.9725 -8.712001 -3.469 -3.3435 -2.925 -3.581 -5.651501 -4.972 0 
-6.4205 -6.017001 -5.4515 -9.3815 -8.775001 -13.6275 -12.3798 -5.883 -6.0605 -7.922 -8.243 -9.607 -4.972 
-11.4198 -8.897501 -14.3685 -11.3395 -18.6586 -17.2953 -14.7938 -8.377001 -11.3263 -10.553 -13.937 -10.688 
-14.3003 -17.8663 -16.3265 -21.2231 -22.3264 -19.7093 -17.2878 -14.0742 -13.2718 -15.7587 -13.9902 
-23.2691 -19.8243 -26.2101 -24.8909 -24.7404 -22.2033 -22.985 -16.0197 -19.237 -15.8327 
