-4.759 
n/a 
n/a 
n/a 
n/a 
-4.759 
n/a 
n/a 
n/a 
n/a 
-4.759 
n/a 
n/a 
n/a 
n/a 
-4.759 
n/a 
n/a 
n/a 
n/a 
-1.934 -3.45 -5.269 -8.395 -2.186 -1.4985 -3.535 0 
-5.009 -8.241 -14.729 -10.985 -3.339 -4.255 -3.535 
-10.4765 -18.0802 -17.319 -12.138 -5.657 -4.255 
-20.3157 -20.6702 -18.472 -14.456 -5.657 
-22.9057 -21.8232 -20.79 -14.456 
-3.1495 -4.4525 -1.7695 -9.8555 -3.098 0 
-8.913 -5.610001 -12.6072 -13.1447 -3.098 
-10.1979 -16.9997 -15.8964 -13.1447 
-21.5876 -20.2889 -15.8964 
-24.8768 -20.2889 
-1.934 -2.3335 -8.395 -2.186 -3.699 
-4.359 -11.9193 -10.985 -4.636 
-14.5372 -14.5093 -13.435 
-17.1272 -16.9593 
-19.5772 
-3.9225 -3.277 -8.395 -2.186 -3.699 
-5.4525 -12.706 -10.985 -4.636 
-14.8211 -15.296 -13.435 
-17.4111 -17.746 
-19.8611 
