-4.759 
n/a 
n/a 
n/a 
n/a 
-4.759 
n/a 
n/a 
n/a 
n/a 
-4.759 
n/a 
n/a 
n/a 
n/a 
-4.759 
n/a 
n/a 
n/a 
n/a 
-7.8805 -2.4945 -5.2135 -3.0695 -3.511 -1.934 -7.014501 -1.756 -6.634501 -5.797 
-9.455 -8.428501 -7.1855 -5.514501 -4.582 -9.8905 -9.654 -9.016001 -13.1745 
-15.439 -9.807001 -8.787001 -5.868001 -12.926 -12.0115 -17.6087 -15.7064 
-16.8175 -11.5161 -9.096001 -14.6396 -15.2371 -20.9349 -24.9173 
-18.5266 -11.8251 -18.3488 -16.3873 -24.1605 -27.6253 
-1.934 -4.95 -3.5455 0 -5.046 -3.8375 -4.9225 -3.849 -12.16972 
-6.136 -7.977 -3.5455 -5.046 -9.3755 -8.3655 -8.628 -16.17932 
-9.598001 -7.977 -6.998 -9.3755 -14.1291 -12.2492 -21.22992 
-9.598001 -12.4383 -12.2627 -14.1291 -18.0128 -24.85112 
-14.0397 -17.703 -17.0163 -18.0128 -30.61472 
-1.4985 -4.269 -3.0695 -2.4945 -3.849 0 -12.16972 0 -3.45 -3.0695 -2.4945 -3.8245 -1.934 -4.95 -2.229 -3.5455 -3.7575 0 -7.394001 -3.8745 0 
-5.71 -5.369 -4.2085 -5.410501 -3.849 -12.16972 -12.16972 -3.45 -4.273 -4.2085 -5.751 -4.7245 -6.136 -6.388 -5.862 -5.799001 -3.7575 -7.394001 -11.6473 -3.8745 
-6.581 -6.002 -6.9915 -5.410501 -16.17932 -12.16972 -15.61972 -4.273 -5.167 -6.681 -6.158 -8.471001 -7.676001 -9.1 -7.3175 -5.799001 -10.862 -11.6473 -11.6473 
-7.347 -8.911 -6.9915 -18.03442 -16.17932 -15.61972 -16.44272 -5.167 -7.6545 -7.1675 -10.1675 -10.5635 -9.374001 -11.0161 -7.3175 -13.5943 -15.1153 -11.6473 
-10.138 -8.911 -20.25242 -18.03442 -19.62932 -16.44272 -17.33672 -7.6545 -8.2325 -11.3734 -12.8676 -12.2615 -11.4877 -11.0161 -15.2402 -17.8476 -15.1153 
-1.4985 -4.938 -3.1385 -3.0695 -2.4945 -3.8245 -1.934 -3.502 -1.7565 -4.95 -1.756 -5.498 -3.4715 -3.8375 -3.152 -6.6995 0 
-6.091001 -7.191 -4.286 -4.2085 -5.751 -4.7245 -4.8155 -5.0575 -5.712 -6.5655 -7.545001 -9.4995 -7.702001 -7.147 -9.559501 -6.6995 
-7.893001 -8.4685 -5.128 -6.681 -6.158 -7.231 -7.471001 -9.406 -7.2585 -13.1475 -11.9071 -14.0686 -11.5097 -13.7045 -9.559501 
-9.229 -9.3665 -7.382501 -7.1675 -9.206 -9.6 -12.3507 -10.2145 -14.0277 -17.5096 -16.4762 -17.8763 -18.0672 -13.7045 
-10.2095 -11.7318 -7.922 -9.975 -11.7338 -14.6175 -13.1592 -17.4063 -18.3898 -22.0787 -20.2839 -24.4338 -18.0672 
