-4.759 
n/a 
n/a 
n/a 
n/a 
-4.759 
n/a 
n/a 
n/a 
n/a 
-4.759 
n/a 
n/a 
n/a 
n/a 
-4.759 
n/a 
n/a 
n/a 
n/a 
-4.0745 -2.264 -2.3615 -4.1 -3.9225 -8.27 -3.436 -1.4985 -4.0225 -1.7565 -6.3755 -2.186 -2.6165 -3.908 
-5.7975 -3.8255 -5.416 -7.856501 -10.31 -12.1328 -4.213 -5.1095 -5.6805 -8.492001 -9.1555 -3.5105 -5.498 
-7.212 -7.5705 -9.3685 -14.36 -14.1728 -12.9098 -7.137 -6.076 -13.6026 -11.4414 -10.311 -5.791 
-11.6254 -11.8614 -16.013 -18.2228 -14.9498 -15.8338 -7.4595 -14.1367 -16.552 -12.5969 -12.5915 
-15.9163 -18.5059 -19.8758 -18.9998 -17.8738 -16.1563 -15.8626 -17.0861 -17.7075 -14.8774 
-3.0365 -2.186 -2.847 -4.0745 -3.8105 -8.27 -3.251 -2.3615 -3.493 -1.934 -3.277 0 -3.436 -1.4985 -4.735 -1.7565 -4.6795 
-3.66 -4.1045 -5.452 -7.463 -13.2329 -10.784 -5.4965 -4.628 -5.252501 -5.341 -3.277 -3.436 -4.213 -5.548 -5.5405 -6.802001 
-4.256001 -5.954 -9.008 -17.016 -15.7469 -13.0295 -8.075001 -6.6235 -9.838 -5.341 -5.828 -4.213 -6.912 -5.6465 -9.1745 
-5.9605 -9.367001 -18.5628 -19.53 -17.9924 -15.608 -9.7655 -11.4402 -9.838 -8.028501 -6.795001 -6.912 -7.001 -9.244 
-9.368501 -18.9278 -21.0768 -21.7755 -20.5709 -17.2985 -14.819 -11.4402 -12.5793 -8.873 -9.814 -7.001 -10.088 
-5.1845 -3.1385 -3.5745 -5.651501 -3.8185 -1.4985 -3.493 -1.934 -3.9175 -1.7565 -1.4985 -3.8 -1.7565 -12.16972 -3.013 -5.651501 -3.0465 -2.9995 -8.627001 0 
-7.4095 -6.2485 -9.1155 -8.176001 -4.662 -4.207 -5.252501 -4.681 -4.64 -2.4195 -5.901 -7.2145 -14.87542 -15.18272 -8.529501 -6.711 -5.472 -12.9859 -8.627001 
-10.2925 -10.1135 -11.7835 -9.763501 -8.0865 -5.742001 -7.9005 -4.7425 -5.0595 -7.167001 -8.02 -20.90622 -17.88842 -19.92622 -11.0715 -9.532001 -16.073 -12.9859 
-14.1873 -12.8195 -11.786 -13.669 -9.794001 -8.616501 -7.9135 -5.235001 -9.248001 -9.333501 -22.10032 -23.91922 -22.63192 -21.96122 -11.192 -20.4135 -16.073 
-17.0653 -14.2445 -14.8795 -15.4141 -12.7623 -8.6295 -8.300501 -9.274501 -11.8995 -23.85802 -25.11332 -28.66272 -24.66692 -23.41352 -22.0902 -20.4119 
-4.567 -3.3785 -5.1845 -4.9225 -2.0935 -3.013 -2.3615 -4.371 -3.436 -4.0225 -12.16972 0 -2.847 -9.686501 -2.0935 -2.3335 
-5.4965 -8.927 -9.13 -7.311501 -6.298501 -4.620501 -6.641 -7.283 -6.191 -17.61562 -12.16972 -2.847 -10.985 -12.031 -4.488501 
-10.2135 -13.0087 -11.6536 -12.0621 -8.625001 -9.8085 -9.885 -10.396 -21.01832 -17.61562 -15.01672 -10.985 -13.3295 -14.426 
-14.2952 -15.5323 -16.4042 -14.3886 -13.9164 -13.1913 -13.0002 -24.99972 -21.01832 -20.46262 -23.15472 -13.3295 -15.7245 
-16.8188 -20.2829 -18.7307 -19.68 -17.2992 -16.3065 -27.60392 -24.99972 -23.86532 -28.60062 -25.49922 -15.7245 
