-4.759 
n/a 
n/a 
n/a 
n/a 
-4.759 
n/a 
n/a 
n/a 
n/a 
-4.759 
n/a 
n/a 
n/a 
n/a 
-4.759 
n/a 
n/a 
n/a 
n/a 
-3.0365 -2.4945 -5.623 -3.8745 -1.934 -1.4985 -3.4225 -4.0965 0 
-3.688 -9.477001 -10.1533 -6.057 -2.6125 -3.9655 -4.2 -4.0965 
-9.7755 -14.1615 -12.3358 -6.350501 -4.464 -5.179 -4.2 
-14.6108 -16.344 -12.6293 -9.166 -5.5655 -5.179 
-16.7933 -16.6375 -15.4448 -10.004 -5.5655 
-3.3785 -9.952001 -4.5925 -5.623 -3.8375 -2.674 0 
-14.4755 -14.6349 -11.5209 -11.046 -7.1645 -2.674 
-19.1584 -21.5633 -16.9439 -14.373 -7.1645 
-26.0868 -26.9863 -20.2709 -14.373 
-31.5098 -30.3133 -20.2709 
-4.0375 -4.5655 -4.6805 -1.7565 -4.5925 -5.623 -3.535 -3.8745 0 
-7.239 -8.3725 -4.722 -6.9075 -11.5209 -9.928 -6.747 -3.8745 
-11.7522 -8.420501 -9.3525 -14.2091 -15.8259 -13.2086 -6.747 
-11.8002 -13.24 -16.8681 -18.5141 -19.1065 -13.2086 
-16.6197 -20.7556 -21.1731 -21.7947 -19.1065 
-3.4225 -4.0965 -4.5925 -2.8645 -5.623 -3.535 -3.8745 0 
-4.2 -9.195501 -8.09 -9.05 -9.928 -6.747 -3.8745 
-9.5415 -13.0178 -14.6017 -14.452 -13.2086 -6.747 
-13.5196 -19.5295 -20.0037 -17.7326 -13.2086 
-20.0313 -24.9315 -23.2843 -17.7326 
