-4.759 
n/a 
n/a 
n/a 
n/a 
-4.759 
n/a 
n/a 
n/a 
n/a 
-4.759 
n/a 
n/a 
n/a 
n/a 
-4.759 
n/a 
n/a 
n/a 
n/a 
-5.42 -4.1985 -3.36 -2.8645 -4.0415 -1.7565 -3.5005 -2.5685 -3.991 -3.5445 -4.2315 0 
-9.863501 -8.09 -6.0275 -7.2385 -6.077 -6.3155 -5.532001 -6.4985 -7.191501 -6.9085 -4.2315 
-13.755 -10.553 -10.9185 -9.382 -10.2595 -8.0515 -9.3675 -9.031501 -10.8153 -6.9085 
-16.218 -15.8418 -13.062 -13.4545 -12.9733 -12.1382 -12.3057 -13.1371 -10.8153 
-21.5068 -17.9853 -17.1345 -16.1683 -17.06 -15.0764 -16.4113 -13.1371 
-5.42 -4.0725 -6.201 -3.819 -2.95 -1.756 -5.29 -1.7695 -3.6845 0 
-9.065001 -9.209001 -10.335 -7.6615 -4.287 -6.6745 -7.7665 -4.2695 -3.6845 
-14.8135 -13.563 -14.1775 -9.092501 -9.294001 -9.373001 -9.525001 -4.2695 
-19.1675 -17.4055 -15.6085 -14.2741 -12.0363 -11.2009 -9.525001 
-23.01 -18.8365 -20.7901 -17.0164 -13.8642 -11.2009 
-1.934 -3.1495 -3.4795 0 -3.992 -4.395 -4.174 -1.4985 -3.65 -1.7565 -5.5985 -3.3715 -3.681 -1.934 -1.8085 -3.383 -3.535 -1.756 -1.4985 -3.486 -2.95 0 
-4.5395 -5.004 -3.4795 -3.992 -6.996 -8.7465 -5.181 -5.190001 -6.143 -6.859001 -8.816501 -5.4275 -5.219 -3.2685 -4.1695 -5.298 -5.054 -3.0405 -3.5655 -4.563 -2.95 
-6.5655 -5.004 -7.857 -6.996 -11.8835 -9.546 -8.7915 -6.8505 -10.2435 -10.3815 -10.5135 -6.661 -6.475 -5.4045 -5.706 -6.5275 -6.686 -5.6065 -4.577 -4.563 
-6.5655 -9.344 -11.5852 -11.8835 -12.683 -13.2139 -9.356001 -11.1774 -13.766 -12.0785 -11.747 -8.3 -8.0535 -6.865001 -7.584001 -7.6435 -9.320001 -7.237 -4.577 
-11.3799 -13.2408 -16.4727 -12.683 -16.3509 -13.7784 -13.7255 -14.6999 -15.463 -13.312 -13.386 -9.898001 -10.107 -8.755501 -10.5635 -10.286 -11.0647 -7.237 
-3.1015 -1.8085 -3.4795 -3.992 -3.36 -2.4945 -3.2955 -1.934 -3.333 -1.7695 -5.045 -1.4985 -3.681 -1.934 -4.4265 -3.3755 0 
-5.0505 -6.392 -7.857 -6.0225 -6.0765 -4.6305 -4.2285 -3.9835 -4.022 -5.5305 -6.222 -4.9615 -5.219 -6.25 -6.3255 -3.3755 
-6.6635 -10.5855 -10.7495 -8.066501 -7.9065 -5.474 -6.5735 -4.0425 -7.654 -6.676001 -9.463 -6.7895 -8.459001 -8.483 -6.3255 
-10.586 -13.478 -12.7935 -9.465501 -8.758 -7.5195 -6.6025 -7.6895 -8.557501 -9.83 -10.349 -10.485 -10.4675 -8.483 
-13.4785 -15.522 -14.1925 -10.469 -10.733 -7.5495 -10.3035 -8.597 -11.8233 -10.7566 -14.1239 -12.4935 -10.4675 
