-4.759 
n/a 
n/a 
n/a 
n/a 
-4.759 
n/a 
n/a 
n/a 
n/a 
-4.759 
n/a 
n/a 
n/a 
n/a 
-4.759 
n/a 
n/a 
n/a 
n/a 
-5.0755 0 -9.594501 0 -5.007 0 -12.16972 0 -1.756 -5.674 -2.4945 -3.264 -1.7695 -2.489 -4.2215 -1.934 -3.8735 0 
-5.0755 -9.594501 -9.594501 -5.007 -5.007 -12.16972 -12.16972 -1.756 -7.4545 -8.693501 -5.985001 -4.908 -3.1405 -6.04 -4.885 -4.885 -3.8735 
-15.7674 -9.594501 -14.7501 -5.007 -18.27012 -12.16972 -13.92572 -7.4545 -9.132 -12.5704 -6.057 -5.5165 -6.346 -6.953 -7.452001 -4.885 
-15.7674 -14.7501 -14.7501 -18.27012 -18.27012 -13.92572 -19.62422 -9.132 -13.2035 -12.6424 -6.361001 -8.419001 -7.228 -9.3415 -7.452001 
-20.923 -14.7501 -28.01322 -18.27012 -20.02612 -19.62422 -21.30172 -13.2035 -13.2755 -12.9464 -9.1525 -9.2215 -9.672501 -9.3415 
-5.0755 0 -7.207 0 -5.007 0 -7.6255 0 -4.7515 -6.444 -2.3615 -3.4765 -2.4945 -5.99 -1.934 -3.8735 
-5.0755 -7.207 -7.207 -5.007 -5.007 -7.6255 -7.6255 -4.7515 -11.9667 -9.2495 -7.282001 -5.538 -8.298 -8.5165 -4.885 
-9.306 -7.207 -13.1498 -5.007 -13.7259 -7.6255 -13.332 -11.9667 -14.7722 -14.2526 -8.648001 -12.0819 -11.2825 -11.7117 
-9.306 -13.1498 -13.1498 -13.7259 -13.7259 -13.332 -20.5472 -14.7722 -19.7753 -15.6186 -15.5657 -15.0664 -14.4777 
-15.4854 -13.1498 -21.8687 -13.7259 -19.4324 -20.5472 -23.3527 -19.7753 -21.1413 -22.5363 -18.5502 -18.2616 
-5.0755 0 -7.276 0 -5.007 0 -5.795 0 -5.674 -2.4945 -1.4985 -3.4765 -4.673 -1.934 -3.8735 
-5.0755 -7.276 -7.276 -5.007 -5.007 -5.795 -5.795 -5.674 -8.693501 -3.9315 -5.24 -8.408501 -5.05 -4.885 
-9.3715 -7.276 -13.0884 -5.007 -10.884 -5.795 -9.621 -8.693501 -10.1725 -7.513 -10.66 -8.7945 -8.656 
-9.3715 -13.0884 -13.0884 -10.884 -10.884 -9.621 -12.8513 -10.1725 -13.754 -13.429 -11.046 -12.7919 
-15.4549 -13.0884 -18.9654 -10.884 -14.71 -12.8513 -14.3303 -13.754 -19.67 -13.815 -15.0434 
-5.0755 0 -7.207 0 -5.007 0 -5.795 0 -5.674 -2.674 -3.1125 -5.377 -2.5195 -3.8735 
-5.0755 -7.207 -7.207 -5.007 -5.007 -5.795 -5.795 -5.674 -9.407001 -3.6315 -7.865 -6.181 -5.578 
-9.306 -7.207 -13.1498 -5.007 -10.884 -5.795 -9.621 -9.407001 -10.336 -8.094 -8.924 -8.815001 
-9.306 -13.1498 -13.1498 -10.884 -10.884 -9.621 -13.5648 -10.336 -14.7985 -9.126 -11.7484 
-15.4854 -13.1498 -19.0268 -10.884 -14.71 -13.5648 -14.4938 -14.7985 -15.8305 -12.0094 
