-4.759 
n/a 
n/a 
n/a 
n/a 
-4.759 
n/a 
n/a 
n/a 
n/a 
-4.759 
n/a 
n/a 
n/a 
n/a 
-4.759 
n/a 
n/a 
n/a 
n/a 
-2.872 -1.934 -4.1735 -2.9805 -2.7415 -4.5025 -2.0935 -3.7875 -4.5305 -4.177 -2.356 -5.1475 
-4.659 -5.409 -6.565 -4.004 -5.866 -5.6995 -5.4945 -8.1745 -8.9835 -4.944 -7.867001 
-8.1995 -6.8385 -7.233 -6.7875 -7.4945 -8.628 -8.844001 -13.0419 -9.6195 -10.6605 
-9.307 -7.515501 -9.799001 -8.5495 -9.7045 -12.2357 -13.946 -13.6779 -15.3714 
-10.1725 -10.044 -11.6244 -10.586 -13.3938 -17.3377 -14.582 -19.4298 
-2.872 -2.9805 -3.251 -3.8315 -4.177 -2.356 -5.7725 0 -3.0415 -2.3335 -4.1735 -2.9805 -2.7415 -1.934 -3.325 -1.4985 -4.1975 0 
-4.6545 -4.429 -6.072001 -7.131001 -4.944 -8.293 -5.7725 -3.0415 -4.132 -8.2405 -6.565 -4.004 -4.5155 -5.6355 -3.898 -5.4275 -4.1975 
-6.215 -7.491 -10.5975 -8.81 -11.4016 -8.293 -9.1355 -4.132 -10.689 -10.858 -7.233 -5.5885 -8.583501 -6.7105 -8.0515 -5.4275 
-9.8865 -12.7059 -12.2765 -15.5408 -11.4016 -12.13 -10.276 -10.689 -13.3065 -11.526 -9.337501 -10.3095 -9.56 -10.7025 -8.0515 
-15.0552 -14.3849 -19.0073 -15.5408 -15.2386 -13.2705 -16.978 -13.3065 -13.9745 -13.6305 -14.2467 -10.7675 -13.6664 -10.7025 
-2.9805 -3.43 -4.5305 -3.0105 -2.356 -6.58 -2.9805 -2.7415 -5.5305 -1.934 -4.1735 0 
-5.2875 -7.1725 -7.97 -4.921 -8.1975 -8.4795 -4.004 -7.131001 -7.2155 -5.409 -4.1735 
-9.445001 -10.0575 -9.0205 -9.797501 -9.7615 -9.6455 -8.403501 -8.705 -11.3325 -5.409 
-10.2875 -10.1165 -13.389 -12.083 -11.3895 -13.703 -10.1855 -13.3956 -11.3325 
-10.303 -14.8692 -15.5208 -13.4503 -15.5944 -15.7148 -14.8761 -13.3956 
-2.872 -2.9805 -5.613 -3.2345 -3.8315 -2.356 -1.4985 -3.736 -2.5045 -4.1735 
-4.6545 -8.651501 -9.632 -7.306001 -5.4065 -3.1615 -4.6755 -6.186 -7.909 
-11.1063 -12.8919 -13.8935 -8.702001 -6.909 -6.26 -7.02 -12.3519 
-15.3467 -17.1534 -15.2895 -10.168 -9.173 -8.2565 -13.6413 
-19.6082 -18.5494 -16.7555 -12.432 -11.1617 -15.2094 
