-4.759 
n/a 
n/a 
n/a 
n/a 
-4.759 
n/a 
n/a 
n/a 
n/a 
-4.759 
n/a 
n/a 
n/a 
n/a 
-4.759 
n/a 
n/a 
n/a 
n/a 
-3.091 -4.19 -3.7435 -2.186 -7.165 -1.934 -5.3885 -4.961 -3.8875 0 
-6.795 -6.303 -5.4265 -8.314501 -7.788001 -6.4035 -9.1495 -7.358001 -3.8875 
-7.679 -7.9305 -10.5425 -8.7615 -12.5951 -10.341 -9.187 -7.358001 
-9.327001 -13.4847 -10.9895 -13.5628 -16.5326 -10.3925 -9.187 
-14.9538 -13.9317 -15.7908 -17.5003 -16.5841 -10.3925 
-3.091 -3.7435 -1.7695 -2.489 -1.934 -1.4985 -5.3885 -7.478 -3.8875 
-5.6315 -5.539001 -3.1405 -4.348 -2.6125 -7.283501 -13.8343 -9.5395 
-7.058001 -6.786 -4.8625 -4.967 -8.432001 -16.4145 -15.8958 
-8.173 -8.479 -5.4585 -11.2413 -17.6712 -18.476 
-10.0335 -9.1765 -11.8676 -20.4805 -19.7327 
-3.091 -3.7435 -2.7415 -4.992 -1.934 -5.3885 -4.961 -3.8875 -4.675 0 
-5.6315 -5.915 -6.014 -5.686 -6.4035 -9.1495 -7.358001 -7.976 -4.675 
-6.682 -7.892001 -6.4045 -10.7175 -10.341 -9.187 -12.1219 -7.976 
-8.309501 -8.312501 -11.4892 -14.655 -10.3925 -14.5721 -12.1219 
-8.649 -13.646 -15.4267 -14.7065 -15.7776 -14.5721 
-3.091 -3.7435 -2.7415 -4.992 -1.934 -1.4985 -12.16972 0 -4.961 -3.8875 
-5.6315 -5.915 -6.014 -5.686 -2.6125 -14.76202 -12.16972 -4.961 -7.358001 
-6.682 -7.892001 -6.4045 -6.1835 -16.27022 -14.76202 -17.13072 -7.358001 
-8.309501 -8.312501 -6.992 -20.22022 -16.27022 -19.72302 -19.52772 
-8.649 -8.753 -21.20452 -20.22022 -21.23122 -22.12002 
