-4.759 
n/a 
n/a 
n/a 
n/a 
-4.759 
n/a 
n/a 
n/a 
n/a 
-4.759 
n/a 
n/a 
n/a 
n/a 
-4.759 
n/a 
n/a 
n/a 
n/a 
-2.3615 -4.613 0 -4.077 -1.934 -5.518 -1.4985 -3.8605 -3.277 -3.8675 -2.5195 -3.6065 -3.959 0 
-5.7105 -4.613 -4.077 -4.43 -7.687 -6.0245 -5.821 -6.0225 -8.4475 -6.4995 -5.35 -5.801001 -3.959 
-5.7105 -8.0255 -4.43 -9.228001 -8.1105 -10.6215 -8.174001 -11.651 -11.4359 -10.016 -6.7205 -5.801001 
-9.141001 -8.7185 -9.228001 -9.621501 -12.9031 -12.9745 -14.3939 -14.6394 -14.9524 -11.3865 -6.7205 
-9.895 -13.6101 -9.621501 -14.4545 -15.2561 -19.1944 -17.3823 -18.1559 -16.3229 -11.3865 
-1.934 -2.3615 -3.3755 -3.929 -8.2755 -3.423 -3.935 -6.9375 -1.7695 -1.4985 -8.812 -4.795 0 -2.4265 -2.7415 -4.671 -1.4985 -3.8675 -2.9705 -3.152 -4.4635 -3.893 -2.3345 -3.5155 -2.0935 -3.2495 -5.1185 
-3.539 -4.8525 -6.6685 -12.9741 -12.3413 -6.4505 -11.8479 -8.3885 -2.7955 -9.603001 -13.9 -4.795 -2.4265 -3.681 -8.5635 -6.5845 -4.976 -6.1145 -5.007 -6.809 -5.6615 -5.817 -5.3885 -5.607 -4.798 -6.193501 
-5.301 -7.804 -15.8554 -17.0399 -15.3688 -14.9986 -13.2989 -9.106501 -11.1352 -14.7548 -13.9 -7.2295 -3.681 -9.715 -11.2748 -10.038 -7.057 -8.626 -8.043001 -7.559 -6.3635 -7.542 -8.5255 -8.9075 -7.505 
-8.455501 -17.1111 -19.9212 -20.0674 -23.9169 -16.4496 -14.0169 -17.6442 -16.287 -14.7548 -16.3345 -8.017 -9.715 -12.9349 -14.7283 -12.119 -9.3485 -11.8286 -8.796 -8.2945 -7.6075 -11.2324 -12.2708 -11.6803 
-17.8798 -21.1769 -22.9487 -28.6155 -25.3679 -17.1676 -22.5546 -22.796 -16.287 -17.1893 -17.122 -14.2562 -12.9349 -16.3884 -16.8093 -14.4105 -12.6129 -12.5816 -9.427001 -9.6525 -11.4737 -14.9777 -15.0436 
-3.929 -2.3615 -5.5635 -3.9955 -1.934 -5.047 -3.688 -3.764 -1.7695 -3.1385 -1.756 -4.257 -2.4265 -2.7415 -3.115 -5.518 -1.4985 -5.454 -2.3335 -2.4265 -2.8645 -3.43 -2.356 -3.3715 -3.959 -1.756 -2.9705 -2.4265 -3.251 -3.1125 -3.4635 -2.0935 -2.7455 -3.2495 -4.778 0 
-5.6945 -6.742001 -8.962501 -6.0695 -6.7635 -9.251501 -6.906 -4.397 -5.0525 -4.6325 -6.3795 -6.978 -3.681 -5.333 -8.998001 -6.0245 -6.658501 -7.2215 -3.913 -4.1435 -4.9155 -5.161 -5.039001 -5.699 -5.173 -4.972 -4.867001 -4.8545 -4.28 -6.0745 -6.216001 -4.987 -5.46 -5.537 -4.778 
-8.06 -9.5175 -11.6387 -11.6904 -11.2842 -12.7431 -8.7945 -8.979 -6.3715 -8.953001 -9.140501 -7.6805 -5.7345 -11.9064 -9.554501 -9.956 -8.255501 -9.065001 -5.2035 -6.0855 -7.584001 -8.228001 -7.731501 -6.907001 -8.009001 -7.2905 -6.7085 -5.5485 -7.4005 -7.819 -9.3195 -6.437 -7.731 -5.537 
-12.4499 -12.1983 -17.2596 -16.2111 -14.7758 -14.6316 -13.3945 -10.5235 -11.2426 -11.9186 -10.0225 -10.085 -12.5261 -12.4629 -13.5092 -11.5882 -9.8985 -9.457001 -6.4445 -8.7635 -10.1805 -11.1829 -8.8925 -9.546 -10.494 -9.0935 -7.349 -9.2635 -9.1145 -9.663 -10.6605 -8.197001 -7.731 
-15.1307 -17.8192 -21.7803 -19.7027 -16.6643 -19.2316 -14.939 -15.3946 -14.2082 -12.8006 -12.4694 -16.8766 -13.0826 -16.4176 -15.1414 -13.2312 -10.4145 -11.3708 -9.731001 -11.541 -13.318 -12.3439 -11.6445 -12.0692 -12.297 -10.0575 -11.3544 -10.758 -10.8929 -11.0944 -12.4205 -8.197001 

n/a 
n/a 
n/a 
n/a 
