-4.759 
n/a 
n/a 
n/a 
n/a 
-4.759 
n/a 
n/a 
n/a 
n/a 
-4.759 
n/a 
n/a 
n/a 
n/a 
-4.759 
n/a 
n/a 
n/a 
n/a 
-2.9805 -5.571 -2.5195 -1.4985 -3.6175 -2.5195 -2.3335 -3.193 -4.179 0 
-6.625501 -6.3935 -3.1695 -4.679501 -6.427 -4.9535 -5.214 -7.209001 -4.179 
-7.355 -6.6955 -6.8575 -7.252501 -8.8 -6.7545 -9.014 -7.209001 
-7.6225 -9.172 -9.8655 -9.349501 -10.335 -10.5635 -9.014 
-10.1105 -12.439 -12.0441 -11.1675 -14.144 -10.5635 
-2.9805 -2.8645 -5.571 -1.4985 -3.6175 -2.264 -2.3335 -3.193 -4.179 
-4.3245 -6.6385 -7.133 -4.679501 -5.807 -4.6785 -5.214 -7.209001 
-8.1155 -8.184 -9.437 -7.006001 -7.586 -6.0465 -9.014 
-9.777 -10.6162 -12.0493 -9.250501 -9.4825 -9.332001 
-12.2092 -13.2285 -14.2938 -10.554 -12.8486 
-2.9805 -2.186 -5.571 -3.595 -3.6175 -2.264 -2.3335 -3.218 0 
-4.1635 -7.846001 -8.5245 -8.029501 -5.807 -4.6785 -5.649 -3.218 
-8.677 -11.5801 -13.478 -10.6552 -7.586 -6.383 -5.649 
-12.6885 -16.5336 -16.1037 -12.4342 -10.485 -6.383 
-17.642 -19.1593 -17.8827 -15.3332 -10.485 
-2.9805 -5.571 -3.091 -3.6175 -2.264 -2.3335 -3.193 -4.179 
-6.625501 -6.8665 -5.6515 -5.807 -4.6785 -5.214 -7.209001 
-7.517001 -8.705 -7.6515 -7.586 -6.0465 -9.014 
-9.3085 -10.4945 -9.774 -9.4825 -9.332001 
-11.1508 -12.617 -10.637 -12.8486 
