-4.759 
n/a 
n/a 
n/a 
n/a 
-4.759 
n/a 
n/a 
n/a 
n/a 
-4.759 
n/a 
n/a 
n/a 
n/a 
-4.759 
n/a 
n/a 
n/a 
n/a 
-2.5045 -1.4985 -3.7515 -1.7565 -3.0605 
-3.1915 -4.705501 -4.6045 -5.2245 
-5.443 -4.844501 -6.3675 
-5.454 -6.3935 
-6.9385 
-1.934 -1.4985 -3.7515 -1.7565 -3.0605 
-2.6125 -4.705501 -4.6045 -5.2245 
-5.818 -4.844501 -6.3675 
-5.937 -6.3935 
-9.2825 
-2.5045 -1.4985 -3.7515 -1.7565 -3.0605 0 -3.0605 -10.4705 0 
-3.1915 -4.705501 -4.6045 -5.2245 -3.0605 -3.0605 -10.523 -10.4705 
-5.443 -4.844501 -6.3675 -5.2245 -5.185 -10.523 -10.523 
-5.454 -6.3935 -6.3675 -7.969 -12.9641 -10.523 
-6.9385 -6.3935 -9.928 -15.9769 -12.9641 
-3.5455 -1.4985 -3.7515 -1.7565 -3.0605 
-3.91 -4.705501 -4.6045 -5.2245 
-7.467 -4.844501 -6.3675 
-7.5045 -6.3935 
-9.6665 
