-4.759 
n/a 
n/a 
n/a 
n/a 
-4.759 
n/a 
n/a 
n/a 
n/a 
-4.759 
n/a 
n/a 
n/a 
n/a 
-4.759 
n/a 
n/a 
n/a 
n/a 
-4.393 0 -12.16972 -11.0235 0 -5.7865 0 
-4.393 -12.16972 -23.19322 -11.0235 -5.7865 -5.7865 
-16.93072 -23.19322 -23.19322 -16.81 -5.7865 
-27.95422 -23.19322 -28.97972 -16.81 
-27.95422 -28.97972 -28.97972 
-16.56272 -11.0235 0 -8.854 0 
-27.95422 -11.0235 -8.854 -8.854 
-27.95422 -19.8775 -8.854 
-36.80822 -19.8775 
-36.80822 
-4.393 0 -12.16972 -11.0235 0 -5.7865 0 
-4.393 -12.16972 -23.19322 -11.0235 -5.7865 -5.7865 
-16.93072 -23.19322 -23.19322 -16.81 -5.7865 
-27.95422 -23.19322 -28.97972 -16.81 
-27.95422 -28.97972 -28.97972 
-4.393 -12.16972 -11.0235 0 -5.7865 0 
-16.93072 -23.19322 -11.0235 -5.7865 -5.7865 
-27.95422 -23.19322 -16.81 -5.7865 
-27.95422 -28.97972 -16.81 
-33.74072 -28.97972 
