-4.759 
n/a 
n/a 
n/a 
n/a 
-4.759 
n/a 
n/a 
n/a 
n/a 
-4.759 
n/a 
n/a 
n/a 
n/a 
-4.759 
n/a 
n/a 
n/a 
n/a 
-2.871 -3.6505 -3.013 -1.4985 -4.474 -5.34 -1.4985 -4.295 -2.871 -3.535 -3.8725 -4.4315 0 
-6.712501 -6.891 -4.488 -5.5035 -10.0545 -6.827 -5.0575 -7.2045 -5.9125 -6.3905 -9.094001 -4.4315 
-9.679001 -8.5655 -9.408501 -10.564 -11.6279 -11.2796 -8.6145 -10.223 -6.7445 -12.1804 -9.094001 
-11.7201 -13.7258 -14.5634 -12.1374 -16.0805 -14.8366 -12.0178 -10.6175 -12.9044 -12.1804 
-16.8804 -18.8807 -16.1368 -16.59 -19.6375 -18.2399 -12.4123 -16.7774 -12.9044 
-6.771 -12.16972 -12.16972 -12.16972 0 -12.16972 -12.16972 -12.16972 -12.16972 -6.388 -6.2405 
-19.25672 -24.33944 -24.33944 -12.16972 -12.16972 -24.33944 -24.33944 -24.33944 -18.55772 -12.9957 
-31.42644 -36.50916 -24.33944 -24.33944 -24.33944 -36.50916 -36.50916 -30.72744 -25.16542 
-43.59616 -36.50916 -36.50916 -36.50916 -36.50916 -48.67888 -42.89716 -37.33514 
-43.59616 -48.67888 -48.67888 -48.67888 -48.67888 -55.06688 -49.50486 
-3.7745 -4.042 -3.86 
-6.255 -5.938001 
-6.3935 
n/a 
n/a 
-2.871 -3.333 -1.7695 -4.3435 -3.4985 -1.756 -5.2495 -1.7695 -4.126 -3.7075 -2.871 -3.4625 -3.535 -4.126 -2.4945 -6.686501 -4.7715 0 
-6.468 -4.022 -6.973501 -7.611 -4.7925 -6.966 -7.488501 -6.099 -7.910501 -6.9595 -6.589 -7.6795 -7.3725 -6.8465 -9.5255 -12.4644 -4.7715 
-8.374001 -10.6106 -9.5775 -9.050501 -10.151 -8.7625 -12.4514 -10.4529 -11.3727 -10.674 -10.7575 -11.8992 -10.3415 -14.0133 -15.3368 -12.4644 
-15.4704 -13.2146 -11.2582 -14.588 -11.9475 -13.9352 -16.8053 -13.9151 -15.0872 -14.8425 -14.9772 -14.8682 -17.5083 -19.8246 -15.3368 
-18.0744 -14.8953 -16.7957 -16.3845 -17.1202 -18.2891 -20.2675 -17.6296 -19.2557 -19.0622 -17.9462 -22.035 -23.3196 -19.8246 
