-4.759 
n/a 
n/a 
n/a 
n/a 
-4.759 
n/a 
n/a 
n/a 
n/a 
-4.759 
n/a 
n/a 
n/a 
n/a 
-4.759 
n/a 
n/a 
n/a 
n/a 
-2.5045 -1.4985 -3.5435 -1.7565 -5.1845 -5.74 -3.998 -1.4985 -3.098 -5.965 -2.7415 -3.7855 -2.3345 -1.4985 -4.6795 0 -4.7475 -1.934 -3.9415 -1.4985 -3.098 -4.164 -2.5045 -5.3885 
-3.583 -4.2755 -4.9885 -6.580501 -5.7465 -11.08 -5.36 -4.3095 -9.337501 -8.5935 -5.209001 -5.0075 -3.233 -6.048 -4.6795 -4.7475 -6.546 -5.2535 -5.4665 -4.3095 -6.175 -6.231 -8.4805 
-6.351 -5.2325 -7.883 -6.961501 -11.1283 -12.442 -7.910501 -9.703001 -10.6485 -11.1428 -6.337501 -5.5495 -7.1915 -6.048 -9.9205 -6.546 -10.0575 -6.2755 -8.699 -7.580501 -9.039001 -12.922 
-7.5595 -8.290501 -7.904 -12.6109 -12.4903 -14.9925 -13.4202 -10.6625 -13.1978 -12.2713 -7.031001 -9.38 -7.1915 -10.586 -11.8518 -10.0575 -10.5695 -9.074 -10.1685 -9.671 -15.7878 
-10.8527 -8.295501 -13.721 -13.9729 -15.0408 -20.5022 -14.3797 -13.2118 -14.3263 -12.9648 -10.142 -9.38 -10.749 -12.5173 -15.3633 -10.5695 -13.368 -10.335 -12.4792 -16.5204 
-1.934 -3.9415 0 -3.5065 -1.4985 -5.1845 -5.74 -3.5435 -4.4015 -2.3335 -1.4985 -3.098 -5.965 0 -2.7415 -3.7855 -2.3345 -1.4985 -4.6795 0 -2.4265 -2.7415 -5.369 -2.5045 -5.3885 0 
-5.2535 -3.9415 -3.5065 -4.358 -6.5205 -5.7465 -7.83 -6.8275 -5.3755 -3.3515 -4.3095 -9.337501 -5.965 -2.7415 -5.209001 -5.0075 -3.233 -6.048 -4.6795 -2.4265 -3.681 -6.3245 -6.956 -8.4805 -5.3885 
-5.2535 -7.2885 -4.358 -9.627001 -7.317 -7.8315 -10.7025 -7.646501 -6.104 -6.2085 -9.703001 -9.337501 -8.5935 -5.209001 -6.337501 -5.5495 -7.1915 -6.048 -7.903 -3.681 -7.108 -7.699501 -10.4945 -8.4805 
-7.6495 -8.2005 -9.627001 -10.7515 -8.059501 -10.702 -11.5215 -8.034 -8.740001 -11.7262 -9.703001 -10.6485 -11.1428 -6.337501 -7.031001 -9.38 -7.1915 -8.8605 -9.002501 -7.108 -8.465 -11.3788 -10.4945 
-9.024 -13.5245 -10.7515 -11.494 -10.7595 -11.521 -11.909 -11.0626 -14.4365 -11.7262 -10.6625 -13.1978 -12.2713 -7.031001 -10.142 -9.38 -9.4335 -9.5135 -12.4661 -8.465 -12.1923 -11.3788 
-1.934 -3.9415 0 -3.034 -1.4985 -6.557 -5.172 -3.998 -2.3335 -1.4985 -3.098 -5.965 -2.7415 -3.7855 -2.3345 -1.4985 -8.043 
-5.2535 -3.9415 -3.034 -3.947 -8.1955 -9.297001 -9.752001 -5.1075 -3.3515 -4.3095 -9.337501 -8.5935 -5.209001 -5.0075 -3.233 -8.394 
-5.2535 -6.599 -3.947 -10.9648 -10.316 -14.0142 -10.624 -5.9775 -6.2085 -9.703001 -10.6485 -11.1428 -6.337501 -5.5495 -9.901 
-6.991 -7.281 -10.9648 -13.0853 -15.0332 -14.8862 -11.494 -8.5675 -11.7262 -10.6625 -13.1978 -12.2713 -7.031001 -12.5703 
-7.691501 -14.5486 -13.0853 -17.8025 -15.9052 -15.7562 -14.084 -14.1502 -12.6857 -13.2118 -14.3263 -12.9648 -14.303 
-6.557 -3.5435 -3.998 -2.3335 -1.4985 -3.098 -5.965 0 -2.7415 -3.7855 -2.3345 -4.452 0 -3.0415 -2.4265 -3.251 -3.1125 -4.164 -2.5045 -5.3885 0 -1.934 -3.9415 0 
-8.731501 -7.856 -5.1075 -3.3515 -4.3095 -9.337501 -5.965 -2.7415 -5.209001 -5.0075 -7.5535 -4.452 -3.0415 -4.551 -4.8545 -4.28 -5.73 -6.231 -8.4805 -5.3885 -1.934 -5.2535 -3.9415 
-13.2814 -8.634501 -5.9775 -6.2085 -9.703001 -9.337501 -8.5935 -5.209001 -6.337501 -10.2865 -7.5535 -8.1385 -4.551 -7.174 -5.5485 -7.1225 -7.693501 -12.922 -8.4805 -7.4995 -5.2535 -5.2535 
-14.0599 -9.306 -8.5675 -11.7262 -9.703001 -10.6485 -11.1428 -6.337501 -11.8181 -10.2865 -10.4185 -9.493 -7.174 -8.2155 -8.51 -9.151501 -14.6865 -12.922 -10.119 -9.975 -5.2535 
-14.7314 -11.9718 -14.1502 -11.7262 -10.6625 -13.1978 -12.2713 -11.8181 -11.8181 -13.2925 -11.773 -12.3432 -8.2155 -11.4178 -10.717 -16.2649 -14.6865 -14.5605 -12.7387 -9.975 
