-4.759 
n/a 
n/a 
n/a 
n/a 
-4.759 
n/a 
n/a 
n/a 
n/a 
-4.759 
n/a 
n/a 
n/a 
n/a 
-4.759 
n/a 
n/a 
n/a 
n/a 
-3.188 -2.229 -3.383 -3.699 -5.216 -2.4945 -1.934 -3.8735 
-4.279 -5.152 -5.014 -9.101501 -7.0175 -4.2645 -4.885 
-7.8885 -6.3765 -10.8811 -10.427 -9.033 -7.7735 
-10.2524 -13.0866 -12.2066 -12.4425 -12.7312 
-16.9625 -14.4121 -14.2221 -16.1407 
-3.8735 -3.7875 -4.834 -3.383 -3.535 -4.245 
-7.6775 -9.897 -8.546 -5.298 -8.469501 
-13.9466 -13.6574 -10.8366 -9.969501 
-17.707 -15.948 -15.5081 
-19.9976 -20.6195 
-3.188 -3.383 -4.4525 -1.7695 -4.245 -1.7565 -3.737 -3.8735 0 
-7.2295 -8.5185 -5.610001 -6.460001 -6.1035 -5.1295 -7.8975 -3.8735 
-12.7522 -9.4975 -9.930501 -8.658501 -10.7175 -8.920501 -7.8975 
-13.7312 -13.8086 -12.2316 -13.4855 -14.5085 -8.920501 
-18.0423 -16.1097 -17.0586 -17.2765 -14.5085 
-3.8735 -2.674 -3.188 -2.229 -3.2825 -4.245 -5.216 0 
-6.702 -7.193501 -4.279 -4.672 -7.8785 -10.4265 -5.216 
-10.7175 -8.356501 -5.635 -8.359501 -14.6614 -10.4265 
-11.8805 -9.505 -8.376 -15.7468 -14.6614 
-13.029 -12.519 -15.8353 -15.7468 
