-4.759 
n/a 
n/a 
n/a 
n/a 
-4.759 
n/a 
n/a 
n/a 
n/a 
-4.759 
n/a 
n/a 
n/a 
n/a 
-4.759 
n/a 
n/a 
n/a 
n/a 
-3.436 -2.3335 -2.925 -2.674 -3.7855 -5.2645 -4.1865 -2.985 -3.9975 -3.1385 -3.098 -4.357 
-5.4805 -4.0295 -4.1785 -5.347 -9.8675 -10.7665 -7.4785 -8.498001 -7.356501 -6.344 -7.3175 
-7.4115 -5.151 -6.676001 -12.1242 -15.4811 -14.0585 -13.4833 -12.1066 -11.2286 -10.6735 
-8.912001 -7.659 -13.6962 -17.7378 -18.7731 -20.0633 -17.0919 -15.9787 -15.5581 
-10.4945 -14.7666 -19.3098 -21.0298 -24.7779 -23.6719 -20.964 -20.3082 
-1.4985 -4.191 -2.7415 -3.7855 -3.436 -1.4985 -4.828 -3.0415 -2.3335 -3.0365 -2.7415 -3.098 -3.9975 -4.9225 -4.493 0 
-5.8 -6.9355 -5.209001 -6.757501 -4.213 -5.8065 -7.5345 -4.132 -4.2925 -4.2225 -5.107 -7.3115 -9.998 -9.554001 -4.493 
-7.6245 -8.1315 -7.885 -7.2225 -8.6145 -8.373501 -8.314 -6.121 -5.2565 -6.133 -8.871 -13.6022 -14.6295 -9.554001 
-9.0345 -9.690001 -8.229501 -11.9738 -11.4951 -9.218 -10.504 -7.338 -7.2235 -10.845 -15.3405 -18.2337 -14.6295 
-10.758 -10.0735 -13.1886 -14.8544 -12.3396 -11.5746 -11.721 -9.139 -12.1203 -17.3145 -19.972 -18.2337 

n/a 
n/a 
n/a 
n/a 
-3.8315 -4.898 -4.4725 -1.4985 -5.5395 -3.539 -2.5045 -3.9975 0 
-7.0985 -9.6 -5.712 -6.697001 -8.795 -5.5335 -6.7095 -3.9975 
-12.5449 -10.137 -10.688 -9.812 -10.9773 -10.4035 -6.7095 
-13.0819 -15.9054 -13.803 -12.0837 -15.8473 -10.4035 
-18.8503 -19.0204 -16.0747 -16.9537 -15.8473 
