-4.759 
n/a 
n/a 
n/a 
n/a 
-4.759 
n/a 
n/a 
n/a 
n/a 
-4.759 
n/a 
n/a 
n/a 
n/a 
-4.759 
n/a 
n/a 
n/a 
n/a 
-3.0365 -2.4945 -3.304 -3.468 -1.934 -1.4985 -3.9675 -1.7565 -3.676 0 
-3.688 -6.384 -5.782001 -5.1985 -2.6125 -5.1285 -4.4555 -4.4345 -3.676 
-7.083001 -8.530001 -7.272501 -5.8005 -6.086 -5.356 -8.1595 -4.4345 
-8.5605 -9.103001 -7.7665 -9.145 -6.1705 -8.899 -8.1595 
-9.105 -9.194501 -11.9692 -9.276501 -10.494 -8.899 
-3.5085 -1.7565 -3.304 -3.468 -4.6805 -1.934 -3.4225 -3.468 -1.7565 -3.676 
-4.8005 -5.1575 -5.782001 -8.269 -6.1645 -5.4655 -3.628 -4.7385 -4.4345 
-6.981 -7.465001 -11.399 -9.79 -10.4982 -5.5855 -5.001 -5.0245 
-9.823501 -13.3972 -12.92 -14.3249 -10.6182 -7.1395 -5.036 
-16.0193 -14.9182 -17.4549 -14.4449 -12.1722 -7.1535 
-4.275 -3.676 -2.229 -4.5925 -3.304 -3.468 0 
-8.9215 -4.593 -6.22 -9.1945 -5.782001 -3.468 
-10.1515 -9.986501 -11.323 -11.7497 -5.782001 
-15.545 -15.3699 -13.8782 -11.7497 
-20.9284 -17.9251 -13.8782 
-3.4975 -3.5085 -3.304 -3.8145 0 
-7.6805 -6.7885 -7.708 -3.8145 
-10.503 -11.6487 -7.708 
-15.3632 -11.6487 
-15.3632 
