-4.759 
n/a 
n/a 
n/a 
n/a 
-4.759 
n/a 
n/a 
n/a 
n/a 
-4.759 
n/a 
n/a 
n/a 
n/a 
-4.759 
n/a 
n/a 
n/a 
n/a 
-2.847 -4.2665 -4.1175 -2.0935 -2.3615 0 
-6.628 -6.4995 -4.9375 -3.854 -2.3615 
-7.609 -6.8455 -6.6215 -3.854 
-7.9615 -8.4545 -6.6215 
-9.0415 -8.4545 
-2.925 -3.4405 -2.6165 -3.402 -2.264 -3.5855 
-7.8605 -3.7415 -5.9285 -3.793 -5.6975 
-8.3695 -9.012501 -5.998001 -7 
-13.8185 -9.069 -8.3035 
-13.875 -11.6177 
-2.4265 -2.8645 -2.847 -4.2665 -3.918 
-4.1435 -4.6285 -6.628 -7.648 
-5.843 -7.8955 -9.4285 
-8.872001 -9.969501 
-11.0734 
-3.0365 -2.186 -2.847 -3.331 -4.2665 -3.918 -2.0935 -2.3615 0 
-3.66 -4.1045 -5.056 -8.254001 -7.648 -5.5555 -3.854 -2.3615 
-4.256001 -5.606 -11.226 -12.0399 -8.351 -7.4605 -3.854 
-5.612 -12.5978 -15.0119 -12.7429 -10.347 -7.4605 
-12.6318 -16.3837 -15.7149 -14.7389 -10.347 
