-4.759 
n/a 
n/a 
n/a 
n/a 
-4.759 
n/a 
n/a 
n/a 
n/a 
-4.759 
n/a 
n/a 
n/a 
n/a 
-4.759 
n/a 
n/a 
n/a 
n/a 
-7.4885 -2.5195 -4.4175 -4.208 -5.7865 -12.16972 -2.925 -5.1605 -6.557 0 
-9.705 -7.040501 -8.033501 -10.2865 -18.94002 -15.09472 -7.3755 -10.7335 -6.557 
-14.3234 -11.1449 -14.7706 -23.67002 -21.86502 -19.54522 -13.1997 -10.7335 
-18.4278 -17.882 -28.15412 -26.59502 -26.31552 -25.36942 -13.1997 
-25.1649 -31.26552 -31.07912 -31.04552 -32.13972 -25.36942 
-1.4985 -4.365 -3.5215 -3.8405 -2.186 -4.208 -1.7695 -4.4485 -4.153 -1.934 -6.557 0 
-5.4465 -9.0495 -8.417 -5.629 -6.9875 -6.456 -6.737 -6.742001 -5.9665 -7.536 -6.557 
-10.6095 -14.1996 -10.7495 -9.672001 -8.521001 -7.898 -8.6525 -8.707001 -10.476 -7.536 
-15.7596 -16.5321 -14.7925 -11.4173 -10.5324 -9.7825 -10.9611 -13.3509 -10.476 
-18.0921 -20.5751 -16.5378 -13.4287 -12.4169 -12.2509 -15.605 -13.3509 
-6.4185 -3.4795 -12.16972 -2.229 -5.1605 -5.1845 -5.74 -2.5195 -2.1715 -4.4175 -9.004001 -1.7695 -2.543 -4.184 -4.153 
-6.943 -16.69602 -14.39872 -8 -10.0545 -5.7465 -8.657001 -4.909 -6.744501 -13.8251 -11.1415 -4.76 -5.624001 -5.8855 
-20.56912 -18.92502 -20.16972 -13.0542 -10.2005 -8.6735 -11.1453 -9.557 -16.6925 -15.9626 -14.132 -7.699501 -7.898001 
-22.79812 -24.69602 -25.22392 -13.2002 -13.1275 -11.1582 -15.7933 -20.19 -18.83 -18.9531 -17.0715 -9.7705 
-28.56912 -29.75022 -25.36992 -16.1272 -15.6122 -15.8062 -26.4263 -22.3275 -21.8205 -21.8926 -19.1425 
-1.934 -3.8405 -3.436 -4.6105 -2.1715 -3.5075 -4.153 -3.9535 -2.925 -1.7695 -4.4485 -4.153 -2.9805 -5.1605 -1.934 -3.8735 0 
-6.2335 -6.325 -7.696 -6.2985 -5.23 -6.065001 -8.313001 -6.2725 -3.71 -6.737 -6.742001 -6.680501 -7.0915 -6.4305 -4.885 -3.8735 
-8.7565 -11.2725 -10.8145 -9.824 -7.95 -10.396 -11.0542 -8.1005 -8.1455 -8.6525 -9.234501 -10.0995 -8.415 -9.4965 -4.885 
-14.0313 -13.9205 -14.3082 -11.4595 -12.6988 -13.1372 -12.8822 -12.6562 -10.4348 -11.4886 -12.7789 -11.5176 -11.5682 -9.4965 
-16.5667 -17.214 -16.1225 -16.6975 -15.44 -14.9652 -17.4379 -14.9455 -13.2709 -15.033 -14.197 -14.6708 -11.5682 
