-4.759 
n/a 
n/a 
n/a 
n/a 
-4.759 
n/a 
n/a 
n/a 
n/a 
-4.759 
n/a 
n/a 
n/a 
n/a 
-4.759 
n/a 
n/a 
n/a 
n/a 
-5.345 -4.455 -3.2645 -2.489 -4.222 -1.934 -1.8085 -4.698 -3.8225 0 -3.321 -3.098 -2.4265 -2.742 -4.5385 -2.5045 -1.8085 -3.5035 0 
-10.151 -7.9855 -3.7195 -5.2925 -4.945 -3.2685 -6.8645 -8.075001 -3.8225 -3.321 -6.0555 -5.79 -4.095 -8.587501 -5.369 -3.3625 -5.268 -3.5035 
-13.6815 -8.620001 -6.985 -5.567 -7.759501 -8.13 -10.044 -8.075001 -7.134501 -6.0555 -8.595501 -7.381001 -9.978001 -9.779 -5.973001 -6.6925 -5.268 
-14.316 -11.9667 -8.377501 -8.622001 -13.1044 -11.5611 -10.044 -11.8414 -10.2485 -8.595501 -9.111 -13.6648 -10.5795 -10.6765 -9.635501 -6.6925 
-17.6627 -13.3592 -10.13 -14.4041 -16.5355 -11.5611 -13.8104 -14.9554 -12.7885 -9.111 -15.5716 -14.2663 -11.477 -14.339 -9.635501 
-4.698 -3.8225 -5.2275 -2.489 -5.1895 -3.222 -3.5035 -3.834 -5.1195 -4.455 -4.321 
-8.075001 -9.046 -6.059501 -6.1405 -5.792 -5.713 -7.1855 -10.4765 -9.772501 -9.281501 
-13.7529 -9.951 -10.3558 -6.492 -9.476501 -8.8505 -14.1764 -15.1295 -14.7302 
-14.6579 -14.2473 -10.7073 -10.292 -12.6794 -16.0094 -18.8294 -20.0872 
-18.9542 -14.5988 -14.5073 -13.4949 -19.8383 -20.6624 -23.7871 
-4.426 -1.7565 -1.4985 -3.0835 -4.7285 -4.1555 -3.147 -2.871 -1.7565 -1.4985 -4.698 -1.7565 -3.299 -3.391 -4.455 -1.7565 -5.443 -1.934 -6.0525 -3.2895 0 
-5.47 -2.4195 -3.535 -6.042 -8.4455 -5.77 -6.229 -3.5385 -2.4195 -5.740001 -6.086 -4.7685 -6.241 -8.703501 -5.459001 -8.1885 -7.577001 -9.803 -9.9405 -3.2895 
-5.9535 -4.6785 -6.335501 -9.523001 -9.541501 -9.0235 -6.934 -3.7675 -6.387001 -6.5245 -10.6335 -7.56 -12.1839 -10.0575 -12.9708 -10.0345 -15.9262 -13.7706 -9.9405 
-8.021 -7.476501 -10.0095 -10.7035 -12.795 -9.696501 -7.144001 -9.1105 -6.948 -11.462 -13.425 -13.6283 -13.5379 -17.5455 -14.8168 -18.5547 -19.8938 -13.7706 
-9.983001 -11.3061 -11.3 -13.957 -13.468 -9.890501 -12.6422 -10.2597 -12.3119 -14.2535 -19.4933 -14.9823 -21.0259 -19.3915 -23.337 -22.5223 -19.8938 
-5.7865 -4.6925 -2.3345 -4.455 -1.934 -1.4985 -3.683 -3.9665 -3.43 -2.3345 -4.698 0 -2.4265 -2.186 -2.6165 -4.1535 0 
-11.4628 -7.1415 -6.6545 -6.558001 -2.6125 -4.9055 -8.807 -7.011001 -4.5865 -6.4235 -4.698 -2.4265 -3.292 -3.5105 -6.165501 -4.1535 
-13.9118 -11.9111 -9.168 -7.347501 -6.0225 -9.691501 -12.1523 -9.158001 -7.8365 -6.4235 -7.033501 -3.292 -4.443 -6.7705 -6.165501 
-18.6814 -14.4246 -10.265 -10.248 -10.733 -13.0782 -14.2993 -12.7928 -7.8365 -8.429001 -7.4805 -4.443 -7.986001 -6.7705 
-21.1949 -15.5216 -13.1655 -15.9953 -14.1197 -15.2252 -17.9341 -12.7928 -10.204 -8.939501 -8.6525 -7.986001 -7.986001 
