-4.759 
n/a 
n/a 
n/a 
n/a 
-4.759 
n/a 
n/a 
n/a 
n/a 
-4.759 
n/a 
n/a 
n/a 
n/a 
-4.759 
n/a 
n/a 
n/a 
n/a 
-1.4985 -4.764 -1.7565 -4.9375 -1.7565 -3.995 -1.756 -3.1435 -4.289 -1.7565 -4.9375 -2.4945 -2.6165 -1.934 -1.4985 -3.486 -3.3755 -2.5195 -1.4985 -5.714 -3.42 -1.7565 -1.4985 -3.7075 0 -1.4985 -3.995 -2.229 -5.2455 -2.4945 -5.728 -4.4705 -5.579 0 -1.756 -1.4985 -4.4515 -1.756 -3.995 -2.4945 -2.5645 -4.4705 -4.685 0 
-5.909 -5.776 -6.199501 -5.944 -5.423 -5.3025 -4.1365 -6.842 -5.997 -6.199501 -7.5735 -3.8065 -4.552 -2.6125 -3.5655 -5.091 -5.5865 -3.1695 -6.841001 -7.803 -4.703 -2.4195 -4.6235 -3.7075 -1.4985 -4.712 -5.324 -7.9265 -6.7895 -9.083501 -9.2885 -9.9835 -5.579 -1.756 -3.0405 -5.0235 -5.855 -5.736 -6.4845 -5.936501 -6.473001 -7.5985 -4.685 
-6.313 -6.848501 -6.948 -8.369 -6.429 -6.9485 -8.6025 -8.88 -11.0638 -8.454 -9.0165 -5.5825 -5.1725 -4.5805 -5.103 -7.8475 -6.257501 -7.5315 -8.4525 -9.2675 -5.771 -5.468501 -4.6235 -5.487 -4.712 -5.586 -12.3347 -9.5345 -12.58 -11.42 -14.1232 -9.9835 -7.513501 -3.0405 -6.4645 -6.1355 -7.913001 -7.617001 -10.7175 -9.540501 -9.3205 -7.5985 
-7.197 -7.5625 -9.6035 -9.443 -8.247001 -12.2197 -9.4475 -14.1708 -13.3183 -9.882501 -10.8619 -6.1495 -6.66 -5.435 -7.8595 -8.432 -10.8759 -9.6885 -9.536 -9.624001 -8.986501 -5.468501 -6.1435 -8.0015 -5.586 -13.1019 -13.9427 -15.408 -15.6702 -18.4828 -14.5926 -11.918 -8.918 -6.4645 -7.607 -8.35 -8.958 -12.136 -14.3215 -10.5245 -9.3205 
-7.7 -10.3885 -10.8497 -10.6745 -13.6906 -13.0647 -14.9881 -16.4253 -14.7468 -11.7279 -11.4289 -7.289001 -7.665 -8.190001 -8.443501 -13.2356 -13.0329 -10.2405 -9.732 -12.9565 -8.986501 -6.678 -8.033001 -8.8345 -13.1019 -14.7099 -19.8162 -18.4982 -22.2628 -18.4828 -16.5271 -13.3225 -12.42 -7.607 -9.950001 -9.478001 -13.8132 -15.74 -15.3055 -10.5245 
-3.995 -2.229 -5.1795 -1.756 -1.4985 -5.8445 -4.6545 -2.4945 -2.6165 -1.934 -4.8455 0 -3.995 -2.229 -5.8445 -4.6545 -2.186 -5.728 -4.082 -5.4695 -4.2815 -1.7695 -3.7075 -2.229 -5.8445 -4.6545 -1.756 -3.074 -1.4985 -3.995 -4.4515 -2.186 -2.5645 -4.4705 -5.904 -3.1575 -3.995 -3.7075 -5.8445 -4.6545 0 
-5.324 -6.7015 -6.648 -3.0405 -6.6695 -7.3495 -7.5065 -3.8065 -4.552 -6.115 -4.8455 -3.995 -5.324 -7.6365 -7.3495 -6.3835 -8.615 -9.535501 -8.692501 -9.9895 -4.4915 -6.146501 -5.5255 -7.6365 -7.3495 -6.1195 -4.566 -4.6505 -4.712 -6.726 -6.113501 -5.5565 -6.473001 -9.394501 -9.314 -7.283501 -7.058001 -9.645 -7.3495 -4.6545 
-7.111 -7.811501 -7.638 -7.7475 -7.821001 -9.747 -9.162001 -5.5825 -7.4335 -6.115 -10.281 -5.324 -9.710501 -9.901001 -8.665501 -11.5265 -11.6775 -12.4865 -13.2325 -10.116 -8.834001 -7.3205 -10.2485 -9.901001 -8.619 -8.745 -5.66 -8.467501 -7.467 -9.455 -9.783001 -8.473001 -10.733 -12.8845 -13.601 -10.564 -14.0229 -11.347 -7.3495 
-8.1315 -8.6335 -10.159 -8.868501 -10.2645 -11.4453 -10.946 -8.073501 -7.4335 -12.2701 -11.7922 -9.710501 -11.7496 -11.2824 -12.9489 -14.3847 -16.16 -17.5023 -13.359 -14.7003 -9.4545 -12.5417 -12.513 -11.2359 -11.4613 -9.603001 -9.286501 -11.4371 -10.138 -13.4115 -10.7205 -12.8906 -14.223 -17.1715 -16.8815 -17.5289 -15.7249 -11.347 
-8.893001 -10.434 -11.7292 -10.5635 -11.9628 -13.2293 -13.437 -8.073501 -13.9 -13.7813 -16.1787 -11.7496 -13.131 -15.5658 -17.1549 -18.8958 -20.7 -17.6288 -17.9433 -15.3208 -14.8059 -14.8062 -13.8479 -14.0782 -12.3193 -13.3697 -12.4629 -14.1081 -14.0945 -14.349 -15.1381 -16.3806 -18.51 -20.452 -23.8464 -19.2309 -15.7249 
-3.995 -2.229 -3.5285 -4.0325 -1.756 -4.764 -4.918 -2.4945 -2.6165 -1.934 -3.8825 -3.995 -2.186 -6.053 -1.7695 -5.728 -4.082 -2.5195 -3.1435 -4.764 0 -3.074 -1.4985 -8.446501 -4.502 -2.186 -2.5645 -4.082 -3.8515 -2.5195 -7.7025 -4.502 0 
-5.324 -5.8175 -7.596 -5.667 -7.0725 -9.1085 -7.809501 -3.8065 -4.552 -5.963 -8.8925 -5.7465 -6.998 -7.3395 -7.987 -9.535501 -5.5795 -4.948 -6.9065 -4.764 -3.074 -4.6505 -7.443001 -11.5415 -6.2555 -5.5565 -6.72 -8.369501 -4.4615 -9.215 -12.6705 -4.502 
-10.016 -9.3275 -8.773001 -10.674 -11.751 -12.322 -9.332001 -5.5825 -9.139501 -10.564 -10.8298 -8.538 -8.196 -13.9386 -11.078 -11.4085 -9.002501 -8.8615 -6.9065 -7.989 -4.6505 -11.2225 -13.1747 -14.3754 -8.966001 -9.3435 -11.4759 -8.541 -10.7385 -16.0804 -13.6979 
-13.7994 -10.46 -13.9624 -15.3525 -14.9645 -13.8445 -11.1846 -9.89 -13.7743 -12.5013 -13.6213 -10.513 -14.8571 -17.873 -14.5987 -15.4793 -13.016 -8.8615 -9.818001 -9.242001 -11.4371 -17.8512 -15.8228 -17.0859 -13.246 -14.3526 -11.6474 -15.3498 -18.0792 -16.3694 
-14.9319 -15.6494 -18.6409 -18.566 -16.487 -15.6971 -15.4921 -14.5724 -15.7116 -15.2928 -15.5963 -17.2771 -18.7915 -20.9183 -18.1937 -19.4928 -13.016 -10.4505 -11.1784 -16.0286 -17.8512 -19.7929 -18.5333 -21.3659 -18.2551 -14.5241 -18.4562 -22.2787 -18.0792 
-1.934 -1.4985 -3.995 -1.756 -1.4985 -3.7075 -5.2365 -2.4945 -4.0675 -5.728 -3.7575 -3.3755 -1.7565 -1.4985 -4.0325 
-2.6125 -4.712 -5.3025 -3.0405 -4.6235 -7.8765 -6.852 -5.845 -10.8035 -9.5625 -8.125 -4.5295 -2.4195 -4.933001 
-6.1055 -5.7925 -6.282 -6.186 -8.028501 -10.1305 -9.9455 -13.2633 -16.1208 -15.6144 -9.579 -5.7205 -6.1675 
-7.198 -6.587501 -7.568 -10.13 -10.199 -13.3352 -17.6062 -18.2938 -21.3247 -17.0684 -10.762 -9.243501 
-8.264501 -7.701 -11.9368 -12.7591 -13.4261 -20.9959 -22.6367 -23.4977 -22.7787 -18.2514 -14.285 
