-4.759 
n/a 
n/a 
n/a 
n/a 
-4.759 
n/a 
n/a 
n/a 
n/a 
-4.759 
n/a 
n/a 
n/a 
n/a 
-4.759 
n/a 
n/a 
n/a 
n/a 
-2.4265 -2.186 -1.934 -4.4145 -3.5015 -1.934 -1.4985 -3.188 -1.934 -5.5525 -3.402 -4.351 
-3.292 -4.0835 -6.297 -6.273 -4.704 -2.6125 -3.619 -5.106 -7.321 -9.051001 -7.634501 
-5.206 -8.114 -7.087 -7.151 -5.1615 -4.377 -5.3355 -10.533 -11.6873 -13.3985 
-9.884501 -8.4095 -7.8865 -7.353 -6.3265 -6.109 -10.9317 -14.8993 -16.0348 
-10.1335 -9.1485 -8.040001 -9.1155 -8.061501 -12.0414 -15.298 -19.2468 
-5.264 -2.186 -3.0835 -1.7565 -4.351 0 -1.756 -2.3615 -2.186 -1.934 -4.4485 -3.5015 0 
-6.5445 -5.597 -4.9645 -5.2575 -4.351 -1.756 -4.4615 -3.5005 -4.0835 -6.5175 -6.4915 -3.5015 
-10.151 -7.048501 -9.967501 -5.2575 -5.283 -4.4615 -5.0895 -5.701 -8.446501 -7.489501 -6.4915 
-11.9967 -13.0047 -9.967501 -5.855 -8.8 -5.0895 -7.3215 -10.6342 -9.1245 -7.489501 
-17.9529 -13.0047 -10.565 -9.804501 -9.377001 -7.3215 -12.2899 -11.3122 -9.1245 
-1.4985 -4.0885 -3.8685 -1.7565 -1.4985 -3.8565 -4.0705 -4.5525 -3.5015 -1.934 -1.4985 -3.188 0 
-4.856 -6.6285 -4.9575 -2.4195 -4.882 -10.19 -9.880501 -8.443001 -4.704 -2.6125 -3.619 -3.188 
-7.581 -8.164001 -5.364501 -5.763 -11.5787 -16 -13.8168 -9.504001 -5.1615 -4.377 -3.619 
-8.3245 -8.632501 -9.476501 -12.6515 -17.3887 -19.9363 -14.8778 -9.777 -6.3265 -4.377 
-8.763 -12.9101 -16.6316 -18.4615 -21.325 -20.9973 -15.1508 -10.692 -6.3265 
-5.264 -2.3335 -4.4825 -3.325 -1.4985 -4.042 -1.756 -4.425 -3.188 -4.4145 -3.5015 
-7.255501 -5.798 -7.365 -3.898 -4.778501 -5.2105 -6.0105 -7.5345 -8.192501 -6.273 
-10.9848 -8.469001 -7.8985 -8.1925 -5.805 -9.713501 -9.613501 -13.8366 -10.035 
-13.6558 -9.054001 -12.5296 -9.696 -10.4505 -13.5419 -15.5776 -15.6791 
-14.2408 -13.7605 -14.0331 -14.3181 -14.2789 -19.506 -17.4201 
