-4.759 
n/a 
n/a 
n/a 
n/a 
-4.759 
n/a 
n/a 
n/a 
n/a 
-4.759 
n/a 
n/a 
n/a 
n/a 
-4.759 
n/a 
n/a 
n/a 
n/a 
-8.3715 -1.7695 -2.3615 -3.8405 -4.593 -6.276 -4.082 -12.16972 -12.16972 -5.334001 -12.16972 -3.9285 
-10.0925 -3.736 -5.371 -9.077001 -10.814 -9.774501 -17.48552 -24.33944 -16.89472 -17.42472 -16.09822 
-13.9368 -7.3865 -10.647 -15.4785 -14.8115 -23.32312 -29.65524 -29.06444 -30.08784 -21.84662 
-18.0543 -12.8861 -17.0485 -19.5305 -29.11922 -35.97044 -34.38024 -42.25756 -34.01634 
-23.5539 -19.2876 -21.1005 -33.83822 -41.28894 -40.69544 -47.57336 -46.18606 
-3.458 -8.3715 -4.2485 -4.507 -1.934 -9.484501 0 -5.334001 -2.802 
-10.484 -12.65 -6.844001 -5.251 -11.91 -9.284 -4.725 -7.499001 
-16.5318 -16.4901 -8.070001 -17.1465 -12.433 -12.924 -7.9045 
-19.4901 -17.7161 -20.5861 -17.2425 -16.073 -16.1035 
-20.7161 -30.2322 -20.5861 -20.8825 -19.2525 

n/a 
n/a 
n/a 
n/a 
-8.3715 -3.5725 -4.739 -4.126 -4.2485 -6.276 -4.082 -3.106 -4.082 -5.8095 
-11.9535 -8.870001 -9.1565 -8.2705 -9.795 -9.774501 -7.611001 -7.736 -6.9715 
-18.4354 -13.8825 -13.4696 -14.6738 -14.406 -13.4486 -9.524501 -9.2775 
-23.4479 -18.1956 -19.8729 -18.7258 -18.8392 -15.8397 -11.2686 
-27.761 -24.5989 -23.9249 -23.159 -20.7527 -17.5838 
