-4.759 
n/a 
n/a 
n/a 
n/a 
-4.759 
n/a 
n/a 
n/a 
n/a 
-4.759 
n/a 
n/a 
n/a 
n/a 
-4.759 
n/a 
n/a 
n/a 
n/a 
-2.925 -4.4715 -4.7615 -5.0715 -3.115 -7.0835 0 -8.5795 0 -6.648 0 -5.8895 0 -8.768001 0 
-6.882 -9.717001 -8.5725 -7.835501 -10.2865 -7.0835 -8.5795 -8.5795 -6.648 -6.648 -5.8895 -5.8895 -8.768001 -8.768001 
-12.8835 -13.682 -10.4765 -15.0844 -10.2865 -10.9075 -8.5795 -15.5919 -6.648 -13.3297 -5.8895 -15.6533 -8.768001 
-16.8485 -15.586 -17.7254 -15.0844 -14.1105 -10.9075 -15.5919 -15.5919 -13.3297 -13.3297 -15.6533 -15.6533 
-18.7525 -22.8349 -17.7254 -18.9084 -14.1105 -17.9199 -15.5919 -22.2736 -13.3297 -23.0935 -15.6533 
-3.17 -1.7565 -1.4985 -5.303 -2.4945 -7.0835 0 -9.8175 0 -6.341 0 -5.8895 0 -8.768001 
-4.179 -2.4195 -6.057 -7.784501 -10.862 -7.0835 -9.8175 -9.8175 -6.341 -6.341 -5.8895 -5.8895 -8.768001 
-4.497 -6.636001 -8.8855 -16.806 -10.862 -17.5142 -9.8175 -16.3145 -6.341 -12.8735 -5.8895 -15.6533 
-10.634 -9.172001 -17.3642 -16.806 -21.2927 -17.5142 -16.3145 -16.3145 -12.8735 -12.8735 -15.6533 
-13.17 -17.6561 -17.3642 -27.2367 -21.2927 -24.0112 -16.3145 -22.847 -12.8735 -22.6373 
-7.0835 0 -8.5795 0 -5.923 0 -5.8895 0 -8.768001 0 -3.1495 -2.4945 -1.4985 -5.0715 -4.4715 -6.6 0 
-7.0835 -8.5795 -8.5795 -5.923 -5.923 -5.8895 -5.8895 -8.768001 -8.768001 -3.1495 -4.459 -3.9315 -5.546 -9.5035 -10.3165 -6.6 
-10.9075 -8.5795 -14.8669 -5.923 -12.5339 -5.8895 -15.6533 -8.768001 -12.5431 -4.459 -5.194 -7.8645 -10.281 -15.4475 -10.3165 
-10.9075 -14.8669 -14.8669 -12.5339 -12.5339 -15.6533 -15.6533 -12.5431 -13.8526 -5.194 -8.986501 -13.1413 -16.225 -15.4475 
-17.1949 -14.8669 -21.4778 -12.5339 -22.2977 -15.6533 -19.4284 -13.8526 -14.5876 -8.986501 -14.5649 -19.0853 -16.225 
-5.0715 -3.115 -7.0835 0 -8.5795 0 -6.648 0 -5.8895 -1.756 -11.128 -2.4945 -6.6 -2.3345 -3.3715 0 
-7.835501 -10.2865 -7.0835 -8.5795 -8.5795 -6.648 -6.648 -5.8895 -7.5615 -13.8926 -13.6225 -8.342501 -7.66 -5.279 -3.3715 
-15.0844 -10.2865 -10.9075 -8.5795 -15.5919 -6.648 -13.3297 -7.5615 -20.1473 -16.3871 -19.4705 -9.141001 -9.360001 -5.279 
-15.0844 -14.1105 -10.9075 -15.5919 -15.5919 -13.3297 -15.0017 -20.1473 -22.6418 -22.2351 -20.269 -10.9114 -9.360001 
-18.9084 -14.1105 -17.9199 -15.5919 -22.2736 -15.0017 -27.5875 -22.6418 -28.4898 -23.0336 -22.0394 -10.9114 
