-4.759 
n/a 
n/a 
n/a 
n/a 
-4.759 
n/a 
n/a 
n/a 
n/a 
-4.759 
n/a 
n/a 
n/a 
n/a 
-4.759 
n/a 
n/a 
n/a 
n/a 
-4.6335 -3.7015 -8.013 -3.9725 -3.43 -9.5565 -1.7695 -4.1 -3.469 0 
-6.4795 -12.7045 -10.2595 -7.398 -14.2797 -11.636 -5.4985 -8.289001 -3.469 
-15.9833 -14.951 -13.685 -18.6445 -16.3592 -15.365 -10.1225 -8.289001 
-18.2298 -18.3765 -24.9315 -20.724 -20.0882 -19.989 -10.1225 
-21.6553 -29.623 -27.011 -24.453 -24.7122 -19.989 
-8.7875 -2.229 -5.362 0 -2.3335 -3.074 -3.9285 -5.4765 -3.7015 -9.758 0 -4.101 -2.264 -2.0935 -1.8085 -3.469 -3.8405 
-10.1 -6.3765 -5.362 -2.3335 -5.496 -5.4325 -8.790501 -7.401 -14.4495 -9.758 -4.101 -5.091001 -5.126 -3.385 -4.362 -5.8625 
-14.2475 -6.3765 -7.788001 -5.496 -7.3245 -10.2235 -9.987 -18.4108 -14.4495 -13.9668 -5.091001 -6.705501 -6.127501 -5.1655 -5.999001 
-14.2475 -8.478001 -11.1701 -7.3245 -10.6465 -11.4626 -20.9968 -18.4108 -18.6583 -14.9568 -6.705501 -7.5 -7.1485 -6.4425 
-16.349 -11.9181 -12.9986 -10.6465 -11.8856 -22.4724 -20.9968 -22.6196 -19.6483 -16.5713 -7.5 -8.356501 -8.5065 
-8.7875 -2.229 -6.7815 -5.2025 -2.0935 -3.469 -2.3345 -4.389 -3.4765 -1.4985 -8.2205 -4.6805 0 
-10.1 -9.262001 -12.7334 -6.3855 -5.214 -6.440001 -6.2995 -7.885 -4.778 -9.8465 -10.2135 -4.6805 
-17.133 -15.3979 -13.9164 -8.786501 -8.1565 -10.95 -10.1185 -9.206 -13.5078 -10.6505 -10.2135 
-23.2689 -16.5809 -16.3174 -12.239 -12.8591 -14.769 -11.4395 -18.0558 -14.3118 -10.6505 
-24.4519 -18.9819 -19.7699 -16.9416 -16.6781 -16.09 -20.2893 -18.8598 -14.3118 
-1.4985 -8.6175 -1.7565 -9.000501 -3.2615 -1.4985 -4.6335 -3.2295 -8.2205 -4.6805 -4.4825 -2.0935 -1.8085 -3.469 -3.8405 
-9.818501 -9.6215 -10.082 -12.7596 -4.032 -5.8 -5.5625 -12.605 -10.2135 -10.2985 -6.7195 -3.385 -4.362 -5.8625 
-10.2315 -18.1714 -13.8985 -13.5301 -7.4595 -7.1755 -15.6644 -14.598 -15.8315 -12.6693 -7.6225 -5.1655 -5.999001 
-18.7814 -21.9879 -14.669 -16.9576 -8.543 -17.5138 -17.6574 -20.216 -18.2023 -13.5723 -8.639 -6.4425 
-22.5979 -22.7584 -18.0965 -18.0411 -19.0013 -19.5068 -23.2754 -22.5868 -19.1053 -14.5888 -10.622 
