-4.759 
n/a 
n/a 
n/a 
n/a 
-4.759 
n/a 
n/a 
n/a 
n/a 
-4.759 
n/a 
n/a 
n/a 
n/a 
-4.759 
n/a 
n/a 
n/a 
n/a 
-1.934 -4.3725 0 -3.8135 -3.6085 -2.186 -4.9325 -1.4985 -3.17 
-6.609 -4.3725 -3.8135 -7.4605 -5.869 -6.4585 -6.968 -3.7115 
-6.609 -7.354001 -7.4605 -9.2445 -7.629001 -8.1285 -8.994 
-8.564501 -11.8702 -9.2445 -10.6345 -9.278501 -9.943001 
-13.5399 -13.6542 -10.6345 -12.284 -11.1054 
-3.6085 -2.186 -4.4715 -3.2955 -1.934 -4.3725 -1.756 -4.1135 -4.328 0 
-5.869 -5.7085 -6.646 -4.2285 -6.609 -5.527501 -5.259 -5.746 -4.328 
-9.455501 -7.1225 -7.370501 -8.0595 -7.4835 -8.753 -6.650001 -5.746 
-10.534 -7.706 -10.396 -8.856501 -10.243 -9.1 -6.650001 
-11.1175 -10.9333 -11.193 -11.7778 -10.711 -9.1 
-1.934 -3.3035 0 -4.3725 0 -3.8135 -2.925 -2.9645 -3.6085 -3.6885 
-5.935 -3.3035 -4.3725 -4.3725 -3.8135 -6.6385 -5.385 -6.794001 -5.021 
-5.935 -7.509 -4.3725 -7.354001 -6.6385 -9.2405 -8.762 -8.108001 
-9.216001 -7.509 -7.354001 -11.0482 -9.2405 -12.7377 -10.647 
-9.216001 -10.7723 -11.0482 -13.6502 -12.7377 -14.6227 
-3.6085 -2.186 -4.4715 -3.2955 -1.934 -4.3725 -1.756 -4.1135 -4.328 
-5.869 -5.7085 -6.646 -4.2285 -6.609 -5.527501 -5.259 -5.746 
-9.455501 -7.1225 -7.370501 -8.0595 -7.4835 -8.753 -6.650001 
-10.534 -7.706 -10.396 -8.856501 -10.243 -9.1 
-11.1175 -10.9333 -11.193 -11.7778 -10.711 
