-4.759 
n/a 
n/a 
n/a 
n/a 
-4.759 
n/a 
n/a 
n/a 
n/a 
-4.759 
n/a 
n/a 
n/a 
n/a 
-4.759 
n/a 
n/a 
n/a 
n/a 
-6.182 -2.8635 -4.2705 -3.545 -3.5725 -3.557 -1.934 -10.8685 -3.6515 -1.7565 -7.627 
-8.4995 -7.0565 -7.867001 -7.0785 -6.7485 -4.4175 -13.8089 -14.52 -6.371 -9.346001 
-13.2939 -11.6522 -11.9781 -10.7343 -7.5785 -16.5382 -17.4604 -17.2395 -14.3811 
-17.8896 -15.7633 -15.6339 -11.5643 -19.9572 -20.1897 -20.1799 -25.2496 
-22.0007 -19.4191 -16.4639 -23.943 -23.6087 -22.9092 -28.19 
-6.5625 -2.229 -4.2705 -3.545 -3.1015 -3.074 -2.7765 -4.5845 -1.934 -5.62 -3.6515 -1.934 -7.627 0 
-8.172501 -5.9585 -7.867001 -6.5785 -5.884 -5.628 -9.306001 -5.781 -7.9 -8.746 -5.51 -9.084001 -7.627 
-12.2768 -8.874001 -10.6465 -9.625501 -8.667 -12.5543 -10.5645 -12.4402 -10.523 -10.564 -13.3286 -9.084001 
-15.1923 -11.6513 -13.6935 -12.4517 -15.7939 -13.8128 -17.4879 -15.0632 -12.341 -18.3826 -13.3286 
-17.9696 -14.6983 -16.5197 -19.5786 -17.0524 -20.7362 -20.1109 -16.8812 -20.1596 -18.3826 
-1.4985 -3.545 -1.934 -2.9705 -6.5625 -4.221 -3.1015 -3.074 -2.7295 -2.7765 -3.047 -1.934 -5.62 -3.6515 
-4.401 -5.182 -4.051 -10.504 -11.5795 -7.0595 -5.884 -5.826 -4.065 -4.5075 -5.078 -7.9 -8.746 
-6.1785 -6.99 -11.8975 -15.521 -14.418 -10.316 -8.4285 -7.2065 -5.696 -6.24 -11.7716 -10.523 
-7.3075 -15.1977 -16.9145 -18.3595 -17.6745 -12.8605 -9.903501 -8.3995 -7.211 -13.325 -14.3946 
-15.6882 -20.2147 -19.753 -21.616 -20.219 -14.3355 -11.2295 -10.159 -14.284 -15.948 
-6.5625 -4.2215 -3.545 -3.5725 -3.1015 -7.6325 -1.934 -6.3145 -3.6515 0 
-10.075 -8.508501 -7.0785 -7.305 -11.6458 -9.293 -8.888 -11.1415 -3.6515 
-14.623 -12.7632 -11.2908 -16.2441 -13.3063 -16.6682 -13.9878 -11.1415 
-18.8777 -16.9755 -20.2299 -17.9046 -20.6815 -21.768 -13.9878 
-23.09 -25.9146 -21.8904 -25.2798 -25.7813 -21.768 
