-4.759 
n/a 
n/a 
n/a 
n/a 
-4.759 
n/a 
n/a 
n/a 
n/a 
-4.759 
n/a 
n/a 
n/a 
n/a 
-4.759 
n/a 
n/a 
n/a 
n/a 
-2.9905 -1.7565 -12.75 -4.197 -5.513 -3.4425 -1.7565 -2.3615 -3.959 0 -3.17 -1.7565 -1.4985 -4.3755 -2.186 -4.709 0 
-3.6185 -13.3815 -14.4745 -6.541 -8.767501 -4.5535 -3.523 -7.6095 -3.959 -3.17 -4.179 -2.4195 -5.6425 -6.203 -7.700001 -4.709 
-12.7565 -12.5395 -11.985 -9.078 -9.602 -6.7175 -8.319 -7.6095 -6.8215 -4.179 -4.497 -6.678501 -7.9725 -12.1634 -7.700001 
-12.8512 -11.256 -13.0451 -9.693001 -11.9976 -12.0853 -8.319 -9.395 -7.495501 -4.497 -9.4775 -9.1225 -14.2175 -12.1634 
-12.7237 -13.5182 -13.8837 -12.188 -17.3654 -12.0853 -9.509501 -10.1004 -7.9065 -9.4775 -11.7557 -15.4627 -14.2175 
-1.934 -2.3615 -3.59 -3.0365 -2.4945 -12.75 -4.197 -6.014 -1.7565 -3.873 -5.1985 -3.17 -1.7565 -1.4985 -3.4425 -2.186 -4.282 -2.3345 -4.3895 -4.7505 0 
-3.539 -5.0215 -6.349 -3.688 -14.592 -14.4745 -7.061 -7.521 -5.002 -7.474 -7.8295 -4.179 -2.4195 -4.4545 -5.194 -5.4925 -4.928 -6.9975 -7.745501 -4.7505 
-5.3335 -7.2135 -6.807 -13.6353 -14.3698 -14.5247 -8.262 -9.007001 -8.405001 -10.2765 -8.632 -4.497 -5.4015 -5.963 -7.400001 -5.8925 -9.133 -10.6875 -7.745501 
-7.4085 -7.6295 -17.0506 -14.5351 -19.2533 -16.485 -9.0425 -10.7335 -10.862 -10.292 -8.651 -7.3165 -6.992001 -7.9805 -7.734 -9.9055 -12.969 -10.6875 
-7.903 -18.3311 -17.9628 -19.9267 -20.4539 -17.2651 -11.2186 -13.9396 -11.184 -10.311 -11.444 -8.174001 -8.4235 -8.4645 -11.8778 -13.7415 -12.969 
-1.4985 -3.873 -3.4425 -1.7565 -3.8655 -2.186 -12.75 -8.9825 -2.9705 -2.186 -4.282 -4.4715 -2.3345 -1.4985 -4.709 0 
-4.7405 -6.015 -4.5535 -5.196 -5.968 -14.219 -15.4815 -9.165 -3.89 -5.4925 -8.3195 -6.396501 -3.233 -5.428 -4.709 
-6.982 -6.951 -8.1175 -7.193501 -15.943 -13.619 -12.9265 -8.8015 -6.9855 -9.0695 -8.796 -7.287001 -7.820001 -5.428 
-7.576 -9.683001 -9.448501 -16.8359 -16.3749 -15.7326 -12.8521 -12.0289 -10.4185 -9.286 -9.774 -12.0278 -7.820001 
-9.8915 -10.2255 -16.8674 -17.1434 -19.7142 -16.1373 -16.89 -15.8667 -10.647 -10.2445 -14.5148 -12.0278 
-2.3615 -2.8645 -1.8085 -3.873 -3.4425 -1.7565 -12.75 -4.197 -6.116 -4.8565 -1.934 -2.9705 -3.17 -1.7565 -3.277 -2.4945 -5.8805 0 
-4.878 -3.9785 -5.6705 -6.015 -4.5535 -13.3815 -14.4745 -8.8085 -8.436501 -6.361 -4.051 -6.077001 -4.179 -4.25 -5.237 -8.559 -5.8805 
-6.485001 -7.804 -7.338 -6.951 -14.093 -12.5395 -16.2722 -9.401501 -9.7585 -8.828501 -6.943501 -6.743001 -5.4445 -5.3725 -11.3001 -8.559 
-10.7599 -8.0955 -7.5525 -14.656 -13.8705 -17.902 -17.6245 -9.996 -12.5084 -11.8916 -7.375 -7.9205 -6.1755 -11.5252 -11.3001 
-11.0514 -8.116501 -14.9353 -14.7298 -20.3886 -17.8736 -18.2186 -13.1607 -15.5715 -12.3231 -8.8555 -8.627001 -12.4892 -11.5252 
