-4.759 
n/a 
n/a 
n/a 
n/a 
-4.759 
n/a 
n/a 
n/a 
n/a 
-4.759 
n/a 
n/a 
n/a 
n/a 
-4.759 
n/a 
n/a 
n/a 
n/a 
-4.8345 -4.474 -1.934 -3.873 -3.5015 0 -4.1115 -3.873 -1.756 -8.8725 -3.5015 
-8.7395 -5.244 -5.96 -7.5365 -3.5015 -4.1115 -7.134 -5.114 -10.647 -12.7176 
-9.2755 -9.5165 -10.2983 -7.5365 -8.266001 -7.134 -7.954 -15.0132 -14.4921 
-14.0602 -13.9458 -10.2983 -13.2518 -11.6869 -7.954 -18.642 -18.8583 
-18.4895 -13.9458 -16.0136 -16.6727 -12.5069 -18.642 -22.4871 
-2.3335 -2.186 0 -3.995 -5.2425 -2.882 -4.397 -2.264 -3.873 0 -4.1115 0 -2.4285 -2.264 -4.147 -3.4425 0 
-3.7085 -2.186 -3.995 -7.2275 -8.179001 -6.2495 -6.2025 -5.654 -3.873 -4.1115 -4.1115 -2.4285 -4.76 -6.584001 -6.779 -3.4425 
-3.7085 -6.5515 -7.2275 -10.1855 -12.1925 -8.112 -9.4525 -5.654 -6.334001 -4.1115 -6.444 -4.76 -8.981501 -10.1305 -6.779 
-8.465 -9.6055 -10.1855 -14.199 -14.055 -11.6682 -9.4525 -7.7685 -6.334001 -6.444 -8.002501 -8.981501 -12.9438 -10.1305 
-11.3192 -13.1641 -14.199 -16.0615 -17.6112 -11.6682 -11.6742 -7.7685 -7.754001 -8.002501 -12.7106 -12.9438 -12.9438 
-4.8345 -4.638 -1.934 -5.3155 -3.4425 0 -4.1115 -5.2415 0 -4.147 -3.8195 
-7.830501 -5.472 -8.4165 -9.696501 -3.4425 -4.1115 -8.137001 -5.2415 -4.147 -6.963 
-8.7875 -12.4709 -13.1363 -9.696501 -7.7965 -8.137001 -8.137001 -9.3015 -6.963 
-16.0958 -17.1907 -13.1363 -14.2375 -12.3102 -8.137001 -12.4452 -12.6615 
-20.8156 -17.1907 -17.6773 -18.7512 -12.3102 -12.4452 -15.8052 
-3.995 -5.2425 -4.4995 -1.934 -4.7505 0 -5.0895 0 -4.686 0 
-7.2275 -9.138 -5.663 -7.2325 -4.7505 -5.0895 -5.0895 -4.686 -4.686 
-10.543 -9.4095 -10.7175 -7.2325 -9.3015 -5.0895 -8.875001 -4.686 
-10.8145 -15.4882 -10.7175 -12.3621 -9.3015 -8.875001 -8.875001 
-16.8932 -15.4882 -15.8471 -12.3621 -13.4624 -8.875001 
