-4.759 
n/a 
n/a 
n/a 
n/a 
-4.759 
n/a 
n/a 
n/a 
n/a 
-4.759 
n/a 
n/a 
n/a 
n/a 
-4.759 
n/a 
n/a 
n/a 
n/a 
-3.9485 -2.356 -3.1495 -4.887 0 -4.2775 -3.8735 -2.9705 -4.0935 -6.179 -4.442 -1.934 -5.8225 -4.2085 0 -3.7745 -3.355 -1.7565 -3.8735 -2.9705 -4.0935 -2.645 -5.758 -4.202 -4.442 0 -5.8225 -4.2085 -3.557 -1.934 -3.502 -3.8735 0 -1.934 -4.02 -6.4335 -5.613 -4.2085 -2.4945 -3.557 
-4.311 -4.8085 -7.7465 -4.887 -4.2775 -6.9465 -6.7115 -5.492001 -10.862 -11.395 -5.784 -7.796 -8.3295 -4.2085 -3.7745 -6.2975 -3.725 -5.112 -6.7115 -5.492001 -6.058 -8.651001 -7.04 -8.032001 -4.442 -5.8225 -8.3295 -8.295 -4.4175 -4.8155 -6.2275 -3.8735 -1.934 -5.3455 -9.8305 -12.8795 -8.4125 -7.068001 -5.304 
-6.928 -9.7995 -7.7465 -9.182501 -6.9465 -9.3785 -9.777 -12.6111 -16.078 -12.737 -12.2168 -10.0345 -8.3295 -7.9405 -6.2975 -6.3705 -7.186501 -7.567 -9.777 -7.4775 -13.0738 -10.0015 -10.389 -8.032001 -10.4765 -8.3295 -12.7996 -8.889001 -7.3815 -6.9265 -6.2275 -5.938 -5.3455 -12.1538 -17.0183 -15.679 -11.6144 -9.066001 
-12.0994 -9.7995 -12.4302 -12.1729 -9.3785 -12.5538 -16.8177 -17.8271 -17.42 -19.1698 -14.4553 -10.0345 -12.4451 -11.0925 -6.3705 -9.234 -9.279 -10.4035 -11.6841 -14.5551 -14.4243 -13.5429 -10.389 -14.1779 -13.3103 -12.7996 -13.3936 -10.76 -9.464001 -6.9265 -8.062 -9.529 -12.1538 -19.3416 -19.8178 -18.8809 -13.6124 
-12.0994 -14.57 -15.4206 -14.6049 -12.5538 -19.5945 -22.0337 -19.1691 -23.8528 -21.4083 -14.4553 -14.2349 -15.5971 -11.1655 -9.234 -11.3943 -12.2505 -12.3106 -18.7617 -15.9056 -17.9657 -13.5429 -16.5349 -17.0117 -17.7804 -13.3936 -15.2646 -12.8425 -9.464001 -8.403001 -11.814 -16.4163 -19.3416 -22.1411 -23.0197 -20.8789 
-3.458 -3.1495 -4.887 0 -3.75 -3.8735 -2.229 -5.3105 -4.9545 -4.0935 -4.684 -1.7565 -6.686 -4.442 0 -5.3105 -4.9545 -3.557 -1.934 -3.502 -3.8735 0 -4.442 -3.557 -1.934 -6.226 -4.418 -1.756 -3.641 -6.4335 -4.9625 0 
-5.525001 -7.7465 -4.887 -3.75 -6.110001 -5.3655 -7.663001 -8.465 -9.231501 -7.715 -4.7855 -8.7115 -11.7362 -4.442 -5.3105 -8.465 -8.4125 -4.4175 -4.8155 -6.2275 -3.8735 -4.442 -7.745001 -4.4175 -8.214001 -10.2925 -5.694 -5.3625 -10.4855 -9.4725 -4.9625 
-9.8245 -7.7465 -8.531 -6.110001 -8.946001 -11.8213 -10.172 -12.8866 -12.9996 -7.732501 -12.5835 -14.0029 -11.7362 -8.882501 -8.465 -12.0676 -8.8345 -7.3815 -6.9265 -6.2275 -8.7305 -7.745001 -8.076501 -10.9433 -10.757 -11.8725 -9.772 -12.734 -13.5245 -9.4725 
-9.8245 -11.7787 -11.3212 -8.946001 -15.4888 -14.3303 -14.5936 -16.6547 -13.0171 -15.7709 -17.8749 -14.0029 -16.1767 -12.3954 -12.0676 -12.4896 -11.9389 -9.464001 -6.9265 -11.7431 -12.8407 -8.076501 -14.8609 -13.4863 -13.3298 -15.9505 -17.2127 -15.773 -13.5245 
-14.0127 -14.5689 -14.1572 -15.4888 -17.9978 -18.7519 -18.3617 -16.6722 -21.0555 -21.0623 -17.8749 -18.4434 -19.6896 -15.998 -12.4896 -15.594 -14.0214 -9.464001 -12.6589 -15.8533 -13.1722 -14.8609 -17.4039 -16.0591 -17.4078 -23.3912 -20.2517 -15.773 
-3.1495 -4.1355 0 -2.8645 -3.845 -1.7565 -4.442 -1.934 -3.75 -3.355 -1.7565 -3.8735 -2.356 -4.2485 -4.9545 0 -6.2175 -4.0455 0 -1.756 -3.3715 -4.442 -2.4945 -4.3725 -1.934 -3.7745 -3.8735 0 -4.2085 -3.962 -1.934 -3.502 -3.8735 -2.4945 0 -4.4715 -1.7565 -10.2945 -4.442 -1.756 -3.17 -2.4945 -1.934 -3.7745 -12.16972 0 -3.641 -6.462 -4.7885 -4.9545 -2.7765 -2.489 -3.962 
-7.8955 -4.1355 -2.8645 -7.5775 -4.13 -5.6725 -5.784 -5.3465 -7.194 -3.725 -5.112 -6.3865 -5.7655 -9.8465 -4.9545 -6.2175 -6.569 -4.0455 -1.756 -4.6545 -6.923 -5.9795 -5.572001 -5.022501 -5.196 -7.003 -3.8735 -4.2085 -9.1225 -4.8165 -4.8155 -6.2275 -6.502501 -2.4945 -4.4715 -6.379001 -13.0002 -15.1003 -5.390501 -4.684 -5.8285 -4.2645 -5.196 -17.23042 -12.16972 -3.641 -10.7495 -11.9079 -10.622 -7.3885 -3.495 -4.8355 
-7.8955 -7.256001 -7.5775 -7.776 -7.6555 -6.900001 -9.073501 -9.109501 -7.3525 -7.186501 -7.3455 -10.176 -11.9901 -9.8465 -11.0145 -6.569 -6.569 -5.650001 -4.6545 -8.43 -8.1105 -8.693001 -5.9685 -8.759501 -7.605 -7.003 -8.561 -9.1225 -9.736501 -8.1595 -6.9265 -8.7375 -6.502501 -5.7935 -6.379001 -17.8739 -17.806 -16.0488 -8.5605 -6.776 -7.3615 -7.871 -19.76432 -17.23042 -15.81072 -10.7495 -16.1954 -17.7414 -13.056 -7.8635 -5.233 
-11.527 -12.303 -7.776 -11.4421 -8.783501 -10.031 -13.0363 -9.158501 -9.740001 -9.2445 -11.4172 -16.4006 -11.9901 -15.9325 -11.366 -6.569 -8.3105 -8.586 -8.43 -9.493001 -11.1514 -8.879001 -9.392501 -11.3473 -7.605 -10.7025 -13.893 -9.736501 -13.2087 -10.19 -9.083501 -8.7375 -9.3785 -7.688001 -17.8739 -22.6797 -18.7545 -19.2188 -10.4425 -8.363501 -10.4035 -22.67692 -19.76432 -20.87142 -22.91922 -16.1954 -22.0289 -20.1754 -13.531 -9.4895 
-16.574 -12.5015 -11.4421 -12.5701 -12.1829 -14.2652 -13.0853 -11.4564 -11.8224 -13.4336 -17.6418 -16.4006 -18.0761 -16.284 -11.366 -8.3105 -11.5653 -12.3903 -9.493001 -12.5811 -11.3374 -12.9584 -12.6719 -11.3473 -11.5299 -16.0345 -14.507 -13.2087 -15.2392 -12.5728 -9.083501 -11.7111 -11.28 -19.5723 -22.6797 -23.6282 -21.9245 -21.1008 -12.03 -11.4923 -25.20942 -22.67692 -23.40532 -27.97992 -28.36512 -22.0289 -24.4629 -20.6504 -15.157 
-3.5445 -3.1495 -4.887 -2.4945 -3.75 -3.8735 -2.229 -4.4545 -4.9545 0 -3.7745 -3.8735 -2.356 -4.4715 -5.758 -4.9545 -1.756 -5.258 -4.9545 -2.3335 -2.4945 -3.962 -1.934 -3.502 -3.8735 
-5.817 -7.7465 -6.8065 -7.538001 -6.110001 -5.3655 -6.542 -6.606501 -4.9545 -3.7745 -7.003 -6.3865 -6.841001 -9.814501 -8.4375 -5.808 -7.108 -7.5505 -6.9805 -3.947 -5.752 -4.8165 -4.8155 -6.2275 
-8.9275 -8.658 -12.2276 -10.434 -8.946001 -9.874001 -8.324 -6.606501 -8.73 -7.003 -8.969501 -11.3609 -12.2984 -12.6736 -9.374001 -9.804501 -8.581 -9.502501 -7.68 -7.1545 -6.640501 -8.1595 -6.9265 
-10.341 -14.1561 -15.1236 -13.27 -13.5415 -11.735 -8.324 -10.233 -12.2601 -8.969501 -14.2731 -16.8183 -15.1575 -13.6101 -13.4095 -10.516 -10.134 -10.356 -11.3047 -7.866001 -9.9455 -10.19 
-15.8391 -17.0521 -17.9596 -17.8655 -15.4025 -11.735 -12.1579 -13.9541 -14.2266 -14.2731 -19.7305 -19.6774 -16.094 -17.6456 -14.121 -12.069 -11.0849 -13.9807 -12.0162 -11.2478 -11.9874 
