-4.759 
n/a 
n/a 
n/a 
n/a 
-4.759 
n/a 
n/a 
n/a 
n/a 
-4.759 
n/a 
n/a 
n/a 
n/a 
-4.759 
n/a 
n/a 
n/a 
n/a 
-4.371 -3.9225 -3.486 -3.8315 -2.186 -3.5725 -1.8085 -3.5825 -1.7565 -3.7535 0 
-7.5895 -8.283501 -5.2965 -5.974 -4.471 -5.0535 -5.3605 -5.033 -5.824501 -3.7535 
-10.0505 -8.566 -7.996 -8.165001 -5.48 -8.128 -6.3085 -7.357 -5.824501 
-10.124 -11.7147 -10.2925 -8.936501 -8.252001 -8.254001 -8.029501 -7.357 
-13.8083 -14.0112 -11.064 -10.749 -8.375501 -9.5325 -8.029501 
-3.757 -3.0365 -2.4945 -3.614 -1.934 -5.546 -2.229 -4.371 
-6.1085 -3.688 -6.422 -4.954 -7.248 -8.178501 -6.1575 
-7.514 -6.705501 -7.936 -11.0092 -10.564 -12.4988 
-10.223 -8.135 -14.3562 -14.3252 -14.8843 
-11.9895 -14.628 -17.6722 -18.6455 
-3.486 -3.8315 -4.371 -2.186 -4.1205 -2.5045 -5.0665 
-5.2965 -5.7005 -5.9015 -5.007 -5.3175 -7.318001 
-5.7215 -7.324 -8.2795 -6.317 -9.65 
-7.333 -10.4585 -9.658001 -11.0037 
-10.459 -11.837 -14.4411 
-3.486 -3.8315 -4.371 -2.186 -5.0665 0 
-5.2965 -5.7005 -5.9015 -6.696 -5.0665 
-5.7215 -7.324 -10.1145 -6.696 
-7.333 -11.8702 -10.1145 
-11.8828 -11.8702 
