-4.759 
n/a 
n/a 
n/a 
n/a 
-4.759 
n/a 
n/a 
n/a 
n/a 
-4.759 
n/a 
n/a 
n/a 
n/a 
-4.759 
n/a 
n/a 
n/a 
n/a 
-2.985 -4.38 -3.152 -5.378 -2.3335 -2.985 -5.002 -3.152 -3.225 0 -1.7695 -3.3935 0 -3.401 -2.915 
-7.7815 -7.7415 -7.160501 -5.8005 -4.917 -7.652 -7.037001 -7.552501 -3.225 -1.7695 -5.061 -3.3935 -3.401 -6.455 
-9.8765 -12.0244 -8.085501 -7.9995 -9.5115 -9.528501 -12.0261 -7.552501 -5.9785 -5.061 -5.061 -7.047 -6.455 
-14.2306 -12.9494 -10.096 -12.705 -10.349 -14.5176 -12.0261 -9.8985 -8.123 -5.061 -9.0275 -10.471 
-15.1556 -14.9599 -14.8015 -13.5425 -15.3381 -14.5176 -14.3721 -10.078 -8.123 -9.0275 -12.6491 
-2.925 -2.4945 -4.1585 -2.985 -2.915 -2.4945 -3.225 0 -2.6165 -3.3935 0 -4.4835 -4.8165 -2.5045 -3.499 0 
-3.7675 -5.9165 -6.833 -5.9805 -5.622 -7.135 -3.225 -2.6165 -6.043 -3.3935 -4.4835 -10.674 -6.2845 -5.8935 -3.499 
-6.802001 -8.389 -10.322 -8.852 -11.1649 -7.135 -6.637 -6.043 -6.043 -6.5695 -10.674 -12.142 -9.0885 -5.8935 
-8.962501 -11.985 -13.1935 -14.4779 -11.1649 -10.3225 -9.39 -6.043 -7.6375 -13.3014 -12.142 -14.946 -9.0885 
-12.5667 -14.8565 -18.8194 -14.4779 -14.3524 -13.0755 -9.39 -7.6375 -14.741 -14.7694 -14.946 -14.946 
-2.925 -4.6845 -2.7415 -3.225 0 -4.225 -2.0935 -3.3935 0 
-9.6425 -7.75 -6.719501 -3.225 -4.225 -6.165501 -5.6595 -3.3935 
-12.7564 -12.13 -6.719501 -8.511001 -6.165501 -9.818001 -5.6595 
-17.1364 -12.13 -10.322 -10.543 -9.818001 -9.818001 
-17.1364 -15.7325 -12.354 -14.1955 -9.818001 
-3.5485 -1.4985 -5.224 -2.229 -3.225 0 -4.3215 -2.3335 -3.0365 -2.186 -3.3935 0 -4.482 -1.934 -2.3335 0 -2.5045 -3.0365 -4.558 0 
-4.8285 -6.450001 -6.6905 -6.544 -3.225 -4.3215 -5.1075 -4.2925 -3.66 -5.526 -3.3935 -4.482 -6.6615 -4.359 -2.3335 -2.5045 -5.2585 -8.752001 -4.558 
-9.7915 -7.506501 -11.8375 -6.544 -9.151501 -5.1075 -7.287001 -4.7505 -7.848501 -5.526 -7.915501 -6.6615 -9.289001 -4.359 -4.976501 -5.2585 -11.9508 -8.752001 
-10.9546 -12.6211 -11.8375 -12.9409 -10.2385 -7.287001 -8.305 -8.7755 -7.848501 -10.361 -10.7148 -9.289001 -9.289001 -7.312 -7.539001 -11.9508 -11.9508 
-16.0692 -12.6211 -18.2344 -14.0279 -12.5026 -8.305 -12.611 -8.7755 -12.9585 -13.1603 -13.3423 -9.289001 -12.4836 -9.6335 -14.3531 -11.9508 
