-4.759 
n/a 
n/a 
n/a 
n/a 
-4.759 
n/a 
n/a 
n/a 
n/a 
-4.759 
n/a 
n/a 
n/a 
n/a 
-4.759 
n/a 
n/a 
n/a 
n/a 
-2.5195 -1.4985 -4.3845 -1.7565 -1.4985 -5.1635 -4.6285 -3.5825 -5.204 -1.8085 -4.445 -2.7415 -4.648 -3.345 -3.158 -1.7695 -5.2815 -3.345 -1.7565 -3.277 -1.4985 -3.9455 -3.7455 -1.7565 -1.8085 -4.6285 -4.445 -2.7415 -2.5045 -1.8085 -5.657 -2.4285 -4.236 0 -1.756 -1.4985 -3.307 -1.7565 -4.9465 -1.756 -3.237 -4.452 -1.934 -2.985 -3.4425 0 
-3.1695 -4.936501 -4.873 -2.4195 -5.413 -8.790501 -9.0415 -9.318501 -7.550501 -6.3605 -6.895 -5.5585 -7.8915 -4.824 -4.9495 -5.6665 -8.224001 -4.3855 -4.25 -4.8285 -4.901 -7.0705 -4.9305 -3.2595 -6.176001 -7.7645 -6.895 -5.397 -3.3625 -6.525001 -7.027 -6.4985 -4.236 -1.756 -3.0405 -4.8975 -4.6865 -5.9985 -6.064 -4.7635 -6.403501 -6.018 -4.111 -6.104 -3.4425 
-6.989 -5.0275 -5.634 -6.195001 -8.9005 -13.3197 -14.9977 -10.758 -10.5225 -8.585501 -8.838 -9.846001 -8.201501 -6.1815 -8.734 -8.585501 -9.097501 -5.7865 -5.93 -8.3715 -7.7295 -7.575 -6.273 -7.0755 -8.734501 -9.6195 -9.434 -6.56 -7.7665 -7.538 -8.2275 -6.4985 -6.0235 -3.0405 -6.253 -5.244 -9.488501 -6.917 -7.990001 -7.6825 -7.64 -8.39 -6.334 -6.104 
-7.1515 -5.753 -9.693 -9.527501 -13.3921 -19.2759 -16.4372 -13.73 -12.7475 -9.755 -13.2975 -10.2265 -9.182 -9.751501 -11.8246 -9.389 -10.5535 -7.3125 -9.488001 -10.7335 -7.922 -8.829 -10.4974 -9.4355 -10.3605 -12.1585 -10.7505 -9.330001 -9.154501 -8.698501 -8.2275 -8.5115 -6.965 -6.253 -6.53 -9.9055 -10.33 -8.830501 -8.826 -9.0155 -9.8275 -9.576 -6.334 
-7.5215 -9.7615 -13.0255 -14.0595 -19.3483 -20.7154 -19.4092 -15.955 -13.917 -14.1667 -13.678 -10.745 -13.0366 -12.9297 -12.6281 -10.8174 -12.0795 -10.609 -11.8382 -10.926 -9.023001 -13.232 -12.8574 -11.1019 -12.8995 -13.475 -13.5205 -11.8672 -10.1555 -8.698501 -9.5955 -9.414001 -10.7855 -6.53 -10.494 -10.5675 -12.2435 -9.376 -10.2755 -11.2912 -10.3125 -9.576 
-4.251 -1.4985 -3.4975 -3.237 -3.325 -3.4985 -1.7565 -3.54 -4.6555 -3.115 -2.5045 -5.2645 0 -3.1715 -1.756 -3.7745 -1.4985 -4.6865 -1.7565 -1.4985 -3.7745 -3.5435 -2.186 -3.6705 -4.7925 -3.458 -1.4985 -3.959 -1.756 -3.922 0 
-5.6885 -4.3125 -5.6385 -7.047 -5.6905 -4.622 -4.819 -7.72 -7.5585 -6.127501 -7.758 -5.2645 -3.1715 -4.562 -5.3805 -6.291 -5.6875 -5.576 -2.4195 -4.753 -5.717 -5.2365 -5.076 -9.9645 -6.311 -4.063 -5.5 -5.173 -6.788 -3.922 
-9.1695 -5.9935 -9.177 -10.1035 -6.535 -7.9115 -9.3605 -10.8234 -10.9642 -10.621 -7.758 -7.226 -4.562 -7.769001 -8.493 -11.1058 -5.9445 -5.9965 -5.5795 -6.116 -7.4455 -7.250501 -12.1304 -11.7952 -6.855 -7.0635 -6.985 -10.6465 -6.788 
-10.079 -9.238501 -12.4757 -10.948 -10.1545 -12.8964 -12.5639 -14.2291 -15.4577 -10.621 -10.419 -8.3555 -7.769001 -11.6835 -13.4264 -11.3628 -6.3185 -8.958 -6.907001 -7.6495 -9.558001 -15.1729 -13.9611 -12.3392 -9.816 -8.1595 -12.8581 -10.6465 
-13.6186 -12.5142 -13.3202 -14.5675 -15.1394 -16.0998 -15.9696 -18.7226 -15.4577 -13.282 -11.8101 -11.7763 -11.6835 -16.6169 -13.6834 -11.7368 -9.2935 -10.543 -8.626 -9.7335 -17.5914 -17.0036 -14.5051 -15.3002 -10.9944 -14.1968 -12.8581 
-3.4225 -3.468 -1.7565 -3.676 -3.2 -3.354 -4.64 -3.325 -3.54 -4.876 -3.7075 -3.115 -3.4225 0 -3.1715 -1.756 -4.0165 0 -4.0165 -4.5175 -4.4275 -3.458 -1.756 -4.554 -1.756 -3.59 -4.5175 
-3.628 -4.7385 -4.4345 -8.2995 -6.0495 -9.0985 -7.8225 -6.5605 -8.488501 -9.6035 -7.155001 -7.444 -3.4225 -3.1715 -4.562 -5.184 -4.0165 -4.0165 -7.3085 -9.241501 -7.544001 -5.906 -5.9655 -6.2805 -5.4585 -8.3545 
-5.001 -5.0245 -9.106001 -11.4846 -13.0468 -12.621 -11.5754 -12.1796 -13.6112 -13.1326 -11.6618 -7.444 -6.440001 -4.562 -6.5385 -5.184 -7.1515 -7.3085 -12.5189 -12.6484 -10.468 -10.9907 -7.910501 -9.805 -10.0745 
-5.036 -10.022 -12.4563 -18.4819 -16.5693 -16.3739 -17.1945 -17.3023 -17.1403 -17.6394 -11.6618 -10.213 -7.9995 -6.5385 -6.5385 -9.488001 -11.0577 -12.5189 -15.9258 -15.5724 -15.5527 -12.9357 -11.6444 -14.4698 
-10.0345 -13.4445 -19.4536 -22.0044 -20.3222 -21.993 -22.3172 -20.8314 -21.6471 -17.6394 -14.4308 -11.7725 -10.362 -6.5385 -11.3895 -13.4472 -16.2681 -15.9258 -18.8498 -20.6571 -17.4977 -16.6696 -16.3092 
-3.676 -2.229 -5.6055 -4.969 -4.251 -3.1715 -1.756 -12.16972 -3.54 -3.319 -1.7565 -3.468 -1.756 -4.6555 0 
-4.593 -8.4835 -10.7175 -9.200001 -7.875 -4.562 -14.93432 -15.70972 -7.644 -4.165 -5.649 -4.7175 -6.063 -4.6555 
-12.2219 -13.7613 -14.9485 -12.8888 -9.234501 -18.97072 -18.47432 -19.81372 -8.069 -9.139501 -6.656 -7.820001 -6.063 
-17.4997 -17.9923 -18.6373 -14.2483 -24.10142 -22.51072 -22.57832 -20.23872 -13.2229 -10.689 -8.0625 -7.820001 
-21.7307 -21.6811 -19.9968 -29.11522 -27.64142 -26.61472 -23.00332 -25.39262 -14.7724 -12.0955 -8.0625 
