-4.759 
n/a 
n/a 
n/a 
n/a 
-4.759 
n/a 
n/a 
n/a 
n/a 
-4.759 
n/a 
n/a 
n/a 
n/a 
-4.759 
n/a 
n/a 
n/a 
n/a 
-8.934 -8.343 0 -2.847 -3.6915 0 
-10.468 -8.343 -2.847 -6.693501 -3.6915 
-10.468 -11.5366 -6.693501 -6.693501 
-13.6616 -15.3831 -6.693501 
-17.5081 -15.3831 
-9.717501 0 -2.847 -3.6915 0 
-9.717501 -2.847 -6.693501 -3.6915 
-12.7441 -6.693501 -6.693501 
-16.5906 -6.693501 
-16.5906 
-8.934 -8.343 0 -2.6165 -3.6915 0 
-10.468 -8.343 -2.6165 -6.3005 -3.6915 
-10.468 -11.3061 -6.3005 -6.3005 
-13.4311 -14.9901 -6.3005 
-17.1151 -14.9901 
-9.583 -8.343 0 -2.847 -3.6915 0 
-10.9075 -8.343 -2.847 -6.693501 -3.6915 
-10.9075 -11.5366 -6.693501 -6.693501 
-14.1011 -15.3831 -6.693501 
-17.9476 -15.3831 
