-4.759 
n/a 
n/a 
n/a 
n/a 
-4.759 
n/a 
n/a 
n/a 
n/a 
-4.759 
n/a 
n/a 
n/a 
n/a 
-4.759 
n/a 
n/a 
n/a 
n/a 
-7.35 -3.098 -3.152 -4.4165 -1.4985 -3.699 -3.4025 -3.325 -2.985 -3.4985 -1.934 -6.864 -3.9555 0 
-10.214 -6.56 -7.157001 -5.3005 -5.264 -7.5505 -7.283 -5.788 -6.239 -5.373 -9.2825 -10.368 -3.9555 
-13.676 -10.688 -8.045 -8.957001 -9.019 -9.797001 -9.3575 -6.919 -7.706501 -13.1735 -12.9747 -10.368 
-17.804 -12.2782 -11.8173 -12.9272 -11.4075 -11.9761 -10.7605 -8.276501 -15.9108 -16.8657 -12.9747 
-19.3942 -16.0505 -15.7875 -15.3157 -13.5866 -13.3791 -12.118 -16.6692 -19.603 -16.8657 
-8.5675 -4.4725 -3.699 -4.3165 -1.934 -2.985 -3.4985 -2.5045 -1.4985 -3.8405 -1.7565 -8.106501 -2.229 -4.0965 0 
-13.3918 -8.962501 -8.7065 -6.113 -4.111 -6.239 -5.857 -3.1915 -4.7545 -4.563 -10.634 -10.2645 -6.432 -4.0965 
-17.8818 -14.1922 -9.645 -8.473001 -7.5585 -8.582001 -6.7145 -7.22 -5.365 -14.6017 -12.792 -14.4675 -6.432 
-23.1115 -15.1307 -12.6916 -12.4785 -9.880501 -9.0185 -11.1386 -7.7535 -15.4469 -16.7597 -16.995 -14.4675 
-24.05 -18.1773 -16.6971 -14.8005 -10.5465 -13.7832 -11.6721 -18.3114 -17.6049 -20.9627 -16.995 
-6.6385 -3.4985 -2.3345 -5.1125 -3.699 -3.8685 -1.934 -1.4985 -10.7875 0 
-10.6345 -5.9425 -6.0865 -9.501501 -6.7705 -5.1635 -2.6125 -12.5788 -11.5753 
-13.0785 -9.088 -10.2135 -12.7064 -7.6415 -5.541 -14.3894 -13.1764 
-16.224 -13.2384 -13.5812 -13.5774 -7.948 -18.1909 -14.8484 
-20.3744 -16.6061 -14.4522 -13.8839 -20.8193 -18.1909 
-6.963 -2.4945 -4.254 -3.8175 -3.9825 -1.934 -7.4885 
-8.35 -6.880001 -9.155001 -5.9455 -4.624 -10.862 
-12.9731 -12.298 -11.4438 -6.064 -14.2724 
-18.3911 -14.5868 -11.5623 -15.9772 
-20.6799 -14.7053 -21.4755 
