-4.759 
n/a 
n/a 
n/a 
n/a 
-4.759 
n/a 
n/a 
n/a 
n/a 
-4.759 
n/a 
n/a 
n/a 
n/a 
-4.759 
n/a 
n/a 
n/a 
n/a 
-2.3615 -4.507 -1.4985 -4.692 -3.518 -1.7565 -1.4985 -3.1385 -1.7695 -3.225 0 
-6.5295 -5.318 -6.276501 -7.304501 -4.302 -2.4195 -4.2575 -4.6115 -5.542 -3.225 
-6.746 -10.172 -8.213 -8.184001 -5.435 -5.013 -6.0865 -10.304 -5.542 
-11.8988 -10.571 -8.48 -8.659 -8.2445 -6.626 -12.1972 -10.304 
-12.2978 -10.6855 -8.8935 -10.4425 -10.0605 -13.0467 -12.1972 
-2.3615 -3.837 -3.225 0 -3.4005 -1.7565 -4.357 
-5.96 -8.5185 -3.225 -3.4005 -5.4705 -5.658 
-11.6075 -8.5185 -7.948501 -5.4705 -7.84 
-11.6075 -13.5424 -9.1695 -7.84 
-16.6314 -14.7634 -12.3432 
-2.4265 -4.4615 -3.225 0 -1.7565 -6.0335 -3.1385 
-6.2145 -9.337 -3.225 -1.7565 -8.031 -9.067 
-10.304 -9.337 -5.8285 -8.031 -10.76 
-10.304 -10.4355 -12.8606 -10.76 
-12.2455 -17.4676 -15.5896 
-2.3615 -4.4565 -1.7695 -4.91 -4.357 -2.4945 -3.225 0 0 
-5.8865 -4.9325 -7.651 -7.571501 -6.126501 -7.135 -3.225 0 
-6.014 -10.3475 -10.0125 -9.154501 -10.5325 -7.135 -3.225 
-11.8574 -12.709 -11.5955 -13.8147 -10.5325 -7.135 
-14.2189 -14.292 -16.2557 -13.8147 -10.5325 
