-4.759 
n/a 
n/a 
n/a 
n/a 
-4.759 
n/a 
n/a 
n/a 
n/a 
-4.759 
n/a 
n/a 
n/a 
n/a 
-4.759 
n/a 
n/a 
n/a 
n/a 
-3.2615 -1.4985 -4.547 -1.7565 -3.75 -3.8735 -3.3035 -1.934 -5.965 0 -5.235 -2.4265 -2.186 -3.9205 -2.5045 -5.3885 0 -3.0365 -2.7415 -5.121 -3.4625 -1.934 -1.4985 -3.5125 -1.7565 -6.557 
-4.032 -5.4925 -5.206501 -5.55 -6.110001 -6.3225 -5.076 -7.337 -5.965 -5.235 -6.8135 -3.292 -4.9645 -4.449 -8.4805 -5.3885 -3.0365 -4.2225 -7.122001 -7.555501 -4.565 -2.6125 -4.7015 -4.312 -7.653501 
-7.962501 -5.726 -9.150001 -8.057 -6.377501 -7.928 -9.8715 -7.337 -10.4765 -6.8135 -7.7885 -5.9475 -5.539 -9.436501 -8.4805 -8.7215 -4.2225 -7.84 -10.4425 -8.049001 -5.1315 -5.4205 -4.846 -9.666 
-8.432 -9.664001 -10.504 -8.5845 -7.9845 -10.213 -9.8715 -12.2003 -12.055 -7.7885 -9.804501 -6.8155 -11.0113 -9.436501 -12.1055 -9.894501 -7.84 -10.5745 -10.747 -8.404 -8.2685 -5.48 -10.396 
-12.6892 -11.0582 -10.52 -9.991501 -10.213 -10.213 -14.7386 -13.7788 -13.03 -9.804501 -10.2565 -12.3778 -11.0113 -13.1871 -13.2785 -13.5544 -10.5745 -10.879 -11.102 -11.7546 -8.2915 -11.455 
-3.034 -1.934 -5.8755 0 -3.6085 -3.1385 -4.5485 -1.4985 -3.75 -3.8735 -12.16972 -4.188 -1.8085 -2.688 -3.7595 -1.934 -5.1845 -5.74 -3.97 
-5.3215 -7.6075 -5.8755 -3.6085 -6.699 -7.874001 -5.7605 -4.8715 -6.110001 -17.03522 -16.35772 -5.778501 -3.642 -6.092 -5.795 -6.564 -5.7465 -9.189501 
-10.0855 -7.6075 -9.781 -6.699 -11.8445 -8.7165 -9.06 -6.969 -20.39632 -21.22322 -17.94822 -6.5565 -6.409 -6.7145 -10.7335 -6.819 -9.1905 
-10.0855 -11.8624 -12.9195 -11.8445 -12.687 -12.0632 -10.4115 -22.19032 -24.58432 -22.81372 -18.72622 -8.039001 -6.8525 -12.136 -10.9885 -9.863001 
-14.6772 -15.0009 -18.065 -12.687 -16.0337 -13.4147 -25.62762 -26.37832 -26.17482 -23.59172 -20.20872 -8.283501 -12.4198 -12.391 -14.0325 
-1.934 -5.8755 -3.034 -5.5485 -4.0555 -1.7695 -5.965 0 -3.1015 -3.849 -2.5045 -5.3885 0 -2.925 -3.9535 -1.4985 -3.75 -4.1865 -3.3035 -2.9705 -3.43 -3.845 -1.7565 -3.6615 -1.934 -1.4985 -3.5125 -1.7565 -3.9655 0 
-7.6075 -8.896 -8.081 -8.353001 -4.7475 -7.873001 -5.965 -3.1015 -6.122 -6.305 -8.4805 -5.3885 -2.925 -5.863 -5.435 -4.8715 -6.4385 -7.119 -5.72 -5.781 -8.513 -4.13 -5.23 -4.437 -2.6125 -4.7015 -4.312 -5.1895 -3.9655 
-9.34 -14.1248 -10.0315 -8.5815 -9.545501 -7.873001 -8.6125 -6.122 -8.6955 -12.3846 -8.4805 -8.8265 -5.863 -7.1305 -9.271001 -7.6835 -8.545 -8.923 -8.1525 -10.76 -8.6995 -6.8195 -5.6525 -5.0245 -5.4205 -4.846 -6.9565 -5.1895 
-14.6534 -16.0753 -10.3215 -13.7565 -9.545501 -9.885 -9.796 -8.6955 -14.8461 -12.3846 -12.2105 -11.9019 -7.1305 -10.586 -12.177 -8.863001 -10.396 -11.5187 -13.1351 -10.9465 -10.061 -7.523 -6.405001 -8.3935 -5.48 -7.3095 -6.9565 
-16.6039 -16.3653 -15.4965 -13.7565 -11.7403 -11.2343 -13.3029 -14.8461 -14.8461 -16.1146 -15.2859 -13.1694 -10.586 -13.492 -13.3565 -10.9048 -12.9917 -16.5013 -13.3216 -12.308 -10.5485 -7.821001 -10.114 -8.568001 -7.521 -7.3095 
-3.2615 -1.4985 -4.7345 -1.7565 -3.75 -3.8735 -4.1975 -3.3035 -2.5045 -5.965 0 -3.1015 -5.3885 0 -1.934 -5.8755 0 -1.8085 -2.688 -3.9655 -3.5125 -1.7565 -6.557 -4.53 0 
-4.032 -5.1325 -5.089 -5.55 -6.110001 -7.822001 -5.8355 -5.915501 -7.832001 -5.965 -3.1015 -8.595501 -5.3885 -1.934 -7.6075 -5.8755 -1.8085 -3.642 -6.449 -6.276 -4.312 -7.653501 -11.7764 -4.53 
-7.149 -5.2645 -9.193001 -8.057 -8.113001 -8.209001 -8.761001 -10.2235 -7.832001 -8.6125 -8.595501 -8.595501 -7.4995 -7.6075 -7.6075 -8.387 -3.642 -6.9125 -8.885 -6.9925 -9.666 -13.1297 -11.7764 
-7.1795 -9.333 -10.3685 -10.553 -8.251 -11.5009 -13.113 -10.2235 -10.038 -8.767 -8.595501 -9.762001 -13.734 -7.6075 -9.281 -10.1945 -6.9125 -9.424001 -9.9805 -13.1113 -15.4154 -13.1297 
-11.6062 -10.4345 -13.6961 -10.7055 -11.5917 -15.8529 -13.113 -12.4295 -10.1565 -8.767 -9.762001 -16.0979 -13.734 -9.281 -10.7605 -13.465 -9.424001 -10.2875 -16.0651 -18.8607 -15.4154 
