-4.759 
n/a 
n/a 
n/a 
n/a 
-4.759 
n/a 
n/a 
n/a 
n/a 
-4.759 
n/a 
n/a 
n/a 
n/a 
-4.759 
n/a 
n/a 
n/a 
n/a 
-3.45 -4.828 -3.43 -5.3085 -1.934 -4.1865 -4.3355 0 
-7.7425 -8.308001 -8.9315 -6.8945 -5.967 -5.171 -4.3355 
-11.5505 -14.2515 -10.5235 -9.4575 -7.675 -5.171 
-17.494 -15.8435 -13.0865 -9.515501 -7.675 
-19.086 -18.4065 -13.1445 -9.515501 
-2.4265 -2.186 -3.5185 -5.3085 -1.934 -5.1875 -4.3355 0 
-3.292 -6.658501 -9.309 -6.8945 -7.1715 -10.164 -4.3355 
-8.381001 -12.805 -10.169 -12.997 -12.8752 -10.164 
-14.7019 -13.665 -17.7027 -18.7007 -12.8752 
-15.5619 -21.1987 -23.4064 -18.7007 
-2.3335 -4.828 -4.107 -2.0935 -4.1865 -4.3355 -4.1115 -5.3085 0 
-7.750501 -9.435 -4.239501 -6.2405 -5.171 -7.106 -8.7295 -5.3085 
-12.7647 -9.51 -8.861501 -8.2965 -8.568 -10.674 -8.7295 
-12.8397 -14.1706 -11.4889 -12.0841 -12.9254 -10.674 
-17.5003 -16.798 -15.2765 -16.4415 -12.9254 
-3.1495 -4.828 -4.638 -5.3085 -1.934 -4.1865 -4.3355 
-7.1385 -9.004 -10.543 -6.8945 -5.967 -5.171 
-11.8325 -15.0042 -12.129 -9.4575 -7.675 
-17.8327 -16.5902 -14.692 -9.515501 
-19.4187 -19.1532 -14.75 
