-4.759 
n/a 
n/a 
n/a 
n/a 
-4.759 
n/a 
n/a 
n/a 
n/a 
-4.759 
n/a 
n/a 
n/a 
n/a 
-4.759 
n/a 
n/a 
n/a 
n/a 
-4.426 -1.7565 -1.4985 -3.6115 -4.7285 -4.1555 -3.147 0 
-5.47 -2.4195 -4.081 -6.5495 -8.4455 -5.77 -3.147 
-5.9535 -5.180501 -6.670501 -9.978001 -9.541501 -5.77 
-8.462501 -7.797 -10.054 -11.0524 -9.541501 
-10.2375 -11.2985 -11.1648 -11.0524 
-1.934 -5.046 -4.7615 -1.4985 -6.6675 -4.319 -1.934 -9.335501 -4.444 -2.871 -1.7565 -3.973 0 
-6.3405 -11.046 -5.9545 -8.110001 -11.6661 -6.011 -12.2759 -14.1535 -7.379001 -3.5385 -6.670001 -3.973 
-12.7841 -12.239 -13.1582 -13.4648 -13.3581 -17.0231 -17.0939 -17.0885 -8.118501 -9.279 -6.670001 
-13.9771 -19.4427 -18.513 -15.1568 -24.3702 -21.8411 -20.0289 -17.828 -14.0356 -9.279 
-21.1808 -24.7975 -20.205 -26.1689 -29.1882 -24.7761 -20.7684 -23.7451 -14.0356 
-12.16972 -3.7555 -4.6335 -1.756 -4.9385 -4.147 -1.934 -1.4985 -3.8275 -1.7565 -10.2055 -2.264 -4.686 
-15.92522 -8.953 -6.2285 -6.501 -9.0105 -6.257 -2.6125 -4.726 -5.4695 -12.9112 -12.5655 -7.969001 
-21.12272 -10.7495 -9.834001 -10.7822 -11.9431 -6.789001 -5.815001 -6.01 -17.9264 -15.2712 -18.2705 
-22.91922 -14.355 -14.2716 -13.7148 -12.4751 -10.403 -6.858 -18.8509 -20.2864 -20.9762 
-26.52472 -18.7926 -17.2042 -14.2468 -16.0891 -10.535 -19.8977 -21.2109 -25.9914 
-1.934 -1.4985 -12.182 -3.8275 -6.602 -5.091 -4.6335 -2.186 -1.4985 -5.291 -1.7565 -8.347 -4.417 
-2.6125 -15.0701 -16.3521 -9.9305 -12.615 -8.5535 -6.528 -3.339 -7.174001 -7.281001 -10.468 -13.0656 
-16.6397 -19.0442 -23.8097 -15.9435 -16.0775 -10.806 -7.7805 -8.842501 -7.677001 -16.3227 -15.1866 
-20.1776 -26.5018 -29.8227 -19.406 -18.33 -12.0585 -13.619 -9.1315 -16.8405 -21.0413 
-27.6352 -32.5148 -33.2852 -21.6585 -19.5825 -17.897 -13.908 -18.3378 -21.5591 
