-4.759 
n/a 
n/a 
n/a 
n/a 
-4.759 
n/a 
n/a 
n/a 
n/a 
-4.759 
n/a 
n/a 
n/a 
n/a 
-4.759 
n/a 
n/a 
n/a 
n/a 
-3.2615 -5.3525 -2.3615 -3.7345 -4.6195 -4.6255 -2.4265 -2.742 -4.834 -3.6135 -4.2225 -1.756 -3.6885 -4.2335 -1.756 -6.365 
-7.0785 -6.935 -5.6805 -7.385 -9.928 -7.013 -4.095 -6.282001 -8.955 -7.636 -5.3695 -5.2825 -7.431 -5.316 -8.4545 
-8.494 -10.5975 -10.0428 -13.0391 -12.5309 -8.596001 -7.397501 -10.057 -13.2235 -8.3765 -9.011001 -8.7235 -8.561 -9.476001 
-12.3333 -14.9598 -15.6969 -15.642 -14.1139 -12.1481 -11.3977 -14.8033 -13.964 -12.6826 -12.6026 -10.238 -12.6892 
-16.6956 -20.6139 -18.2998 -17.225 -17.666 -16.1483 -16.144 -15.5438 -18.2701 -16.2742 -14.1171 -14.3662 
-5.3955 -2.4945 -3.2955 -2.0935 -1.8085 -3.6885 -3.264 -1.7565 -4.1745 -3.8225 -3.9755 -3.5795 -4.0415 -1.756 -5.0605 -3.995 -4.8155 -5.3955 0 -3.969 -5.3955 0 -3.8755 -5.3955 0 -3.741 -5.3955 0 -1.756 -3.326 -5.3955 
-6.910501 -4.6305 -4.307 -3.385 -4.3555 -5.0915 -3.6125 -6.4375 -8.43 -6.3025 -6.8025 -7.4545 -5.4805 -6.224 -9.458 -6.3665 -7.411 -5.3955 -3.969 -7.3335 -5.3955 -3.8755 -7.999001 -5.3955 -3.741 -7.4185 -5.3955 -1.756 -4.7815 -8.211 
-8.341001 -5.574501 -5.872 -5.889501 -5.206 -5.1115 -7.22 -10.019 -10.0995 -8.5255 -10.2185 -8.548 -6.5135 -10.3285 -9.8065 -7.4715 -7.411 -8.771501 -7.3335 -7.3335 -9.144 -7.999001 -7.999001 -8.409 -7.4185 -7.4185 -6.445 -4.7815 -9.384501 
-8.946 -7.1315 -8.188001 -6.780001 -5.2195 -9.384501 -10.476 -10.591 -10.559 -10.543 -11.4564 -9.088501 -10.7175 -10.4065 -10.2135 -7.4715 -10.513 -9.554001 -7.3335 -10.151 -9.611501 -7.999001 -10.3745 -9.293 -7.4185 -8.4385 -9.3865 -9.384501 
-9.613501 -9.328 -8.6785 -6.787001 -9.443001 -10.587 -10.6005 -10.61 -10.6095 -12.0187 -11.9969 -13.6261 -10.7955 -10.536 -10.2135 -10.7175 -10.6375 -9.554001 -10.151 -10.3295 -9.611501 -10.3745 -10.438 -9.293 -8.4385 -10.4855 -10.565 
-3.7345 -4.5235 -3.8535 -1.8085 -3.326 -2.264 -2.3615 -1.756 -4.82 -2.3615 -2.7765 -4.834 -2.5685 -1.4985 -3.6135 -4.2225 -1.756 -2.8965 -4.2335 0 
-8.4455 -8.724501 -5.448 -5.233 -5.025001 -3.8255 -4.8045 -6.532 -7.035 -4.876 -6.507501 -6.171 -3.7015 -4.4525 -7.636 -5.3695 -3.751 -6.3675 -4.2335 
-12.8269 -11.4222 -8.477 -7.397 -6.726 -6.0765 -9.259501 -8.859 -9.499001 -8.6265 -8.286501 -7.1885 -6.5615 -8.568501 -8.3765 -7.311501 -7.042 -6.3675 
-15.5246 -14.4512 -8.694 -9.136001 -8.0865 -10.749 -11.9601 -11.4688 -13.4493 -10.66 -9.024501 -10.4935 -9.867001 -9.709001 -10.9831 -9.500501 -7.042 
-18.5536 -14.6682 -10.4425 -10.2695 -12.9342 -13.4496 -14.5699 -15.4191 -15.4828 -11.398 -12.3911 -13.799 -11.0075 -12.5672 -13.1721 -9.500501 
-2.4265 -2.742 -4.834 -2.5685 -1.4985 -4.141 0 -4.2335 -3.264 -2.3345 -3.4155 -9.649501 
-4.095 -6.282001 -6.171 -3.7015 -5.3175 -4.141 -4.2335 -7.93 -5.9415 -6.3415 -14.2792 
-7.397501 -7.631001 -7.1885 -7.719 -5.3175 -8.382501 -7.93 -10.6565 -9.526 -17.6754 
-8.887 -8.4125 -11.651 -7.719 -9.989 -12.661 -10.6565 -14.241 -21.1715 
-9.547001 -13.1338 -11.651 -12.7131 -14.3699 -15.3875 -14.241 -25.8865 
