-4.759 
n/a 
n/a 
n/a 
n/a 
-4.759 
n/a 
n/a 
n/a 
n/a 
-4.759 
n/a 
n/a 
n/a 
n/a 
-4.759 
n/a 
n/a 
n/a 
n/a 
-8.842501 -5.057 -2.356 0 -6.5005 -6.2025 -9.069 0 -5.392 -2.3345 -12.16972 -1.756 -3.9535 -4.8765 -3.332 -1.756 -3.7555 -4.794 -2.5195 -12.341 -1.7565 -2.3615 -2.9805 -3.966 -2.5685 -3.091 -4.6555 0 
-14.1489 -5.5255 -2.356 -6.5005 -13.3518 -15.7041 -9.069 -5.392 -6.196 -14.83482 -13.92572 -5.4855 -7.788501 -7.1425 -5.109 -5.2875 -7.7795 -5.6105 -15.8033 -13.3617 -3.523 -5.7 -5.9475 -6.0865 -5.3505 -6.7045 -4.6555 
-14.6174 -5.5255 -9.5255 -13.3518 -22.8534 -15.7041 -14.8182 -6.196 -19.28712 -16.59082 -17.65522 -9.3015 -9.631001 -8.448501 -7.992001 -9.2395 -8.0895 -19.7255 -16.5548 -14.7257 -6.7965 -8.899 -7.607501 -7.5415 -8.0795 -6.7045 
-14.6174 -13.4014 -16.4794 -22.8534 -22.8534 -21.4533 -15.6222 -19.28712 -21.04312 -20.32032 -21.47122 -11.4406 -11.055 -11.4887 -12.2258 -9.478001 -22.6075 -20.477 -17.9188 -16.7442 -9.675501 -10.3415 -8.210001 -9.450001 -8.0795 
-22.4933 -20.3553 -25.981 -22.8534 -28.6026 -22.2573 -28.71332 -21.04312 -24.77262 -24.13632 -23.61032 -12.8646 -14.0952 -15.7225 -12.4643 -24.134 -23.359 -21.841 -19.9373 -19.1542 -11.1164 -10.944 -10.2585 -9.450001 
-8.842501 -8.658501 -2.5685 -3.091 -4.6555 -3.851 -1.7695 -1.4985 -5.5995 -1.756 -1.4985 -4.62 -2.9805 -3.7555 -2.356 -7.172 
-17.7504 -11.4028 -5.3505 -6.7045 -8.386001 -4.0015 -2.7955 -6.897 -6.5635 -3.0405 -6.2325 -7.785501 -5.3095 -6.8855 -9.6735 
-20.4947 -14.1848 -8.0795 -10.316 -8.411 -4.5775 -8.4655 -7.841001 -8.051001 -7.858 -8.871 -9.666 -8.2015 -14.5946 
-23.2767 -16.9138 -11.7872 -10.3385 -8.899001 -9.772 -9.301001 -9.062501 -13.0325 -10.7175 -10.3285 -12.6646 -16.0352 
-26.0057 -20.6215 -11.8097 -10.7785 -14.1941 -10.5665 -10.587 -14.1426 -15.892 -12.175 -13.4487 -20.4983 
-2.3345 -3.332 -3.3755 -1.7565 -4.8485 -8.842501 -6.3305 -3.091 -4.284 -7.449 -1.756 -3.918 -2.356 -7.172 -1.756 -4.752 -3.332 -4.1215 0 
-5.3 -5.779 -4.5295 -6.455501 -14.6984 -15.4224 -9.8125 -4.863 -10.862 -9.279501 -6.079 -6.205501 -9.6735 -9.040501 -6.0485 -7.022501 -6.443501 -4.1215 
-9.027 -7.190001 -8.155001 -16.5746 -21.2783 -18.9044 -11.6457 -11.7526 -12.6925 -13.7951 -7.7025 -13.8738 -11.542 -13.486 -8.2235 -10.1465 -6.443501 
-9.276 -9.6785 -18.5029 -23.1545 -24.7603 -20.7376 -18.5353 -13.5831 -17.2081 -15.4186 -15.568 -15.7423 -15.9875 -15.661 -11.4161 -10.1465 
-12.0543 -20.0496 -25.0828 -26.6365 -26.5935 -27.6272 -20.3658 -18.0987 -18.8316 -23.2841 -17.4365 -20.1878 -18.1625 -18.8536 -11.4161 
-3.5455 -3.332 -6.5005 -6.2025 -4.0905 0 -8.842501 -4.752 -2.356 -4.79 -2.3345 -5.0945 -7.449 -3.074 -4.452 -2.5685 -3.091 -4.6555 
-5.785 -11.0375 -13.3518 -11.1415 -4.0905 -8.842501 -13.8439 -7.0325 -6.745001 -6.8625 -6.3575 -13.6251 -11.3584 -6.9605 -6.251 -5.3505 -6.7045 
-14.5127 -17.8888 -18.2908 -11.1415 -13.6844 -13.8439 -16.1244 -11.8837 -9.022001 -10.2435 -15.2875 -17.5345 -15.2449 -8.613 -8.146501 -8.0795 
-21.364 -22.8278 -18.2908 -20.7354 -18.6858 -16.1244 -20.9756 -14.1607 -12.709 -19.1735 -19.1969 -21.421 -16.8974 -10.6885 -10.159 
-26.303 -22.8278 -27.8847 -25.7368 -20.9663 -20.9756 -23.2526 -17.8477 -21.639 -23.0829 -23.0834 -23.0735 -18.9729 -12.701 
