-4.759 
n/a 
n/a 
n/a 
n/a 
-4.759 
n/a 
n/a 
n/a 
n/a 
-4.759 
n/a 
n/a 
n/a 
n/a 
-4.759 
n/a 
n/a 
n/a 
n/a 
0 -2.7835 -2.7295 -2.4945 -3.818 -2.7295 -2.742 -4.209 -2.0935 -2.8705 -4.352 0 
-2.7835 -4.405 -3.7725 -5.7935 -6.322001 -4.076 -5.923 -5.8745 -4.3745 -7.4595 -4.352 
-4.405 -5.429 -7.7465 -7.9715 -7.8425 -7.6285 -7.592 -7.6695 -9.366501 -7.4595 
-5.429 -8.5 -9.861 -9.313001 -11.6118 -8.791 -9.536 -13.5195 -9.366501 
-8.5 -11.0881 -11.6401 -13.1825 -12.7743 -9.922501 -15.1254 -13.5195 
-2.7835 -2.9805 -2.186 -3.818 0 -2.9805 -3.2645 -4.209 -2.0935 -3.091 -4.4905 0 
-4.6105 -4.1635 -4.969501 -3.818 -2.9805 -5.2395 -6.693501 -5.8745 -4.5345 -6.964 -4.4905 
-5.750501 -7.823 -4.969501 -6.5365 -5.2395 -7.7465 -7.9945 -7.5785 -9.140501 -6.964 
-9.0655 -7.823 -7.349501 -8.551001 -7.7465 -9.144501 -9.255 -12.8497 -9.140501 
-9.0655 -9.5555 -9.103001 -11.3428 -9.144501 -9.918 -14.9528 -12.8497 
-2.7835 -2.871 -3.2645 -2.489 -1.8085 -3.818 -3.6765 0 -2.9805 -3.2645 -2.489 -4.424 -2.0935 -3.091 -5.5345 0 
-5.120501 -5.529 -3.7195 -3.799 -5.0085 -7.901 -3.6765 -2.9805 -5.2395 -3.7195 -8.421 -6.271501 -4.5345 -7.0135 -5.5345 
-7.640501 -6.2655 -5.21 -6.4665 -8.462 -7.901 -6.23 -5.2395 -5.8855 -9.834001 -9.927501 -7.988 -8.7095 -7.0135 
-8.649501 -7.784 -8.3995 -9.85 -8.462 -9.7725 -8.418 -5.8855 -12.6354 -11.3405 -11.644 -12.8144 -8.7095 
-9.977501 -10.7025 -11.9278 -9.85 -10.354 -12.1475 -8.885501 -12.6354 -14.1419 -13.057 -16.4704 -12.8144 
0 -2.7835 -2.3585 -2.4945 -3.818 -3.757 -2.5235 -3.956 -4.4825 -2.0935 -2.5235 -4.2125 
-2.7835 -3.296 -3.538 -5.7935 -7.3355 -6.2545 -6.4185 -8.2235 -6.7195 -3.869 -5.942 
-3.296 -4.1415 -7.603 -10.2435 -10.586 -9.7325 -11.223 -10.6215 -9.35 -8.074 
-4.1415 -8.0915 -12.3422 -13.494 -14.064 -14.537 -13.621 -13.252 -13.7036 
-8.0915 -13.3039 -15.5927 -16.972 -18.8685 -16.935 -16.2515 -17.6056 
