-4.759 
n/a 
n/a 
n/a 
n/a 
-4.759 
n/a 
n/a 
n/a 
n/a 
-4.759 
n/a 
n/a 
n/a 
n/a 
-4.759 
n/a 
n/a 
n/a 
n/a 
-3.819 -2.7295 -3.619 -2.264 -2.8705 -3.839 0 -3.693 -3.331 -2.6165 -3.3165 -1.7695 -3.4605 -1.7695 -3.197 -1.4985 -3.486 0 -2.7295 -2.7765 -3.962 -2.264 -2.8705 -3.839 
-5.5645 -6.5255 -5.344 -4.38 -7.104 -3.839 -3.693 -6.7775 -5.2605 -5.4065 -3.881 -5.5985 -5.2965 -3.9565 -4.291 -3.5655 -3.486 -2.7295 -4.065 -7.983 -5.162 -4.38 -7.104 
-9.340501 -8.212501 -7.7485 -8.002501 -7.104 -7.694 -6.7775 -9.455 -7.4545 -6.194 -6.529 -8.302501 -6.4795 -4.7825 -6.627001 -3.5655 -6.184 -4.065 -9.342501 -9.3265 -7.476501 -8.002501 
-11.4291 -9.5865 -11.992 -8.002501 -10.634 -11.0733 -9.455 -11.6996 -8.275001 -10.0575 -8.932 -9.643001 -7.667 -7.402 -6.627001 -6.1925 -7.8485 -9.342501 -10.7576 -11.8514 -11.436 
-12.8031 -13.914 -11.992 -11.9063 -14.0133 -13.7508 -11.6996 -12.5201 -12.2749 -13.0625 -10.0745 -10.735 -10.7011 -7.402 -10.4185 -7.8655 -13.352 -10.7576 -13.2825 -15.8109 
-4.267 -2.3335 -1.756 -4.745 -4.236 
-7.131001 -5.031 -6.471 -8.5625 
-10.564 -9.441001 -9.822001 
-14.974 -13.0694 
-18.6024 
-4.267 -4.079 -1.756 -3.013 -5.651501 -3.465 -1.7695 -3.3165 -4.7135 
-9.938001 -5.6785 -4.674 -8.529501 -6.666501 -3.665 -4.0585 -8.481001 
-11.5887 -8.8075 -9.9875 -11.3185 -8.602501 -5.3725 -9.06 
-14.7177 -13.6987 -11.165 -9.657001 -10.1325 -10.159 
-19.6089 -15.4427 -11.489 -10.8105 -14.2235 
-5.605 0 -3.16 -5.1415 -2.6165 -3.3165 -1.7695 -4.9395 -1.4985 -4.161 
-5.605 -3.16 -9.859 -7.915001 -5.4065 -3.881 -7.3725 -6.500501 -5.9785 
-9.571001 -9.859 -12.7297 -11.35 -6.194 -10.1465 -8.651501 -11.5559 
-16.6868 -12.7297 -16.1647 -12.1375 -12.8347 -11.4255 -13.8771 
-19.5575 -16.1647 -16.9522 -18.7782 -14.1137 -16.6511 
