-4.759 
n/a 
n/a 
n/a 
n/a 
-4.759 
n/a 
n/a 
n/a 
n/a 
-4.759 
n/a 
n/a 
n/a 
n/a 
-4.759 
n/a 
n/a 
n/a 
n/a 
-7.191 -3.8315 -3.458 -4.1455 -1.756 -4.1285 -2.4945 -2.356 -4.361 
-9.227 -6.988 -6.8975 -5.5555 -5.5985 -7.2395 -5.6245 -6.436501 
-13.1869 -9.0305 -7.006001 -5.7085 -7.718 -10.6661 -10.4035 
-15.4492 -9.750501 -7.0245 -7.735 -11.187 -15.4451 
-16.1692 -9.784 -9.3075 -11.2114 -15.966 
-4.0535 -3.6385 -2.229 -1.756 -4.1105 -2.229 -3.8315 -1.756 -4.6795 -3.8315 -2.186 -3.6515 -2.264 -3.188 
-7.338 -4.977 -4.366 -5.9565 -5.194 -6.056 -5.169001 -5.82 -5.904 -5.974 -4.575 -4.7115 -5.849 
-8.998 -7.6525 -7.903501 -7.341 -8.1155 -7.497 -8.783501 -8.2205 -8.2875 -8.414001 -5.476 -8.7375 
-11.7847 -8.2325 -7.913 -10.1545 -10.1585 -11.5317 -9.691001 -9.9715 -11.1849 -9.635 -9.559 
-12.3647 -8.235001 -10.2585 -12.6381 -14.0124 -12.4392 -11.442 -12.8689 -12.4059 -13.7788 
-4.091 -3.8315 -3.458 -3.6385 -1.756 -3.5485 -1.756 -3.074 -5.4275 -2.4285 -4.242 0 
-7.6395 -6.988 -6.625501 -5.0765 -4.8465 -4.869 -4.566 -8.907001 -7.1885 -6.7955 -4.242 
-11.471 -9.290001 -6.679501 -7.5325 -6.4115 -7.761 -10.368 -10.8394 -8.488501 -6.7955 
-13.773 -9.330501 -8.833501 -8.828 -8.6425 -13.7388 -12.3004 -12.1394 -8.488501 
-13.8135 -12.1171 -9.755 -11.3736 -14.7557 -15.6712 -13.6004 -12.1394 
-4.685 -2.5195 -1.4985 -3.8315 -3.458 -4.1455 -1.756 -4.1285 0 -3.0365 -4.439 -3.8315 -3.458 -3.486 -3.8315 0 
-5.093 -3.1695 -5.577001 -6.988 -6.8975 -5.5555 -5.5985 -4.1285 -3.0365 -6.1245 -8.899 -6.988 -7.539001 -5.2965 -3.8315 
-5.585001 -7.4645 -8.7305 -9.0305 -7.006001 -5.7085 -5.5985 -7.5685 -6.1245 -10.6735 -12.5815 -9.315001 -7.774001 -5.2965 
-9.344501 -10.9522 -10.9778 -9.750501 -7.0245 -5.7085 -8.67 -11.2055 -10.6735 -14.356 -14.9085 -9.399501 -7.774001 
-12.899 -13.1995 -11.6978 -9.784 -7.0245 -8.7115 -12.4042 -15.7545 -14.356 -16.683 -14.993 -9.399501 
