-4.759 
n/a 
n/a 
n/a 
n/a 
-4.759 
n/a 
n/a 
n/a 
n/a 
-4.759 
n/a 
n/a 
n/a 
n/a 
-4.759 
n/a 
n/a 
n/a 
n/a 
-4.628 -4.743 -2.186 -3.3235 -4.25 -3.59 0 -6.9645 -4.02 -4.25 -4.4345 -2.186 -3.2295 -3.644 0 -1.7695 -4.0745 -4.684 -4.39 -4.743 -2.186 -3.644 
-4.7515 -7.074 -4.976501 -8.008501 -7.897 -3.59 -6.9645 -11.7651 -7.688 -7.5885 -6.2505 -5.1515 -6.523 -3.644 -1.7695 -4.934 -9.58 -9.3395 -10.8415 -7.074 -5.6125 
-7.087 -9.474501 -10.115 -12.0723 -7.897 -11.6931 -11.7651 -15.4331 -11.5303 -9.834001 -8.957001 -9.5985 -6.523 -5.1665 -4.934 -10.553 -14.5475 -15.8408 -13.1725 -10.5135 
-9.496 -14.7426 -14.1788 -12.0723 -16.3847 -16.4937 -15.4331 -19.2754 -13.7758 -12.5961 -13.721 -9.5985 -8.517 -9.6595 -10.553 -15.5205 -21.0488 -18.1718 -16.612 
-14.7701 -18.8064 -14.1788 -20.56 -21.1853 -20.1617 -19.2754 -21.5209 -16.5379 -17.3601 -13.721 -11.6315 -13.511 -15.4015 -15.5205 -22.0218 -23.3798 -21.6113 
-4.628 -4.743 -2.186 -4.25 -3.59 -2.872 -2.4265 -2.8645 -3.644 -4.02 -4.913 -4.945 -3.959 
-4.7515 -7.074 -5.495501 -7.897 -5.904 -4.062 -4.1435 -6.588 -7.014 -8.8065 -9.5245 -9.896501 
-7.087 -10.1635 -10.3285 -9.9835 -7.1355 -5.6165 -7.643001 -9.392 -12.5709 -13.5314 -14.6496 
-10.163 -14.9965 -12.415 -11.215 -8.359501 -8.873501 -10.3035 -15.0699 -17.2958 -18.6565 
-14.996 -17.083 -13.6465 -12.439 -11.6955 -11.923 -15.9814 -19.7948 -22.4209 
-4.628 -4.743 -2.871 -1.7565 -4.052 -1.4985 -3.59 0 -3.4765 -4.052 -1.4985 -3.959 -4.8075 -2.4945 -4.4345 -2.4285 -3.689 0 
-4.7515 -8.1665 -3.5385 -7.7815 -4.752 -4.268 -3.59 -3.4765 -7.320001 -4.752 -5.5 -9.2145 -7.847501 -7.9645 -6.91 -4.762 -3.689 
-8.1815 -8.6395 -10.586 -8.726501 -7.6715 -4.268 -6.806 -7.320001 -8.031 -9.4245 -11.5361 -13.1587 -13.5617 -10.1635 -9.646 -4.762 
-8.663 -15.9912 -11.531 -11.8384 -7.6715 -7.2085 -11.2151 -8.031 -12.8869 -15.5596 -15.4803 -18.8729 -15.7607 -13.1531 -9.646 
-16.1141 -16.9362 -14.6429 -11.8384 -11.382 -11.6974 -11.9261 -12.8869 -19.022 -19.5038 -21.1945 -21.0719 -18.7503 -13.1531 
-4.02 -3.999 -3.1575 -2.8965 -4.09 -3.959 
-8.3725 -5.164 -5.4505 -6.7545 -5.684 
-9.097501 -7.2245 -8.416 -7.018001 
-11.3584 -9.638 -8.628501 
-13.7719 -9.947001 
