-4.759 
n/a 
n/a 
n/a 
n/a 
-4.759 
n/a 
n/a 
n/a 
n/a 
-4.759 
n/a 
n/a 
n/a 
n/a 
-4.759 
n/a 
n/a 
n/a 
n/a 
-1.934 -3.5905 -2.9805 -4.425 -1.8085 -3.4185 -1.7565 -4.285 -4.179 -1.756 -4.8025 -3.8475 -1.756 -2.9805 -5.86 -1.7695 -3.4985 -1.4985 -3.6645 -1.756 -9.686501 0 
-5.055 -6.272 -6.2475 -5.2615 -4.1435 -4.2475 -5.739 -8.015 -5.011001 -6.191 -7 -5.133 -4.3555 -8.087501 -8.059 -4.8425 -4.9685 -5.015 -5.4115 -12.4511 -9.686501 
-6.659 -10.1305 -6.921 -7.084001 -4.5105 -8.708501 -9.222 -8.676001 -10.061 -9.290501 -8.818001 -7.778501 -9.678501 -9.5425 -10.7025 -5.436 -8.718 -6.850501 -17.2866 -12.4511 
-10.4105 -10.804 -8.443501 -7.1905 -9.2925 -12.8325 -9.863501 -14.0838 -13.1605 -10.598 -11.4945 -13.2209 -11.1859 -12.3646 -11.296 -9.4145 -10.427 -19.0756 -17.2866 
-11.084 -12.3265 -8.565001 -12.3635 -13.5365 -13.474 -15.3203 -17.1833 -14.468 -13.2745 -16.9369 -14.7283 -14.008 -12.9581 -15.2745 -11.2395 -22.6521 -19.0756 
-1.934 -3.5905 0 -2.5045 -1.4985 -3.4185 -1.7565 -3.8475 -1.7565 -4.285 -3.84 -2.9805 -3.251 -4.168 -2.0935 -1.4985 -4.1565 -4.957 -3.6205 
-5.055 -3.5905 -2.5045 -3.583 -5.019 -4.2475 -5.437 -4.7705 -5.739 -6.178 -6.97 -4.429 -6.988501 -5.994 -2.9725 -6.074 -10.2645 -9.068001 
-5.055 -6.2275 -3.583 -7.0295 -6.382501 -6.995 -7.393001 -9.4345 -7.4525 -9.6815 -8.5905 -8.112 -9.240001 -6.982 -7.480501 -12.8998 -14.8803 
-6.8165 -7.241 -7.0295 -7.787 -9.667001 -8.2115 -12.433 -12.0256 -10.426 -11.4136 -12.4445 -10.0885 -10.1435 -12.0462 -14.3989 -17.5156 
-7.743001 -10.3155 -7.787 -11.2143 -10.6895 -13.5773 -15.0241 -14.9991 -12.3997 -15.2676 -14.421 -10.992 -15.2077 -18.9646 -19.0147 
-4.413 -3.84 -1.7695 -2.489 -4.8275 -2.3345 -1.4985 -3.307 -3.84 -1.756 -4.304 -1.4985 -6.933001 -3.4185 -2.5045 -3.5905 
-7.761 -5.5655 -3.1405 -5.785501 -6.256001 -3.233 -4.8975 -7.045 -4.8045 -5.7515 -5.5 -8.120501 -10.0965 -6.039001 -7.1355 
-9.4195 -6.7465 -6.8025 -7.2895 -6.837 -6.552001 -8.597 -7.9465 -8.943501 -6.8005 -12.5022 -11.736 -12.717 -11.1358 
-10.7505 -11.1577 -8.031501 -7.825 -9.536 -10.354 -9.5485 -12.1437 -9.935501 -14.0425 -16.1177 -14.3565 -17.8138 
-15.1617 -12.3867 -8.719501 -10.6788 -13.656 -11.4593 -13.8055 -13.1357 -17.4985 -17.658 -18.7382 -19.4533 
-1.934 -3.5905 -1.4985 -4.085 -2.9705 -3.152 -3.687 -3.7285 -3.152 -3.074 -4.3325 -1.756 -3.43 -1.8085 -8.223001 -1.4985 -3.1385 -3.0695 -3.152 -3.7855 -9.936501 -3.152 -3.074 -4.168 -2.3345 -3.5435 0 
-5.055 -5.1795 -4.7765 -6.4635 -5.007 -5.959001 -7.5705 -8.257501 -5.0635 -7.4235 -6.172 -5.055 -4.6595 -9.477 -8.854 -4.2575 -4.286 -4.8015 -5.473001 -14.8158 -13.0885 -5.0635 -6.1765 -4.6945 -5.752501 -3.5435 
-6.056 -8.433001 -7.4495 -8.176001 -7.808001 -10.66 -12.8527 -10.168 -8.658 -9.425501 -8.961 -5.9635 -13.351 -10.4492 -13.1104 -5.1225 -5.8625 -7.044001 -17.0059 -17.9678 -15 -8.047501 -6.673501 -7.622001 -5.752501 
-9.574 -11.4186 -9.2335 -11.1614 -12.7618 -15.9422 -14.7632 -13.7625 -9.933001 -12.3023 -10.2435 -14.8104 -14.3232 -14.7056 -13.9754 -6.602 -8.3795 -18.7217 -20.1579 -19.8793 -17.984 -8.22 -9.740001 -7.622001 
-12.6124 -13.2026 -12.2331 -16.1152 -18.044 -17.8527 -18.3577 -15.0375 -12.8098 -13.5848 -19.0904 -15.7826 -18.5796 -15.5706 -15.4549 -9.219501 -20.1428 -21.8737 -22.0694 -22.8633 -18.1565 -11.3221 -9.740001 
