-4.759 
n/a 
n/a 
n/a 
n/a 
-4.759 
n/a 
n/a 
n/a 
n/a 
-4.759 
n/a 
n/a 
n/a 
n/a 
-4.759 
n/a 
n/a 
n/a 
n/a 
-8.214001 -2.186 -5.5885 -2.3345 -2.5685 -8.27 0 -1.756 -2.9805 -2.186 -1.4985 -4.4525 -1.7565 -5.1845 -3.9675 
-10.004 -7.0225 -6.587 -4.884 -9.599501 -8.27 -1.756 -4.3555 -4.1635 -3.339 -5.514 -5.591001 -6.580501 -8.286 
-14.8405 -7.910501 -8.359501 -12.5386 -9.599501 -9.508 -4.3555 -5.5675 -5.312 -6.811 -6.323 -9.8345 -9.033001 
-15.7285 -9.2545 -16.3275 -12.5386 -11.0563 -12.1261 -5.5675 -6.7545 -8.73 -6.982 -10.6595 -10.5365 
-17.0725 -17.4085 -16.3275 -13.9954 -13.6744 -13.3381 -6.7545 -10.1985 -8.783001 -11.5097 -11.3615 

n/a 
n/a 
n/a 
n/a 
-8.214001 -2.186 -3.9205 -2.5045 -2.5685 -9.758 -1.756 -4.395 -5.2915 -1.7565 -9.758 -3.9675 -3.074 
-10.004 -4.9645 -4.449 -5.408 -13.2821 -11.9952 -5.863 -8.4585 -5.807 -11.0145 -14.2067 -7.188001 
-12.7825 -5.539 -8.025001 -16.463 -15.5193 -16.1022 -10.3029 -9.7215 -16.072 -15.4632 -17.4272 
-13.357 -9.304501 -19.4234 -18.7002 -19.6263 -20.5421 -11.5659 -19.9449 -20.5207 -18.6837 
-17.1225 -20.6711 -21.6606 -22.8072 -24.0662 -21.8051 -21.7893 -24.3936 -23.7412 
-7.967 -2.186 -1.4985 -3.6765 -2.871 -3.0695 -2.8645 -3.1125 -3.9205 -1.756 -5.5885 -2.3345 -3.6055 -8.27 -1.756 -3.074 -2.8645 -3.1125 -8.895 -1.7565 -1.4985 -3.6765 -5.1845 -3.9675 
-10.674 -3.339 -4.501 -6.624001 -5.059 -4.5495 -3.5345 -5.731 -5.5625 -6.8475 -6.587 -6.0955 -13.2071 -9.508 -4.566 -4.9765 -3.5345 -9.772501 -11.0865 -2.4195 -4.501 -9.899 -8.286 
-11.827 -6.3355 -8.066 -8.050501 -6.115 -5.3815 -6.2065 -7.671 -8.9805 -7.827001 -9.163501 -15.8699 -14.4451 -12.3366 -6.5085 -6.488 -10.228 -12.3712 -11.7495 -5.357 -11.7527 -13.0005 
-14.8235 -9.8065 -10.2175 -8.9545 -7.125 -8.007 -8.111 -9.433001 -10.164 -10.1185 -19.2409 -17.1079 -17.2737 -14.2791 -8.05 -13.5567 -13.4243 -13.0342 -14.687 -13.0735 -14.8542 
-18.2945 -12.046 -11.1215 -10.281 -9.644 -10.5595 -10.7595 -11.8453 -12.4555 -20.3327 -20.4789 -19.9365 -19.2162 -15.8206 -15.3053 -16.753 -14.0873 -15.9717 -22.4035 -16.175 
