-4.759 
n/a 
n/a 
n/a 
n/a 
-4.759 
n/a 
n/a 
n/a 
n/a 
-4.759 
n/a 
n/a 
n/a 
n/a 
-4.759 
n/a 
n/a 
n/a 
n/a 
-3.5445 -3.815 -3.8405 0 -2.9805 -4.3195 -1.4985 -3.6825 -4.2245 -2.3345 -3.8255 -5.091 -4.1855 -1.934 -1.4985 -3.6825 -4.219 0 
-7.152 -5.7745 -3.8405 -2.9805 -5.4865 -5.1515 -4.87 -6.442 -6.7335 -5.892 -10.3519 -8.425 -5.95 -2.6125 -4.87 -7.1565 -4.219 
-8.7425 -5.7745 -6.4635 -5.4865 -6.313 -8.2345 -7.5175 -8.9075 -9.558001 -12.7566 -13.6859 -10.001 -6.4575 -6.3985 -8.769501 -7.1565 
-8.7425 -8.390501 -8.5295 -6.313 -9.085 -9.872 -9.9375 -11.8064 -16.7202 -16.0906 -15.2619 -10.4555 -9.656501 -9.606001 -8.769501 
-11.3989 -10.2085 -9.5835 -9.085 -10.6215 -12.4356 -12.9808 -18.9686 -20.0542 -17.6666 -15.7164 -14.6237 -13.1482 -9.606001 
-4.021 0 -2.9805 -4.3195 -1.4985 -3.6825 -4.4325 0 -3.2615 -5.15 -5.091 -4.1855 -1.934 -1.4985 -3.6825 -4.519 0 
-4.021 -2.9805 -5.4865 -5.1515 -4.87 -6.8005 -4.4325 -3.2615 -7.182 -11.551 -8.425 -5.95 -2.6125 -4.87 -7.410501 -4.519 
-6.4265 -5.4865 -6.313 -8.2345 -8.115001 -6.8005 -7.729001 -7.182 -14.1256 -14.885 -10.001 -6.4575 -6.3985 -9.0345 -7.410501 
-8.262501 -6.313 -9.085 -10.204 -8.115001 -9.305 -11.9457 -14.1256 -17.4596 -16.461 -10.4555 -9.656501 -9.587501 -9.0345 
-9.226501 -9.085 -11.7703 -10.204 -10.8903 -13.7937 -18.8893 -17.4596 -19.0356 -16.9155 -14.6237 -13.1297 -9.587501 
-4.021 -2.9805 -3.7555 -5.091 -4.1855 -1.756 -4.425 -4.2245 
-6.4265 -5.3095 -10.019 -8.425 -6.14 -6.0105 -8.1855 
-8.733001 -12.0284 -13.353 -10.634 -10.1595 -9.637001 
-15.5743 -15.3624 -15.562 -14.6535 -14.0254 
-18.9083 -17.5714 -19.5815 -18.5194 
-3.383 -4.021 -2.9805 -3.7555 -5.091 -4.1855 -1.934 -4.219 -1.756 -2.9805 -3.7905 -1.8085 -4.2245 -1.934 -2.3335 -3.774 0 
-5.7425 -6.4265 -5.3095 -10.019 -8.425 -5.95 -6.5445 -5.83 -4.3555 -7.118001 -4.255 -5.274 -4.929 -4.359 -6.634501 -3.774 
-7.664001 -8.733001 -12.0284 -13.353 -10.001 -9.144001 -8.632501 -7.872001 -8.8935 -7.731501 -6.783 -5.555 -7.794001 -8.234 -6.634501 
-9.93 -15.5743 -15.3624 -14.929 -13.5788 -11.354 -10.7939 -12.6522 -9.5865 -9.882501 -7.0085 -8.302501 -12.09 -8.234 
-16.7713 -18.9083 -16.9384 -18.5068 -15.7888 -13.5154 -15.5741 -13.3452 -11.8077 -10.3054 -9.639 -12.6937 -12.09 
