-4.759 
n/a 
n/a 
n/a 
n/a 
-4.759 
n/a 
n/a 
n/a 
n/a 
-4.759 
n/a 
n/a 
n/a 
n/a 
-4.759 
n/a 
n/a 
n/a 
n/a 
-4.685 -2.5195 -3.1495 0 -3.0365 -2.186 -3.469 -4.66 -2.0935 -5.2705 -4.061 -1.934 -3.4005 -1.756 -3.972 0 
-5.093 -5.0805 -3.1495 -3.0365 -3.66 -5.9505 -7.075 -6.24 -6.5595 -7.3595 -5.509 -4.859 -4.503 -5.2755 -3.972 
-6.996001 -5.0805 -6.811501 -3.66 -8.7255 -10.9689 -8.0135 -10.082 -8.6715 -8.636001 -9.015501 -6.0865 -6.45 -5.2755 
-6.996001 -8.183001 -7.435 -8.7255 -13.9021 -11.9074 -12.1819 -10.3605 -9.672 -12.4747 -9.904 -7.5255 -6.45 
-8.361501 -8.9615 -12.6651 -13.9021 -14.8406 -16.0758 -12.4604 -11.5792 -13.5421 -13.3632 -11.343 -7.5255 
-4.1485 -2.3615 -4.957 -1.7565 -3.4005 -1.756 -3.972 -3.958 0 
-6.68 -9.080501 -6.0415 -4.473 -4.503 -5.2755 -5.128 -3.958 
-13.7766 -10.622 -9.201 -5.5335 -6.45 -6.4795 -5.128 
-15.3181 -13.7815 -9.715501 -7.9275 -7.1625 -6.4795 
-18.4776 -14.296 -12.2123 -9.13 -7.1625 
-4.8215 -3.1495 -1.4985 -5.2705 -3.391 -3.1385 -2.674 -4.6605 -1.934 -3.4005 -1.756 -3.6175 -3.958 0 
-6.750501 -5.949 -6.6245 -7.9305 -6.6855 -4.8995 -7.115 -6.411 -4.859 -4.503 -5.5265 -5.173 -3.958 
-8.3555 -11.1948 -9.0445 -9.712 -8.402 -9.0815 -8.814 -9.6145 -6.0865 -7.1575 -6.9235 -5.173 
-13.6405 -13.6148 -10.543 -11.4725 -12.7752 -11.0959 -12.1643 -9.884501 -8.8085 -8.397 -6.9235 
-16.0605 -15.1133 -12.3035 -15.8457 -14.7896 -14.4462 -12.4343 -13.2853 -10.022 -8.397 
-3.321 -5.2705 -5.605 -2.674 -3.4865 -5.3445 -1.934 -3.4005 -1.756 -3.972 
-8.282001 -10.335 -8.428 -5.966 -8.5755 -7.1295 -4.859 -4.503 -5.2755 
-13.5133 -13.158 -11.9884 -11.5108 -10.061 -10.096 -6.0865 -6.45 
-16.3363 -16.7184 -17.5332 -12.9963 -13.0165 -10.592 -7.5255 
-19.8967 -22.2632 -19.0187 -15.9518 -13.5125 -12.031 
