-4.759 
n/a 
n/a 
n/a 
n/a 
-4.759 
n/a 
n/a 
n/a 
n/a 
-4.759 
n/a 
n/a 
n/a 
n/a 
-4.759 
n/a 
n/a 
n/a 
n/a 
-4.7145 0 -5.401 -7.803 -1.756 -4.003 0 -2.186 -4.2815 -3.16 -3.3825 -4.2695 
-4.7145 -5.401 -10.533 -8.375501 -6.008 -4.003 -2.186 -6.1155 -6.9005 -5 -6.8175 
-7.2755 -10.533 -10.5495 -10.4855 -6.008 -6.343 -6.1155 -10.104 -8.7895 -8.269501 
-10.6875 -10.5495 -10.587 -10.4855 -8.050501 -9.899 -10.104 -11.993 -12.7636 
-10.7115 -10.587 -10.587 -12.8516 -11.9553 -14.2679 -11.993 -15.9671 
-4.7145 0 -4.7145 0 -5.401 -9.057 -1.756 -4.003 0 -2.3615 -2.186 -2.871 -3.7075 -2.0935 -7.5855 -1.8085 -7.258 
-4.7145 -4.7145 -4.7145 -5.401 -15.8554 -10.66 -6.008 -4.003 -2.3615 -3.5005 -4.247 -6.25 -4.666 -8.914001 -8.8655 -8.736501 
-7.1225 -4.7145 -7.2755 -15.8554 -17.4584 -14.912 -6.008 -6.7405 -3.5005 -5.2435 -7.379001 -7.3395 -12.5219 -10.412 -16.0871 
-7.1225 -7.2755 -19.6879 -17.4584 -21.7104 -14.912 -8.5415 -7.5375 -5.2435 -8.4915 -8.425 -15.5196 -14.0199 -17.6336 
-9.102001 -19.6879 -21.2909 -21.7104 -21.7104 -17.4455 -9.411501 -9.5495 -8.4915 -9.6365 -16.7073 -17.0176 -21.2415 
-4.7145 -3.757 -1.8085 -4.273 -2.0935 -5.1785 -3.16 -4.1665 0 
-9.090501 -5.128 -5.714 -5.392 -6.235 -8.612 -7.511001 -4.1665 
-10.6287 -8.3915 -6.4925 -8.8555 -9.5295 -13.4854 -7.511001 
-13.8922 -9.427501 -9.860001 -12.3918 -14.8595 -13.4854 
-14.9282 -12.9352 -13.5885 -17.7218 -14.8595 
-4.7145 0 -4.7145 0 -5.401 -4.0595 -1.756 -4.003 0 -2.186 -1.8085 -3.7075 -2.0935 -3.5185 -1.8085 -3.473 0 
-4.7145 -4.7145 -4.7145 -5.401 -7.094 -5.3525 -6.008 -4.003 -2.186 -3.164 -4.8725 -4.666 -6.8155 -4.072 -4.9295 -3.473 
-7.1225 -4.7145 -7.2755 -7.094 -7.169 -7.114 -6.008 -6.343 -3.164 -6.2625 -5.482 -9.289001 -7.861 -6.9575 -4.9295 
-7.1225 -7.2755 -7.291501 -7.169 -7.176 -7.114 -8.050501 -7.193501 -6.2625 -7.060501 -10.694 -9.535001 -10.9985 -6.9575 
-9.102001 -7.291501 -7.337 -7.176 -7.176 -8.490001 -8.6105 -9.571 -7.060501 -12.3921 -10.94 -13.5175 -10.9985 
