-4.759 
n/a 
n/a 
n/a 
n/a 
-4.759 
n/a 
n/a 
n/a 
n/a 
-4.759 
n/a 
n/a 
n/a 
n/a 
-4.759 
n/a 
n/a 
n/a 
n/a 
-1.934 -1.4985 -3.158 -2.9805 -4.523 -1.7695 -3.43 -2.664 -12.16972 -2.5045 -1.4985 -4.461 -1.934 -3.8355 -4.923 -3.152 -1.4985 -4.031 -1.756 -4.331 -1.7695 -9.267 -2.4265 -4.7475 -1.4985 -9.698001 -4.569 -3.8675 
-2.6125 -4.178 -5.5865 -6.0415 -5.5405 -6.884 -5.286 -16.05212 -14.67422 -3.583 -5.2755 -5.015501 -5.8325 -6.534 -7.2865 -4.764 -4.771 -5.7505 -5.8375 -4.593 -9.769 -11.9715 -6.988 -5.361001 -12.2903 -14.379 -7.925 
-5.265 -6.5845 -8.338 -7.036 -9.855 -8.752 -19.63172 -18.55662 -15.75272 -7.43 -5.943501 -8.798501 -8.3205 -8.7395 -8.880501 -7.5335 -7.0795 -9.6385 -6.0945 -14.0791 -12.5751 -16.533 -7.5055 -16.429 -16.9713 -17.735 
-7.6685 -9.4995 -9.462001 -11.7655 -11.8528 -23.03852 -22.13622 -19.63512 -19.59972 -7.9845 -9.880501 -11.5199 -10.6735 -10.27 -11.8098 -9.822001 -11.2831 -9.762501 -15.8598 -16.8852 -17.1366 -17.0505 -18.7177 -21.11 -20.3273 
-10.6757 -10.7069 -14.2847 -13.7633 -26.13932 -25.54302 -23.21472 -23.48212 -20.15422 -12.1321 -12.6019 -13.8729 -12.204 -13.1993 -14.0983 -14.2226 -11.4071 -19.6098 -18.6659 -21.4467 -17.6541 -28.2627 -23.3987 -24.466 
-1.934 -4.9425 -2.9805 -4.523 -1.934 -4.216 -2.664 -3.8675 -3.849 -6.3275 -4.569 -3.8675 -1.934 -3.333 -1.7695 -4.2065 -1.4985 -3.948 -4.919 -2.9805 -4.776 -1.7695 -2.489 -1.4985 -3.8175 -5.518 -1.934 -3.8355 0 
-6.2875 -7.192 -6.0415 -6.3665 -5.044 -5.822 -5.2005 -7.3525 -9.132001 -6.414001 -7.925 -5.6555 -3.9835 -4.022 -4.563 -4.732 -4.7695 -8.191 -7.694 -5.717 -6.6355 -3.1405 -3.9675 -4.741 -6.8315 -6.8025 -5.8325 -3.8355 
-7.554001 -9.7305 -8.225 -8.477 -6.825 -8.7465 -8.5235 -13.7205 -9.146001 -7.9415 -9.113501 -7.1915 -4.0425 -6.0915 -5.081501 -8.988 -9.065001 -10.6095 -10.6095 -7.35 -6.6995 -4.568 -6.811 -7.606501 -7.83 -10.564 -5.8325 
-9.821501 -12.1128 -10.3605 -9.84 -9.543501 -12.3431 -14.5877 -13.7345 -11.1319 -9.137501 -11.2295 -7.2225 -6.0965 -6.4315 -9.221001 -13.4017 -11.7031 -13.525 -12.2425 -7.409 -7.4955 -7.0885 -8.484501 -8.7185 -11.6257 -10.564 
-12.258 -14.2483 -11.7235 -12.6075 -13.1441 -18.4073 -14.6017 -15.7204 -12.3279 -11.2509 -11.2605 -9.576 -6.4355 -10.5745 -13.6613 -16.0398 -14.6186 -15.158 -12.3015 -8.052501 -10.233 -9.2335 -10.0885 -12.5422 -11.6257 
-1.934 -1.4985 -3.158 -4.9425 0 -3.0365 -2.7415 -1.8085 -3.3825 -1.934 -1.4985 -4.1975 -3.433 -1.7565 -4.1975 -5.2765 0 -3.0415 -6.982501 -4.523 -1.7695 -6.6745 -2.664 -3.8675 -4.281 -5.6645 -3.8675 0 
-2.6125 -4.178 -7.6575 -4.9425 -3.0365 -4.2225 -3.891 -5.643 -5.027 -2.6125 -5.6635 -7.8415 -4.1845 -5.8985 -9.869501 -5.2765 -3.0415 -10.884 -12.1285 -5.5405 -7.147 -8.3885 -5.2005 -8.878 -11.08 -10.469 -3.8675 
-5.265 -8.413 -7.6575 -8.0115 -4.2225 -4.725 -7.782001 -7.5595 -5.6325 -6.867001 -10.0505 -8.399501 -9.032001 -12.0841 -9.869501 -7.544001 -10.884 -16.03 -13.146 -9.885501 -8.644501 -11.1546 -10.1635 -15.926 -15.8845 -10.469 
-8.942 -8.413 -10.476 -8.724501 -4.725 -8.816501 -9.320001 -8.120501 -10.1945 -12.0556 -10.7059 -10.674 -15.3842 -12.0841 -12.127 -16.1853 -16.03 -17.0475 -17.491 -11.4938 -11.4664 -16.1176 -17.2881 -20.7305 -15.8845 
-8.942 -10.5975 -11.189 -9.217501 -8.816501 -9.6765 -9.754001 -12.7783 -15.4979 -12.711 -12.9804 -17.9608 -15.3842 -14.3416 -20.7683 -21.3313 -17.0475 -21.3925 -19.0993 -14.3157 -16.4294 -23.2422 -22.0926 -20.7305 
-4.9425 -3.158 -4.2895 -1.7565 -3.8355 -4.116 -4.2065 -1.7695 -6.2365 -4.569 -1.7695 -4.0395 -1.4985 -3.737 -1.7565 -3.8675 0 
-8.63 -8.378501 -6.057 -5.261 -8.8135 -9.225 -6.4705 -8.5305 -11.6893 -6.546 -5.327 -6.023 -5.262 -5.3145 -5.789001 -3.8675 
-14.4227 -10.7025 -9.411 -10.757 -14.2005 -11.6858 -13.9421 -14.2745 -13.6663 -10.7335 -7.063 -10.0867 -5.460001 -10.1505 -5.789001 
-16.7467 -14.0565 -15.0958 -16.144 -16.6613 -19.1574 -19.6861 -16.2515 -17.8538 -12.4695 -11.3441 -10.2847 -10.5746 -10.1505 
-20.1007 -19.7413 -20.4828 -18.6048 -24.1329 -24.9014 -21.6631 -20.439 -19.5898 -16.7506 -11.5421 -15.3993 -10.5746 
