-4.759 
n/a 
n/a 
n/a 
n/a 
-4.759 
n/a 
n/a 
n/a 
n/a 
-4.759 
n/a 
n/a 
n/a 
n/a 
-4.759 
n/a 
n/a 
n/a 
n/a 
-3.5195 -5.851501 -4.257 -4.795 -1.756 -2.461 -4.891 -3.152 -4.493 -3.5455 -1.4985 -4.3685 -3.034 -6.899 -4.257 -5.5665 -3.818 -1.934 -7.160501 
-7.441 -9.462501 -7.142 -6.002 -4.711 -7.708 -7.253 -5.593 -6.4835 -3.91 -5.106 -7.155001 -10.3165 -9.082001 -8.8715 -8.261001 -5.817 -7.9865 
-13.402 -13.0846 -8.2225 -9.0565 -10.575 -10.476 -8.842501 -7.1715 -6.9155 -6.7055 -7.8435 -14.6627 -12.4995 -13.7877 -11.5552 -9.453 -12.5037 
-17.7966 -14.8179 -10.647 -15.4195 -13.343 -12.0655 -10.427 -7.397501 -8.336 -9.278001 -15.4368 -16.8457 -17.2052 -16.4714 -12.7472 -16.2767 
-18.8771 -17.2424 -17.01 -18.1875 -14.9325 -13.65 -10.6605 -9.044001 -10.66 -16.8041 -17.6198 -21.5514 -19.8889 -17.6634 -19.5709 
-3.5195 -2.855 -4.628 -4.743 -3.013 -1.4985 -3.8275 -3.772 -2.9965 -4.0415 -4.269 -1.756 -2.461 -4.5845 -2.4945 -5.452 0 
-5.4615 -7.791 -4.7515 -8.684 -4.488 -4.726 -7.727 -7.3295 -7.6105 -7.9375 -5.696 -4.711 -7.2845 -7.804501 -7.2955 -5.452 
-11.4947 -8.301001 -8.691 -10.554 -8.626 -8.9785 -11.5845 -11.9971 -11.9617 -8.726501 -8.4905 -9.861 -11.0991 -12.9181 -7.2955 
-12.0047 -12.7027 -10.5745 -14.692 -12.9947 -13.0712 -16.2521 -16.3483 -12.7507 -12.2146 -13.7495 -13.6542 -16.2127 -12.9181 
-16.4064 -14.5862 -14.7125 -19.0607 -17.0874 -17.7388 -20.6033 -17.1373 -16.2388 -17.4736 -17.5427 -18.7678 -16.2127 
-3.5195 -4.3535 -6.899 -4.795 -4.0875 -3.6505 -1.934 -7.160501 -3.851 -1.7695 -2.9705 -2.9965 -5.723 -1.756 -2.461 -6.144 -3.711 -3.152 -4.493 
-7.7275 -11.9585 -10.9315 -7.759501 -6.7065 -5.299 -7.9865 -10.543 -4.0015 -4.56 -7.186001 -8.3535 -7.0095 -4.711 -9.457001 -9.103001 -5.7615 -5.593 
-14.9057 -16.3132 -13.896 -10.674 -8.062 -11.9635 -11.6784 -10.5705 -7.3745 -8.894 -12.9372 -9.714001 -10.025 -12.3554 -12.5238 -10.2495 -7.263 
-19.2326 -19.2777 -16.8105 -12.0295 -15.0377 -15.6554 -11.7059 -14.2461 -11.8259 -14.6956 -14.2977 -12.8951 -17.975 -15.4222 -13.6703 -11.751 
-22.1971 -22.1922 -18.166 -19.0052 -18.7296 -15.6829 -15.3815 -18.6975 -17.6275 -16.0561 -17.4788 -20.8451 -21.0418 -16.5687 -15.1718 
-3.5195 -2.855 -5.0795 -3.458 -4.628 -3.873 -4.257 -1.756 -4.891 -1.934 -7.160501 -2.9965 -5.351 -1.756 -2.461 -4.891 -3.074 -4.493 0 
-5.4615 -8.7545 -6.6245 -7.881001 -10.322 -7.55 -5.698 -6.8805 -6.693501 -7.9865 -9.892 -8.267501 -6.346 -4.711 -7.708 -8.042001 -6.8595 -4.493 
-10.361 -10.316 -10.4945 -13.9878 -13.999 -8.830501 -10.621 -8.3785 -10.634 -10.0095 -15.63 -9.175501 -9.311001 -10.575 -11.5332 -12.1615 -6.8595 
-12.9003 -14.186 -16.8409 -17.6648 -15.2795 -13.8857 -12.119 -12.4966 -12.657 -16.1467 -16.538 -12.4325 -15.3266 -14.4002 -15.6527 -12.1615 
-16.7703 -20.5324 -20.5179 -18.9453 -20.3347 -15.3837 -16.2371 -14.5196 -18.7942 -17.0547 -19.795 -18.4481 -19.1518 -18.5197 -15.6527 
