-4.759 
n/a 
n/a 
n/a 
n/a 
-4.759 
n/a 
n/a 
n/a 
n/a 
-4.759 
n/a 
n/a 
n/a 
n/a 
-4.759 
n/a 
n/a 
n/a 
n/a 
-1.934 -8.191501 0 -7.719 -9.104501 -8.188001 -3.284 0 -3.0365 -2.7415 -1.8085 -4.2775 -5.3995 -2.0935 -7.361001 -1.756 -3.999 -3.391 -3.5585 -2.9705 -2.7415 -4.3285 -2.3345 -3.595 0 
-9.603001 -8.191501 -7.719 -9.549001 -17.5671 -10.27 -3.284 -3.0365 -4.2225 -3.891 -4.8285 -8.975 -7.33 -8.609501 -8.888 -5.2735 -6.5965 -6.5745 -6.6715 -4.512 -6.083 -5.495501 -5.597 -3.595 
-9.603001 -10.3965 -9.549001 -18.1302 -19.6491 -10.27 -6.3365 -4.2225 -4.725 -7.259 -9.660501 -9.456 -14.3558 -9.9285 -12.8041 -7.652 -8.961 -10.0995 -8.2255 -7.4965 -6.7665 -8.193001 -5.597 
-12.0238 -12.6381 -18.1302 -20.2122 -19.6491 -13.3225 -7.159501 -4.725 -7.8285 -12.2908 -10.1695 -17.0018 -15.6748 -14.0976 -15.1826 -9.788 -12.6196 -11.6535 -11.3366 -7.887001 -9.383 -8.193001 
-14.2654 -21.2193 -20.2122 -20.2122 -22.7016 -14.1455 -7.825 -7.8285 -12.9375 -12.7998 -17.7153 -18.3208 -19.8439 -16.4761 -17.3186 -13.4702 -14.1736 -14.7646 -11.7271 -10.4945 -9.383 
-2.9805 -3.4765 -5.0775 -2.3335 -4.2775 -4.8015 -2.0935 -3.93 -3.391 -1.756 -3.999 -3.391 -3.1385 -2.3335 -3.152 -3.354 -2.925 -2.5045 -1.8085 -4.3705 -4.454 -1.934 -7.166501 -2.7415 -4.225 -3.9345 -1.7695 -1.4985 -4.385 -1.7565 -5.1875 -4.2655 
-5.8995 -7.88 -5.344 -6.543 -8.943001 -6.418 -5.5695 -7.14 -5.2205 -5.2735 -6.5965 -6.6855 -5.009501 -4.664001 -5.9205 -4.3775 -5 -3.913 -5.7075 -7.176 -5.98 -8.295501 -10.0645 -6.2155 -7.578501 -3.94 -2.7955 -5.214 -4.933 -6.68 -7.408 
-9.257 -8.088 -9.378001 -11.6155 -9.9235 -9.335501 -8.945001 -8.692 -8.045501 -7.652 -8.1995 -8.465501 -6.698501 -7.14 -6.504 -6.488 -6.3055 -7.934 -7.554 -8.592501 -13.1323 -11.4809 -13.5385 -9.0605 -7.587501 -4.4455 -6.192 -5.458 -9.14 -8.396501 
-9.537001 -12.1278 -14.5201 -12.596 -12.841 -13.2936 -10.6386 -10.6605 -8.607 -8.951 -9.882 -10.1265 -10.13 -7.764 -7.9215 -7.7565 -10.051 -9.303501 -9.1145 -15.912 -16.3177 -14.9549 -16.3835 -9.062 -7.921501 -7.110001 -6.3455 -9.748001 -10.523 
-13.5986 -17.2699 -15.5006 -15.5135 -16.7991 -14.9872 -12.6071 -10.711 -9.807 -10.7035 -11.7032 -13.7688 -10.7085 -9.239 -9.240001 -11.7982 -11.4205 -10.495 -16.486 -19.0974 -19.7917 -17.7999 -16.385 -9.3985 -10.8192 -7.29 -10.45 -11.2548 
-4.712 -3.0365 -3.152 -3.2495 -4.2775 -3.8135 0 -2.871 -2.0935 -4.056 -5.891 -1.756 -1.4985 -3.571 -2.0935 -2.8965 -3.1385 0 -2.9805 -5.0775 -2.3335 -2.3615 -2.7415 -1.4985 -5.1875 -4.2655 -2.229 -5.1095 0 
-6.323501 -4.453 -5.765 -5.6285 -7.3955 -3.8135 -2.871 -4.9555 -6.616 -8.873501 -7.0585 -3.0405 -6.7215 -5.9785 -4.726501 -4.8735 -3.1385 -2.9805 -6.3875 -5.344 -4.2805 -4.455 -4.063 -5.496 -7.408 -6.8715 -7.5595 -5.1095 
-8.3035 -5.9705 -7.691501 -8.7465 -7.3955 -6.922501 -4.9555 -9.1045 -10.7495 -10.3545 -8.3395 -7.851501 -9.326 -8.7605 -6.364 -4.8735 -5.858 -6.3875 -6.66 -6.851 -5.581501 -5.3025 -9.006001 -7.738501 -9.493 -12.678 -7.5595 
-10.1265 -7.953001 -10.114 -8.7465 -9.814501 -8.6925 -9.1045 -13.5166 -12.2305 -11.6355 -13.2951 -9.869 -12.1396 -10.298 -6.364 -7.414001 -9.101501 -6.66 -8.319 -7.869 -6.369501 -10.7175 -10.758 -9.7045 -15.6895 -12.678 
-12.2652 -10.467 -10.114 -10.0345 -10.2465 -13.1151 -13.5166 -14.9976 -13.5115 -16.5911 -15.3126 -12.7372 -13.6771 -10.298 -8.6355 -10.8193 -9.464001 -8.319 -9.151501 -8.844001 -11.9909 -12.4695 -12.724 -16.0572 -15.6895 
-2.9805 -5.7255 -2.3335 -1.4985 -4.273 -1.7565 -4.2775 -5.3995 -2.0935 -3.93 -4.273 -1.756 -10.651 -1.934 -7.719 -12.16972 -7.923501 -3.284 -1.934 -9.169001 
-6.818501 -7.6415 -3.3515 -5.1805 -6.0075 -6.1635 -8.975 -7.33 -5.5695 -9.205 -5.186501 -13.4156 -12.585 -9.1885 -20.58192 -20.09322 -9.745501 -5.0005 -10.27 
-8.673 -8.2555 -6.883 -6.522 -10.621 -11.112 -9.456 -11.3158 -11.4779 -10.5235 -18.5127 -15.3496 -19.8395 -22.47642 -28.50542 -21.91522 -10.241 -13.9465 
-9.380501 -11.9092 -8.341001 -11.2637 -15.5695 -11.593 -13.9618 -17.2242 -12.7964 -23.8497 -20.4467 -22.6041 -33.12742 -30.39992 -30.32742 -22.41072 -20.0208 
-13.0342 -13.3672 -13.1523 -16.2122 -16.0505 -16.0988 -19.8702 -18.5427 -26.1226 -25.7837 -27.7012 -35.89202 -41.05092 -32.22192 -30.82292 -32.19052 
