-4.759 
n/a 
n/a 
n/a 
n/a 
-4.759 
n/a 
n/a 
n/a 
n/a 
-4.759 
n/a 
n/a 
n/a 
n/a 
-4.759 
n/a 
n/a 
n/a 
n/a 
-3.321 -2.925 -2.4945 -3.989 -3.383 -4.3135 -3.5965 0 
-5.154 -3.7675 -5.235001 -7.582 -8.547 -7.715501 -3.5965 
-6.267 -6.5305 -9.133501 -13.2858 -12.1132 -7.715501 
-10.259 -10.218 -15.0157 -16.852 -12.1132 
-13.9465 -16.1002 -18.5819 -16.852 
-5.8395 -1.7565 -5.2055 -3.982 0 -4.518 -4.899 -1.756 -10.989 -1.7565 -4.176 -4.7095 -4.348 -3.091 -5.3695 -1.7695 -5.854 -1.4985 -3.9845 -1.7565 -3.091 -5.663 -2.7415 -1.8085 -3.6885 -4.293 -1.934 -1.4985 -5.6565 -1.7565 -4.176 -4.0415 -5.6935 -2.9805 -4.471 -4.803 -1.934 -3.091 -4.6 -5.5865 -1.934 -3.288 -4.8185 0 
-7.208001 -6.568 -6.2635 -3.982 -4.518 -6.319 -6.441 -10.883 -10.2075 -5.79 -7.5305 -5.061501 -7.3945 -6.8415 -5.686 -6.649001 -6.6215 -5.377 -5.477 -4.0655 -7.2095 -8.304 -3.891 -4.3555 -7.4305 -5.2995 -2.6125 -6.117001 -6.007 -5.79 -6.941 -9.015 -8.175 -6.6525 -6.2665 -6.3345 -4.2105 -8.0135 -8.4715 -7.3535 -4.9715 -6.996 -4.8185 
-9.6155 -7.1425 -6.2635 -9.157001 -6.319 -8.006001 -9.614 -8.08 -10.4955 -9.113001 -7.553 -8.2635 -11.5262 -6.9365 -8.649 -7.109001 -7.7505 -5.7425 -7.244 -7.955 -9.563001 -9.4465 -6.407 -7.5325 -7.841 -5.8635 -7.7675 -6.1315 -10.001 -8.202001 -10.411 -11.6687 -11.9064 -7.448 -7.176 -7.892501 -8.5375 -8.9445 -9.570001 -9.7605 -7.714 -6.996 
-9.6295 -7.1425 -10.287 -10.209 -8.006001 -11.6445 -10.576 -11.4185 -13.9683 -9.17 -10.7025 -12.8856 -11.6212 -9.3385 -9.265 -8.222 -7.929 -7.300001 -8.6145 -9.9775 -10.7285 -12.0205 -8.6755 -7.8805 -8.346001 -8.935 -7.787 -10.2475 -12.413 -10.7595 -13.0647 -15.4001 -12.7019 -8.264501 -8.17 -9.582001 -9.0115 -10.1115 -10.3495 -9.9615 -7.714 
-9.6295 -11.3742 -11.7636 -12.3476 -11.9658 -12.2483 -13.5885 -14.7735 -14.0065 -12.4235 -15.3246 -12.9806 -14.0232 -10.3965 -10.46 -8.377501 -9.418 -8.626 -11.2226 -11.143 -13.3025 -14.289 -8.794001 -8.3855 -11.5221 -8.9445 -12.0494 -12.6595 -14.9705 -13.4132 -16.7961 -16.1956 -13.5184 -9.314501 -10.0345 -9.602001 -10.195 -10.9892 -10.3805 -9.9615 
-1.4985 -4.335 -1.7565 -4.8915 -3.8755 
-5.775001 -4.436 -6.4635 -8.301001 
-5.9175 -9.034 -9.762 
-10.702 -12.5375 
-14.2055 
-11.0235 -2.229 -5.0515 -4.3215 -1.756 -3.1435 -3.9035 0 -1.756 -2.688 -3.9035 -2.4945 -3.9285 0 -4.635 -3.4265 -2.925 -4.673 0 
-13.2525 -7.5995 -10.7164 -5.659 -4.1365 -6.3795 -3.9035 -1.756 -4.619 -6.5115 -5.8065 -5.071 -3.9285 -4.635 -6.532001 -6.7535 -7.1985 -4.673 
-18.623 -14.4092 -12.0539 -8.295 -7.517 -6.3795 -5.1585 -4.619 -7.6355 -8.118 -7.824 -5.071 -8.483 -6.532001 -9.8675 -11.3506 -7.1985 
-25.4327 -15.7467 -14.6899 -11.8847 -7.517 -7.48 -8.3615 -7.6355 -9.426001 -10.389 -7.824 -10.411 -9.992001 -9.8675 -14.553 -11.3506 
-26.7702 -18.3827 -18.2796 -11.8847 -8.696 -10.8782 -9.284 -9.426001 -11.8172 -10.389 -13.2762 -11.92 -13.4827 -14.553 -14.553 
