-4.759 
n/a 
n/a 
n/a 
n/a 
-4.759 
n/a 
n/a 
n/a 
n/a 
-4.759 
n/a 
n/a 
n/a 
n/a 
-4.759 
n/a 
n/a 
n/a 
n/a 
-3.989 -4.211 -5.7725 -1.756 -7.245501 
-9.393001 -10.4855 -7.529 -8.707001 
-15.7597 -12.6036 -14.8172 
-17.8778 -19.8918 
-25.166 
-6.2945 0 -6.4735 0 -5.1445 -2.4945 -4.4165 -3.147 -1.756 -3.074 -3.737 -5.9155 -3.147 0 
-6.2945 -6.4735 -6.4735 -5.1445 -6.949 -6.2945 -8.6595 -4.731 -4.566 -6.4825 -8.998 -9.3885 -3.147 
-9.546 -6.4735 -12.4522 -6.949 -11.5178 -10.223 -10.361 -7.149 -7.683001 -10.76 -12.835 -9.3885 
-9.546 -12.4522 -14.2567 -11.5178 -15.4463 -11.9245 -12.779 -10.575 -12.1629 -14.597 -12.835 
-16.0333 -14.2567 -18.8255 -15.4463 -17.1478 -14.3425 -16.205 -15.0549 -15.9999 -14.597 
-3.147 -6.2945 0 -5.743001 0 -5.4795 -3.1495 -2.4945 -2.5685 -4.326 -4.2225 -1.756 -3.074 -3.937 -3.326 -2.356 -3.45 -4.2225 
-10.0315 -6.2945 -5.743001 -5.743001 -5.4795 -8.329 -4.459 -4.6335 -6.6645 -6.3715 -5.3695 -4.566 -6.669001 -6.308001 -5.8645 -5.0785 -6.903 
-10.0315 -10.622 -5.743001 -9.682001 -8.329 -9.366501 -5.958 -9.1315 -8.354 -7.318501 -8.021501 -7.9985 -8.5445 -8 -8.755501 -8.2145 
-14.359 -10.622 -9.682001 -12.8699 -9.366501 -10.734 -10.3745 -10.9254 -9.39 -9.9405 -11.5732 -9.869 -10.082 -11.0734 -12.0837 
-14.359 -14.561 -12.8699 -13.9074 -10.734 -15.1505 -12.1684 -11.9614 -12.142 -13.4922 -13.4437 -11.5149 -13.4012 -14.4016 
-3.147 -6.2945 0 -6.4735 0 -5.4795 -2.4945 -4.4725 -2.4265 -1.756 -3.325 -3.326 -3.074 -4.4825 0 
-10.0315 -6.2945 -6.4735 -6.4735 -5.4795 -7.0235 -5.739 -6.232 -4.303 -5.198 -7.157001 -6.5055 -6.915 -4.4825 
-10.0315 -9.546 -6.4735 -8.848001 -7.0235 -9.663 -8.5105 -8.072001 -7.068 -9.3835 -10.7335 -11.1303 -6.915 
-13.283 -9.546 -8.848001 -10.9864 -9.663 -12.5677 -11.1337 -11.102 -12.7875 -13.1302 -15.3583 -11.1303 
-13.283 -12.4291 -10.9864 -13.6259 -12.5677 -15.1909 -14.1637 -16.8215 -16.5342 -17.755 -15.3583 
