-4.759 
n/a 
n/a 
n/a 
n/a 
-4.759 
n/a 
n/a 
n/a 
n/a 
-4.759 
n/a 
n/a 
n/a 
n/a 
-4.759 
n/a 
n/a 
n/a 
n/a 
-2.5195 -1.4985 -3.9785 -1.7565 -4.602 -4.153 -3.995 -4.1455 0 -4.1115 -2.186 -1.4985 -3.784 -4.237 -2.95 
-3.1695 -4.496 -4.924 -6.552001 -5.112 -7.973001 -6.749001 -4.1455 -4.1115 -6.279 -3.339 -4.6165 -7.665 -7.9595 
-6.0535 -4.959 -9.1715 -6.637001 -8.6335 -10.9782 -6.749001 -7.849501 -6.279 -7.386 -6.113 -8.256001 -10.209 
-6.6455 -9.262501 -9.215501 -9.4545 -11.7181 -10.9782 -10.411 -11.0104 -7.386 -10.5056 -9.722501 -10.4505 
-10.5035 -9.31 -12.132 -12.7879 -11.7181 -14.6402 -13.5719 -12.1174 -10.5056 -14.1151 -11.9582 
-1.4985 -5.502 -1.7565 -4.6865 -3.4985 0 -2.9705 -4.222 -2.5045 -5.219 -5.502 0 -1.756 -3.3715 -3.959 -3.4635 -2.5045 -3.543 -1.4985 -4.582 
-6.582001 -7.015501 -5.9925 -5.6975 -3.4985 -2.9705 -7.5415 -6.5435 -8.1025 -8.309501 -5.502 -1.756 -4.6545 -5.699 -7.5195 -6.381001 -5.323 -5.62 -6.146 
-7.809501 -11.9785 -7.2785 -5.6975 -6.218 -7.5415 -10.204 -12.8721 -11.4016 -8.309501 -7.163001 -4.6545 -7.391 -9.214001 -11.1352 -8.947001 -5.8685 -8.957001 
-13.1511 -13.2645 -7.2785 -9.011001 -11.1766 -10.204 -16.5326 -16.1712 -11.4016 -9.7995 -10.1425 -7.391 -11.2982 -12.9101 -13.7012 -9.397 -9.353001 
-14.4371 -13.2645 -9.989 -14.1512 -13.8391 -16.5326 -19.8317 -16.1712 -12.8916 -12.9218 -12.879 -11.2982 -14.9943 -15.4761 -14.1512 -12.9869 
-3.3715 -3.959 -3.9535 -1.7695 -3.519 -4.3275 -1.7565 -5.127 -4.5355 -1.756 -2.8965 -3.948 -4.1985 -1.7695 -4.2065 -3.6605 -4.7425 -3.9515 0 
-5.699 -7.868 -5.098001 -4.951 -7.8995 -5.1215 -6.071001 -5.946001 -5.783 -3.751 -6.751 -6.992001 -4.901 -4.563 -6.806 -4.8735 -7.572001 -3.9515 
-9.349001 -8.3915 -7.731 -10.4505 -9.8085 -8.5825 -6.952001 -7.235001 -7.585 -7.044001 -10.7175 -8.05 -6.7675 -7.119501 -7.0335 -7.787001 -7.572001 
-9.7115 -11.1467 -13.4093 -12.3595 -13.2813 -9.334001 -8.318001 -8.951501 -11.6574 -11.1483 -11.7755 -9.4685 -8.866 -7.335001 -9.880501 -7.787001 
-12.5349 -16.825 -15.3183 -15.8323 -14.0328 -10.544 -9.975 -13.2933 -15.7617 -12.2063 -13.194 -11.6448 -8.932 -10.1505 -9.880501 
-1.4985 -3.4715 -5.202 -2.5195 -1.8085 -3.7685 -3.9395 -2.186 -5.094 -2.3345 -5.567 -4.237 0 -5.036 0 -4.237 -2.5195 -1.4985 -3.995 -2.229 -4.4315 -1.934 -3.3785 0 -1.4985 -4.2485 -1.7565 -4.7715 -3.5445 -1.4985 -3.995 -4.507 -2.356 -4.3425 -1.4985 -3.6395 -1.7565 -4.2485 -3.922 -2.356 -4.3425 -2.186 -3.9205 -2.5045 -1.4985 -5.567 -5.2555 
-4.574 -8.724 -7.115 -3.8815 -5.2005 -6.406 -5.9375 -6.428 -6.6355 -8.038501 -6.759501 -4.237 -4.1115 -4.1115 -4.237 -6.1245 -3.1695 -4.712 -5.324 -6.2995 -6.871 -4.5895 -3.3785 -1.4985 -5.307 -5.5065 -6.244 -8.0635 -4.002 -4.712 -8.651 -6.095 -6.599501 -6.2775 -4.944 -4.6145 -5.969 -6.854501 -6.1995 -6.599501 -6.4125 -4.9645 -4.449 -3.583 -6.929 -8.0275 
-9.484001 -8.830501 -8.0935 -7.283 -7.5695 -8.318 -10.1385 -7.2105 -8.979501 -9.016001 -6.759501 -8.3975 -4.1115 -8.176001 -6.1245 -6.474 -6.2025 -5.586 -7.341001 -8.329 -9.475 -4.5895 -5.409 -5.307 -5.982501 -9.834001 -9.231001 -8.326 -7.207 -8.915001 -9.892 -8.140501 -8.035001 -9.531 -5.2065 -7.8755 -8.042001 -8.878 -8.2515 -8.559501 -9.158501 -5.539 -5.019001 -9.109501 -8.593 
-9.580001 -9.627501 -10.5425 -8.734 -9.362 -10.749 -10.6285 -9.7075 -10.2045 -9.016001 -10.4025 -8.3975 -8.176001 -10.068 -6.474 -8.104 -7.179501 -7.502 -9.147 -10.586 -9.475 -5.5825 -8.988501 -5.982501 -10.0885 -12.9182 -9.4715 -9.7105 -10.4675 -9.9505 -10.1895 -9.144001 -10.322 -9.650001 -8.177501 -8.4685 -9.8295 -9.730501 -10.0785 -10.3225 -9.8535 -5.9835 -10.0315 -10.0755 
-10.677 -10.6495 -10.6905 -10.586 -11.934 -11.239 -13.1255 -10.6 -10.2045 -12.374 -10.4025 -9.874001 -10.068 -10.5005 -8.104 -8.6525 -8.51 -9.269001 -11.4714 -10.586 -10.0935 -9.0165 -9.522501 -10.0885 -13.1727 -13.1587 -10.1615 -13.2182 -10.547 -10.208 -10.6585 -10.688 -10.392 -12.621 -8.7215 -10.092 -10.1575 -10.649 -11.8415 -10.4615 -10.062 -10.4585 -10.3215 
