-4.759 
n/a 
n/a 
n/a 
n/a 
-4.759 
n/a 
n/a 
n/a 
n/a 
-4.759 
n/a 
n/a 
n/a 
n/a 
-4.759 
n/a 
n/a 
n/a 
n/a 
-3.355 -1.7565 -3.5015 -12.16972 -9.944 -1.756 -10.8905 -3.458 -3.8875 -1.7565 -3.502 -4.3355 -2.186 -12.16972 -4.0685 -2.4945 -4.7925 0 
-3.725 -4.97 -16.66622 -22.11372 -11.7 -13.6551 -14.3485 -8.148001 -6.536 -4.9855 -7.163 -6.5745 -15.56612 -16.23822 -7.081 -5.941501 -4.7925 
-8.7825 -19.15432 -26.61022 -23.86972 -23.5991 -17.1131 -19.0385 -11.2339 -9.059501 -9.3075 -10.368 -20.34202 -19.63462 -19.25072 -10.354 -5.941501 
-22.53822 -29.09832 -28.36622 -35.76882 -27.0571 -21.8031 -22.1244 -13.7574 -13.5667 -12.7317 -24.13552 -24.41052 -22.64712 -22.52372 -10.354 
-32.48222 -30.85432 -40.26532 -39.22682 -31.7471 -24.889 -24.6479 -18.2646 -16.9909 -26.49922 -28.20402 -27.42302 -25.92012 -22.52372 
-1.4985 -5.4935 -4.147 -3.787 -5.654 -1.4985 -4.2775 -4.3355 -4.197 -3.458 -1.4985 -3.4155 -4.645 -1.756 -4.965 -5.988 
-6.243 -7.084001 -6.203 -9.068001 -6.275001 -5.1745 -8.183001 -7.594 -7.221 -4.063 -4.4155 -5.2885 -5.802001 -6.754 -10.3475 
-7.476 -8.373501 -9.474001 -9.3835 -9.147501 -8.3695 -11.9853 -10.0855 -8.0515 -7.3745 -5.819 -6.7995 -8.932001 -12.5007 
-8.4855 -11.8749 -9.849501 -10.3365 -12.7759 -12.4296 -14.4768 -10.724 -11.6268 -8.306001 -6.9585 -8.968 -15.0941 
-12.0845 -12.2504 -10.8025 -14.3303 -16.836 -14.9211 -15.1153 -14.2993 -12.5583 -8.5 -9.283501 -15.1835 
-3.4155 -4.645 -1.756 -4.965 -5.557 -2.186 -3.9785 -1.7565 -3.75 -4.1115 -4.6255 -2.186 -9.1885 -3.535 -4.0685 0 
-5.2885 -5.802001 -6.754 -11.046 -7.4915 -7.186 -4.924 -5.55 -7.369 -8.298 -6.786 -12.5849 -13.1893 -7.205501 -4.0685 
-6.7995 -8.932001 -13.1992 -12.9805 -12.9025 -8.144 -8.847 -9.069501 -11.9741 -11.3971 -17.5259 -16.5857 -16.8598 -7.205501 
-8.968 -15.7926 -15.1337 -18.3915 -13.8605 -12.5954 -12.3841 -13.7698 -15.0732 -22.137 -21.5267 -20.2562 -16.8598 
-15.882 -17.7271 -20.5447 -19.3495 -18.3119 -16.1325 -17.0844 -16.8689 -25.8131 -26.1378 -25.1972 -20.2562 

n/a 
n/a 
n/a 
n/a 
