-4.759 
n/a 
n/a 
n/a 
n/a 
-4.759 
n/a 
n/a 
n/a 
n/a 
-4.759 
n/a 
n/a 
n/a 
n/a 
-4.759 
n/a 
n/a 
n/a 
n/a 
-4.704 -3.193 0 -3.288 -2.846 0 
-6.945 -3.193 -3.288 -5.1485 -2.846 
-6.945 -5.9565 -5.1485 -5.1485 
-8.808001 -7.8365 -5.1485 
-9.951 -7.8365 
-4.426 -1.7565 -1.4985 -3.6115 -4.7285 -4.1555 -3.147 -4.704 -3.193 0 -3.288 -2.846 0 
-5.47 -2.4195 -4.081 -6.5495 -8.4455 -5.77 -8.255 -6.945 -3.193 -3.288 -5.1485 -2.846 
-5.9535 -5.180501 -6.670501 -9.978001 -9.541501 -10.419 -10.647 -6.945 -5.9565 -5.1485 -5.1485 
-8.462501 -7.797 -10.054 -11.0524 -14.1905 -12.811 -10.647 -8.808001 -7.8365 -5.1485 
-10.2375 -11.2985 -11.1648 -15.7014 -16.5825 -12.811 -12.51 -9.951 -7.8365 
-4.704 -3.961 0 -3.288 -2.846 0 
-6.7185 -3.961 -3.288 -5.1485 -2.846 
-6.7185 -5.233 -5.1485 -5.1485 
-7.473 -6.0235 -5.1485 
-9.7925 -6.0235 
-4.704 -3.961 0 -3.288 -2.846 0 
-6.7185 -3.961 -3.288 -5.1485 -2.846 
-6.7185 -5.233 -5.1485 -5.1485 
-7.473 -6.0235 -5.1485 
-9.7925 -6.0235 
