-4.759 
n/a 
n/a 
n/a 
n/a 
-4.759 
n/a 
n/a 
n/a 
n/a 
-4.759 
n/a 
n/a 
n/a 
n/a 
-4.759 
n/a 
n/a 
n/a 
n/a 
-6.402 -4.4715 -3.7875 -4.0685 -4.0465 0 
-11.9461 -8.149501 -9.5625 -6.8765 -4.0465 
-15.6241 -14.3457 -12.4453 -6.8765 
-21.8203 -17.2285 -12.4453 
-24.7031 -17.2285 
-4.4715 -4.4925 -2.186 -1.4985 -4.417 -4.5155 -3.873 0 
-10.404 -6.645 -3.339 -5.4425 -9.26 -8.187 -3.873 
-12.5565 -7.5895 -8.5885 -9.703001 -13.2165 -8.187 
-13.501 -13.3868 -12.9488 -14.0005 -13.2165 
-19.2983 -17.7471 -17.2463 -14.0005 
-6.402 -3.7875 -3.17 -1.7565 -1.4985 -3.5015 -3.115 -4.417 -1.756 -4.686 
-11.2621 -7.533501 -4.179 -2.4195 -4.737 -6.026 -8.1415 -5.9025 -6.305 
-15.0081 -7.891 -4.497 -6.0035 -7.6385 -11.5523 -8.932 -7.3035 
-15.3656 -8.161501 -8.7075 -8.918501 -13.3458 -12.3428 -10.0645 
-15.6361 -12.4756 -11.8635 -14.6354 -14.1363 -13.4753 
-3.17 -3.355 -1.7565 -5.3895 -4.6805 -1.7565 -3.873 -3.4425 
-5.4065 -3.725 -6.6575 -9.9895 -4.722 -5.002 -6.015 
-6.9365 -10.1425 -11.7701 -10.1475 -8.269 -7.051 
-13.3488 -15.3247 -11.9281 -13.6945 -10.6784 
-18.531 -15.4827 -15.4751 -16.1039 
