-4.759 
n/a 
n/a 
n/a 
n/a 
-4.759 
n/a 
n/a 
n/a 
n/a 
-4.759 
n/a 
n/a 
n/a 
n/a 
-4.759 
n/a 
n/a 
n/a 
n/a 
-5.7225 -4.6825 -3.918 -2.3615 -4.2645 -1.934 -3.524 -5.0345 0 
-6.353 -8.706501 -6.4725 -6.905001 -6.489 -5.012 -7.5915 -5.0345 
-9.417001 -11.6794 -9.684 -8.784 -9.007501 -8.369 -7.5915 
-13.1613 -14.8909 -10.662 -11.4631 -12.6309 -8.369 
-16.3728 -15.8689 -13.3411 -15.0865 -12.6309 
-8.4905 -4.6825 -3.918 -2.356 -2.3615 -4.2645 -1.934 -3.524 -5.0345 0 
-9.264501 -8.706501 -6.205501 -4.2185 -6.905001 -6.489 -5.012 -7.5915 -5.0345 
-13.4399 -10.76 -8.8345 -8.553 -8.784 -9.007501 -8.369 -7.5915 
-15.4934 -13.389 -13.3176 -10.2925 -11.4631 -12.6309 -8.369 
-18.1224 -17.8721 -15.0571 -12.9716 -15.0865 -12.6309 
-5.7225 -4.6825 -3.918 -1.934 -2.3615 -4.2645 -1.934 -3.524 -5.0345 
-6.353 -8.706501 -6.013 -3.539 -6.905001 -6.489 -5.012 -7.5915 
-9.417001 -10.543 -7.554 -8.222501 -8.784 -9.007501 -8.369 
-12.0249 -12.084 -12.5449 -10.0885 -11.4631 -12.6309 
-13.5659 -17.0749 -14.4109 -12.7848 -15.0865 
-1.934 -3.524 -5.0345 0 -5.7225 -4.39 -2.4945 -3.918 -1.934 -2.3615 -3.2795 
-5.012 -7.5915 -5.0345 -5.7225 -10.4345 -6.3665 -6.31 -6.013 -3.539 -4.9565 
-8.369 -7.5915 -9.7605 -10.4345 -12.411 -9.767 -7.509 -7.554 -5.923 
-8.369 -12.6699 -14.6367 -12.411 -15.8115 -10.4615 -8.666 -9.889 
-13.7748 -17.5461 -16.6132 -15.8115 -16.506 -11.6185 -10.647 
