-4.759 
n/a 
n/a 
n/a 
n/a 
-4.759 
n/a 
n/a 
n/a 
n/a 
-4.759 
n/a 
n/a 
n/a 
n/a 
-4.759 
n/a 
n/a 
n/a 
n/a 
-2.872 -8.046 -3.793 0 -1.756 -4.938 -3.9675 -4.3465 -5.6025 -1.8085 -5.707 -3.9675 -2.0935 -3.277 
-12.215 -10.276 -3.793 -1.756 -6.1295 -7.627501 -8.5205 -9.632501 -7.782001 -6.3 -10.001 -6.257 -4.694 
-14.445 -10.276 -4.9 -6.1295 -8.986501 -12.5697 -13.9355 -10.1095 -12.6177 -10.2585 -12.3555 -9.0535 
-14.445 -11.383 -9.709001 -8.986501 -13.9443 -17.9847 -14.4125 -15.1332 -16.5762 -12.613 -15.152 
-15.552 -16.192 -12.6508 -13.9443 -19.3593 -18.4617 -19.4362 -19.0917 -18.9307 -15.4095 
-3.5725 -3.8665 -3.793 0 -1.756 -4.938 -3.9675 -3.6845 -3.8655 -3.135 -4.043 -3.9675 -4.466 
-8.187 -5.877 -3.793 -1.756 -6.1295 -7.627501 -8.277 -8.119 -7.4195 -6.503 -6.966001 -9.908501 
-10.4373 -5.877 -4.9 -6.1295 -8.986501 -12.3262 -12.9535 -10.341 -11.1043 -10.4855 -13.6036 
-10.4373 -6.773 -9.709001 -8.986501 -13.7008 -17.0027 -15.1755 -14.0258 -15.0868 -17.1231 
-11.3333 -11.8752 -12.6508 -13.7008 -18.3773 -19.2247 -18.8603 -18.0083 -21.7244 
-2.872 -2.3615 -3.8665 -3.5855 0 -1.756 -4.938 -4.9225 -3.9675 -4.122 -3.776 -3.9675 -1.7565 -9.1525 0 
-4.6665 -6.4535 -6.0415 -3.5855 -1.756 -6.1295 -7.2045 -8.329 -7.9075 -7.839001 -7.6105 -5.258 -11.8582 -9.1525 
-8.785001 -9.091 -6.0415 -4.5585 -6.1295 -7.515 -10.733 -12.5534 -11.8293 -12.0965 -8.8365 -16.1297 -11.8582 
-11.4849 -9.091 -7.157001 -10.0995 -7.515 -11.3479 -14.9574 -16.4752 -16.0868 -13.3225 -19.968 -16.1297 
-11.4849 -10.6141 -12.9884 -11.6376 -11.3479 -15.5723 -18.8792 -20.7327 -17.3128 -24.454 -19.968 
-4.064 -1.7565 -2.3335 -3.8965 -4.1445 -1.756 -4.938 -3.9675 -3.152 -4.84 -1.934 -5.228 -1.7695 -3.8655 0 
-4.3045 -4.314 -6.584001 -7.1385 -5.402 -6.1295 -7.627501 -7.191 -6.734 -6.283 -7.387 -7.143 -5.6875 -3.8655 
-6.9475 -8.875501 -9.8695 -8.380501 -9.706 -8.986501 -11.2402 -10.513 -7.686501 -9.627001 -9.267 -11.515 -5.6875 
-11.9188 -12.4002 -11.2379 -12.8555 -13.958 -12.6148 -14.5622 -11.4655 -11.2225 -10.113 -13.7496 -11.515 
-15.4435 -13.7686 -15.7129 -17.1075 -17.5863 -15.9368 -15.5147 -15.0015 -11.7085 -14.5956 -13.7496 
