-4.759 
n/a 
n/a 
n/a 
n/a 
-4.759 
n/a 
n/a 
n/a 
n/a 
-4.759 
n/a 
n/a 
n/a 
n/a 
-4.759 
n/a 
n/a 
n/a 
n/a 
-3.851 -1.7695 -2.3615 0 -1.934 -7.572001 -3.127 -4.367 -4.2115 0 -3.135 -4.56 -2.186 -3.8535 -2.5045 -3.135 -3.5215 
-4.0015 -3.736 -2.3615 -1.934 -9.5465 -10.233 -7.0635 -8.807501 -4.2115 -3.135 -7.1435 -6.349501 -4.972 -5.6545 -4.9895 -6.2085 
-6.14 -3.736 -4.886 -9.5465 -12.8653 -14.4897 -12.0042 -8.807501 -7.186 -7.1435 -8.9645 -7.906501 -6.5485 -8.039001 -7.406 
-6.14 -6.646 -13.1393 -12.8653 -17.122 -19.4304 -12.0042 -12.7302 -11.9627 -8.9645 -10.8233 -9.045001 -9.295501 -10.6281 
-8.54 -15.1083 -16.4581 -17.122 -22.0627 -19.4304 -15.9269 -17.5069 -13.7837 -10.8233 -11.9618 -13.1192 -11.7134 
-3.0415 -2.925 -2.674 -4.164 -3.609 -1.756 -4.4715 -2.674 -3.2955 
-4.8045 -4.1785 -5.316 -8.808001 -5.1065 -6.2085 -7.339001 -5.19 
-6.304 -6.9325 -9.975 -9.7745 -9.684501 -8.68 -9.748501 
-9.164001 -11.8297 -11.0117 -14.7335 -12.258 -11.2813 
-14.3616 -12.8664 -15.9707 -17.307 -14.8593 
-3.1495 -3.4915 -2.645 -4.287 -1.7695 -4.96 -5.006 -1.756 -4.7715 -4.138 -1.7565 -3.819 -2.95 -3.669 -1.7695 -4.8395 0 
-7.436501 -4.402 -7.565001 -6.2385 -7.723001 -11.1416 -6.046 -6.2495 -10.0715 -5.1845 -6.5565 -7.6615 -6.9915 -4.958 -5.7285 -4.8395 
-8.5225 -9.642 -9.702001 -12.6164 -14.4188 -12.1816 -10.396 -11.6823 -11.118 -8.448 -10.5325 -12.0972 -8.5115 -8.809501 -5.7285 
-13.9477 -11.887 -16.2221 -19.3122 -15.4588 -16.5316 -15.8288 -12.7288 -14.3815 -13.4458 -14.9682 -13.6172 -12.7008 -8.809501 
-16.1927 -18.4071 -22.9179 -20.3522 -19.8088 -21.9644 -16.8753 -15.9923 -19.3793 -17.8815 -16.4882 -17.8065 -12.7008 
-3.4625 -2.871 -2.95 -4.676 -2.3335 -3.0415 
-6.339 -4.919 -6.219501 -9.3275 -5.4045 
-8.970501 -10.4035 -13.0638 -12.4019 
-14.6464 -17.2478 -16.1382 
-21.4907 -20.3222 
