-4.759 
n/a 
n/a 
n/a 
n/a 
-4.759 
n/a 
n/a 
n/a 
n/a 
-4.759 
n/a 
n/a 
n/a 
n/a 
-4.759 
n/a 
n/a 
n/a 
n/a 
-1.934 -5.891 -3.6885 -1.7695 -3.2955 -3.898 -3.3825 
-8.182501 -9.2045 -5.699 -6.642001 -8.4835 -6.525001 
-11.7686 -11.4166 -10.5975 -11.8888 -11.4201 
-13.9807 -16.3151 -15.8443 -14.8254 
-18.8792 -21.5619 -18.7809 
-2.7835 -1.8085 -3.301 -3.969 -2.186 -3.7555 -2.0935 -1.4985 -4.0455 -3.6885 -3.321 -5.1845 -6.844 -2.7765 -4.0545 -1.8085 -3.8485 0 
-4.329 -4.019 -6.463 -5.3805 -7.23 -6.4965 -2.9725 -5.086 -7.552501 -6.43 -9.453001 -6.9655 -9.998 -5.910501 -4.918 -4.325 -3.8485 
-7.253 -6.574 -8.0325 -10.259 -9.481001 -7.445 -6.622 -8.0835 -10.5325 -13.1078 -11.3324 -10.155 -13.3664 -6.752 -8.4325 -4.325 
-9.6645 -8.2185 -13.3126 -12.51 -10.5145 -11.3801 -10.0785 -11.3335 -17.2103 -14.9872 -14.5219 -13.5302 -14.2079 -9.777 -8.4325 
-10.1365 -13.6004 -15.5636 -13.5435 -14.4496 -14.8366 -13.3285 -18.0113 -19.0897 -18.1767 -17.8971 -14.3717 -17.2329 -9.777 
-5.891 -3.6885 -4.9565 -5.1845 -6.844 -2.742 -3.7725 -3.7905 -1.4985 -4.2925 -6.421 
-9.2045 -6.2345 -11.1174 -6.9655 -9.212501 -7.184 -8.751 -4.969 -5.2185 -9.016001 
-11.9521 -12.7544 -12.8984 -9.334001 -13.8487 -9.869501 -9.870001 -10.335 -10.647 
-18.472 -14.5354 -15.2669 -14.047 -16.5342 -11.0369 -15.3846 -15.9675 
-20.253 -16.9039 -19.9799 -16.7325 -17.7016 -16.5515 -21.0171 
-3.0365 -2.742 -2.489 -2.664 -4.053 -2.0935 -5.1845 -6.262 -2.7835 -3.0365 -2.186 -5.6955 -4.1285 -3.333 -1.7695 -3.277 
-4.668 -3.301 -4.563 -4.877 -4.977 -7.298 -8.6805 -9.578 -4.4665 -3.66 -7.394 -8.924001 -7.0775 -4.3805 -4.619 
-4.759501 -5.502501 -6.5535 -5.544 -10.286 -10.6095 -12.4377 -11.3728 -4.811501 -9.7565 -11.3793 -12.5262 -8.942 -6.077 
-6.069 -6.964 -6.9455 -10.45 -13.9215 -14.3667 -14.2325 -11.7178 -10.459 -13.8028 -14.9815 -14.3907 -10.2595 
-7.308001 -7.3295 -12.0089 -14.3857 -17.6787 -16.1615 -14.5775 -17.3653 -14.5053 -17.405 -16.846 -15.7082 
