-4.759 
n/a 
n/a 
n/a 
n/a 
-4.759 
n/a 
n/a 
n/a 
n/a 
-4.759 
n/a 
n/a 
n/a 
n/a 
-4.759 
n/a 
n/a 
n/a 
n/a 
-2.3335 -2.186 -2.0935 -2.743 -5.6025 -2.341 -2.4945 -5.5485 
-3.7085 -4.4495 -5.4875 -9.0635 -8.573001 -5.598001 -7.537 
-6.2135 -8.2145 -12.6964 -12.374 -11.9322 -10.494 
-10.103 -15.5714 -16.0069 -15.7332 -16.8282 
-17.5387 -18.8819 -19.3661 -20.6292 
-2.3335 -2.186 -3.9225 -2.743 -5.6025 -3.2495 -3.152 -5.5485 0 
-3.7085 -5.6745 -7.759 -9.0635 -9.114 -6.0765 -7.799001 -5.5485 
-7.411 -9.497001 -14.4209 -12.915 -12.134 -10.0375 -7.799001 
-11.4813 -16.5753 -18.2724 -15.935 -16.095 -10.0375 
-18.5596 -20.4268 -21.2924 -19.896 -16.095 
-4.347 -2.0935 -3.6055 -4.2405 -5.6025 -3.2495 -1.7565 -3.277 -2.4945 -4.2215 -1.934 -4.051 -3.59 -2.229 0 
-7.877 -4.7925 -6.8695 -9.005501 -9.114 -4.822 -4.25 -5.237 -5.9125 -4.885 -5.608 -5.9905 -4.966 -2.229 
-9.885 -8.205 -10.0855 -12.7332 -10.4045 -5.8315 -5.3725 -8.717001 -7.047 -8.6415 -7.921 -7.944 -4.966 
-13.2975 -11.5338 -14.0134 -14.0237 -11.4436 -6.937 -8.7845 -9.517 -10.3605 -9.836 -9.920001 -7.944 
-16.6263 -15.4617 -15.3039 -15.0628 -12.5491 -10.5146 -9.527 -12.8753 -11.6534 -11.835 -9.920001 
-2.645 -2.4285 -3.689 -3.9225 -2.743 -5.6025 -2.341 -4.269 -2.4945 -4.2215 -1.934 -2.9905 -3.7575 -4.39 0 
-5.1595 -4.762 -7.9555 -7.759 -9.0635 -8.573001 -6.041 -6.0385 -5.9125 -4.885 -5.5125 -6.573501 -9.724501 -4.39 
-5.283 -8.611501 -11.8588 -14.4209 -12.374 -12.3752 -8.728001 -8.863501 -7.047 -10.061 -8.8745 -12.8715 -9.724501 
-9.1885 -12.6492 -18.5207 -17.7314 -16.1762 -15.0622 -11.7014 -10.143 -12.887 -13.8104 -15.1831 -12.8715 
-13.5086 -19.3111 -21.8312 -21.5336 -18.8632 -18.0356 -12.9809 -16.0132 -16.6364 -20.119 -15.1831 
