-4.759 
n/a 
n/a 
n/a 
n/a 
-4.759 
n/a 
n/a 
n/a 
n/a 
-4.759 
n/a 
n/a 
n/a 
n/a 
-4.759 
n/a 
n/a 
n/a 
n/a 
-8.6 -2.7415 -1.4985 -3.098 -4.4725 -2.5045 -2.3335 -2.95 -2.0935 -1.8085 -4.684 -3.432 -6.097 -2.4265 -4.0935 -1.4985 -5.0485 -1.7565 -6.9085 0 
-10.382 -4.063 -4.3095 -8.091 -6.186 -4.744 -4.8245 -4.4955 -3.385 -5.922 -9.5415 -10.335 -8.837501 -5.351 -4.916 -5.8365 -5.5 -8.256001 -6.9085 
-10.4795 -6.474501 -9.374001 -9.0405 -8.472501 -5.158 -6.953 -5.5665 -7.975 -11.2509 -16.4713 -13.0755 -12.2474 -6.268001 -9.360001 -5.9865 -13.0339 -8.256001 
-13.626 -12.2538 -10.3847 -13.5136 -9.3435 -7.242001 -8.0845 -10.6735 -13.4927 -18.1807 -19.2118 -16.4854 -13.1644 -10.3345 -9.538501 -13.705 -13.0339 
-19.4053 -13.2645 -14.8578 -14.3846 -11.5439 -8.3675 -13.3335 -16.1912 -20.4225 -20.9212 -22.6217 -17.4024 -17.2309 -10.6705 -17.3656 -13.705 
-5.442 -3.013 -2.3615 -3.432 -6.5925 -1.7565 -4.4695 -3.432 -2.3615 -3.9005 -6.9085 -3.9005 
-8.785001 -7.4125 -6.7915 -10.4035 -9.834001 -6.127 -8.690001 -6.204 -6.328 -9.876501 -10.985 
-13.4621 -9.625001 -14.6028 -13.645 -14.1529 -10.9413 -12.1134 -10.8481 -12.8758 -14.0008 
-15.6746 -19.0939 -17.8443 -17.9639 -18.9672 -14.3647 -16.7575 -17.3959 -17.0001 
-25.1435 -22.3354 -22.1632 -22.7782 -22.3906 -19.0088 -23.3053 -21.5202 
-8.6 -2.186 -1.4985 -4.4695 -3.16 -3.8925 -2.5045 -2.3335 -2.95 0 -2.3615 -4.1675 -3.115 -6.9085 0 
-10.634 -3.339 -5.252501 -7.928 -4.8765 -6.807 -4.744 -4.8245 -2.95 -2.3615 -5.922 -4.664 -9.009501 -6.9085 
-11.787 -6.966 -8.786501 -9.5485 -7.4935 -8.911501 -5.158 -4.8245 -5.1805 -5.922 -6.2935 -11.0795 -9.009501 
-15.414 -10.5855 -10.031 -12.3389 -9.8015 -9.548 -5.158 -7.017 -8.764 -6.2935 -13.2242 -11.0795 
-19.0335 -11.83 -13.0278 -14.6469 -10.6915 -9.548 -7.2565 -10.7679 -9.1125 -13.2242 -13.2242 
-8.6 -2.186 -2.871 -1.7565 -1.4985 -3.6975 -3.16 -3.8925 0 -3.402 -2.264 -6.9085 0 
-10.634 -4.247 -3.5385 -2.4195 -5.259501 -6.509 -4.8765 -3.8925 -3.402 -3.793 -8.811001 -6.9085 
-12.695 -4.411 -3.7675 -5.9315 -7.624001 -7.9675 -4.8765 -6.1365 -3.793 -9.718 -8.811001 
-12.859 -4.5655 -7.1895 -8.132 -8.771501 -7.9675 -7.29 -7.4845 -9.718 -9.718 
-13.0135 -7.8495 -9.524 -9.109 -8.771501 -10.6562 -7.957 -14.2697 -9.718 
