-4.759 
n/a 
n/a 
n/a 
n/a 
-4.759 
n/a 
n/a 
n/a 
n/a 
-4.759 
n/a 
n/a 
n/a 
n/a 
-4.759 
n/a 
n/a 
n/a 
n/a 
-3.2615 -3.8255 -1.4985 -4.082 -2.5195 -4.1985 -3.35 -1.756 -9.137501 -3.5035 -3.5865 0 -3.986 -4.254 -2.5045 -3.288 -5.028 -1.934 -3.502 -3.355 -1.7565 -3.9975 -1.756 -3.3785 -4.058 -4.511 -3.436 -4.4275 -3.222 -3.97 0 
-5.910501 -4.982 -5.1755 -5.5795 -6.2915 -5.4065 -5.1005 -11.9021 -12.9916 -7.0175 -3.5865 -3.986 -7.823501 -5.522 -6.316 -6.609 -7.033501 -4.8155 -7.241 -3.725 -5.1415 -5.7065 -5.0435 -6.335 -8.192 -7.386001 -8.5535 -5.144 -6.769 -3.97 
-6.8455 -8.4615 -8.2825 -7.613 -6.6435 -6.6975 -16.1558 -15.7562 -16.5056 -7.0175 -8.181 -7.823501 -8.689501 -9.085501 -8.778501 -7.71 -9.193001 -8.940001 -7.415 -7.877501 -6.546 -9.748501 -7.89 -10.2695 -10.647 -13.1681 -9.384001 -9.034 -6.769 
-9.7075 -10.4105 -10.4966 -7.7605 -7.4695 -18.2522 -20.0099 -19.2702 -16.5056 -12.2022 -12.3353 -8.689501 -13.2012 -10.1815 -9.872001 -9.718 -13.8877 -9.005001 -10.411 -9.2285 -10.5225 -12.6694 -12.9137 -13.1871 -16.4291 -13.9986 -13.4086 -9.034 
-11.7397 -12.7592 -10.6441 -8.496 -19.5736 -22.1063 -23.5239 -19.2702 -21.6903 -16.3565 -13.2013 -13.2012 -14.2972 -11.275 -11.9076 -14.9319 -13.9527 -11.8708 -11.762 -13.384 -13.4434 -17.6931 -15.8313 -18.9692 -17.2596 -18.0232 -13.4086 
-3.986 -3.0465 -4.4145 -2.5195 -4.685 -3.35 0 -2.9805 -4.254 -2.5045 -1.8085 -4.897 
-6.7825 -8.156 -6.6335 -6.79 -7.956501 -3.35 -2.9805 -5.5985 -5.522 -3.3625 -7.999001 
-13.0378 -9.126501 -11.3536 -9.179001 -7.956501 -5.975 -5.5985 -6.3975 -5.7455 -9.2155 
-14.0083 -14.0904 -13.7426 -9.179001 -9.953501 -7.852 -6.3975 -6.568501 -12.4833 
-18.9722 -16.4794 -13.7426 -10.718 -11.9271 -8.404 -6.568501 -13.5641 
-3.436 -4.7695 -3.97 0 -3.986 0 -3.0695 -3.7555 -4.4705 -2.5195 -4.1985 -3.35 -1.756 -4.7105 -3.35 0 -4.254 -2.5045 -2.664 -3.288 -5.028 -1.756 -3.5035 -4.897 -1.934 -4.1225 -3.9975 0 
-5.9875 -8.5395 -3.97 -3.986 -3.986 -3.0695 -5.774 -8.6925 -6.09 -6.2915 -5.4065 -5.1005 -6.405 -5.443501 -3.35 -4.254 -5.522 -4.074 -7.5565 -6.609 -6.535 -5.3985 -8.175 -6.7685 -5.261 -8.522001 -3.9975 
-9.6385 -8.5395 -6.8275 -3.986 -6.513 -5.774 -9.6555 -9.58 -8.2405 -6.6435 -6.6975 -7.7015 -7.147 -5.443501 -7.913 -5.522 -6.372 -9.4145 -9.9805 -7.6515 -9.854501 -10.7226 -10.2135 -10.3545 -9.795501 -8.522001 
-9.6385 -11.81 -6.8275 -6.513 -8.9575 -9.6555 -10.545 -11.6991 -8.3865 -7.4695 -8.4825 -8.195001 -7.147 -9.5775 -8.7775 -6.372 -12.7177 -10.376 -11.0978 -9.9505 -16.002 -12.7611 -13.7995 -14.889 -9.795501 
-12.9974 -11.81 -10.389 -8.9575 -13.1122 -10.545 -12.6641 -11.8451 -8.9015 -9.352 -9.33 -8.195001 -10.442 -10.3695 -9.443501 -12.7177 -13.6792 -11.6385 -13.3968 -16.6588 -18.0405 -16.3471 -18.334 -14.889 
-3.986 -3.2615 -4.2225 -3.091 -4.4705 -2.5195 -4.1985 -3.35 -1.756 -4.5105 -3.35 -3.284 -1.7565 -3.5035 0 -2.9805 -4.254 -2.5045 -2.5045 -1.8085 -3.288 -3.777 -1.934 -3.502 -3.7575 -1.7565 -3.9975 -1.756 -3.074 -4.254 -2.5045 -2.664 -4.058 -3.2895 -4.289 0 
-7.223001 -7.606 -6.128 -7.788 -6.09 -6.2915 -5.4065 -5.1005 -6.315 -6.2795 -5.327 -4.302 -4.6725 -3.5035 -2.9805 -5.5985 -5.522 -6.124001 -3.3625 -4.9025 -6.2895 -5.6955 -4.8155 -5.712 -4.4575 -5.1415 -5.7065 -4.566 -5.9305 -5.522 -4.074 -8.6035 -4.5845 -7.162001 -4.289 
-12.1845 -9.951 -9.677501 -8.605 -8.2405 -6.6435 -6.6975 -8.5375 -8.095 -7.507501 -5.3485 -5.3305 -4.6725 -6.269 -5.5985 -6.3975 -9.2655 -7.1635 -6.0765 -7.613501 -8.679001 -8.704 -8.064 -6.145 -7.09 -6.546 -8.4265 -7.3075 -6.722 -6.372 -9.838 -9.7845 -7.424 -7.162001 
-14.5295 -13.5005 -10.9313 -10.5225 -8.3865 -7.4695 -9.795 -8.786 -9.2955 -7.5115 -5.779 -5.3305 -7.078001 -8.735001 -6.3975 -10.248 -9.639501 -10.1765 -8.3915 -9.357 -11.8393 -12.1767 -9.2775 -7.2985 -8.083501 -9.175 -10.0575 -7.9635 -7.502501 -13.1412 -11.1872 -12.624 -7.424 
-18.079 -14.7543 -12.8488 -10.6685 -8.9015 -11.1164 -10.331 -10.0715 -9.2965 -7.655001 -5.779 -7.458 -9.264001 -9.2355 -10.248 -10.758 -12.8429 -12.4915 -10.1765 -12.6609 -15.312 -13.3902 -10.1115 -8.306001 -10.7495 -10.8974 -10.9645 -8.505501 -14.4733 -14.4904 -14.0267 -12.624 
