-4.759 
n/a 
n/a 
n/a 
n/a 
-4.759 
n/a 
n/a 
n/a 
n/a 
-4.759 
n/a 
n/a 
n/a 
n/a 
-4.759 
n/a 
n/a 
n/a 
n/a 
-3.836 -1.756 -3.635 -2.4945 -4.3905 -4.126 -3.8175 -3.1385 -3.922 -3.3435 -3.7095 -2.6615 0 -3.1385 -3.7555 -3.4635 -3.635 -6.818 0 -6.321 -4.126 -2.4945 -3.898 -3.59 -3.6135 -7.6365 -2.8965 -2.1715 0 -3.5085 -3.635 -6.144 0 -3.7555 -2.3615 -3.1385 0 -4.506 0 0 -4.506 0 
-5.157001 -5.3875 -6.375501 -6.0415 -8.985001 -8.132501 -8.1215 -7.6955 -7.679501 -7.43 -7.029 -2.6615 -3.1385 -6.461 -9.396 -6.490001 -10.2195 -6.04 -6.186 -9.3625 -6.8465 -7.614 -8.344501 -7.519 -12.5794 -11.134 -5.7945 -2.1715 -3.5085 -6.983 -9.957001 -5.6255 -3.7555 -5.523 -6.399 -3.1385 -4.506 -4.506 0 -4.506 -4.506 
-7.472 -7.587 -9.8675 -11.243 -13.1977 -12.9513 -12.9869 -11.7122 -12.6144 -11.3577 -7.029 -5.873 -6.461 -12.4163 -12.4703 -13.5958 -9.892 -14.1662 -10.396 -12.416 -12.1018 -12.4547 -12.5269 -17.0205 -16.0769 -14.032 -5.7945 -5.2395 -6.983 -14.2338 -10.016 -10.8365 -5.523 -10.1855 -6.399 -8.436001 -4.506 -4.506 -4.506 -4.506 
-9.539001 -10.717 -15.1574 -15.4557 -18.0165 -17.8167 -17.0036 -16.6471 -16.5421 -11.3577 -10.5579 -9.333501 -12.4163 -15.4906 -19.5761 -13.5958 -18.1638 -18.3762 -12.416 -17.7903 -16.9425 -16.6371 -22.0284 -20.518 -18.9749 -14.032 -8.183001 -9.064 -14.2338 -14.2338 -15.227 -12.5545 -10.1855 -10.1855 -12.1667 -8.436001 -4.506 -6.27 -4.506 
-12.8094 -16.0069 -19.3701 -20.2745 -22.8819 -21.8334 -21.9385 -20.5748 -16.5421 -14.8866 -14.0184 -15.382 -15.4906 -22.5964 -19.5761 -21.8676 -22.3738 -20.3962 -17.7903 -22.631 -21.1249 -26.1386 -25.5259 -23.416 -18.9749 -16.4205 -12.3277 -16.4958 -14.2338 -19.4448 -16.945 -17.6718 -10.1855 -15.9532 -12.1667 -8.436001 -6.27 -6.27 
-3.115 -4.275 0 -4.256 -3.152 -3.074 -3.962 -6.8675 -2.5045 -3.3715 -4.088 -3.9225 -4.357 0 -2.6615 0 -1.7565 -3.45 -3.0695 -3.152 -6.728001 -5.2705 -2.0935 -6.745 0 -1.7565 -1.4985 -3.5085 -4.256 -2.3615 -2.186 -1.4985 -3.6115 -4.4665 -3.981 -2.0935 -1.8085 -4.09 -4.1265 -1.4985 -7.0155 -2.1715 0 -3.251 -3.9225 -3.277 0 -6.144 0 -1.7565 -1.4985 -3.5085 -4.256 
-8.054501 -4.275 -4.256 -6.554 -5.0635 -5.9985 -11.9281 -8.1335 -5.9095 -5.932 -7.821001 -6.3895 -4.357 -2.6615 -2.6615 -1.7565 -4.322 -4.273 -4.8015 -8.927501 -12.7925 -5.301 -8.752001 -5.942 -1.7565 -2.4195 -4.4755 -5.619 -6.6905 -3.5005 -3.339 -4.081 -6.555501 -9.159 -6.243 -3.385 -6.662001 -7.3795 -5.799 -7.5195 -9.910501 -2.1715 -3.251 -7.557 -5.4525 -3.277 -5.6255 -5.6255 -1.7565 -2.4195 -4.4755 -5.619 
-8.054501 -8.0255 -6.554 -8.693501 -7.3095 -14.2916 -13.1941 -12.0311 -7.4775 -9.3505 -10.6562 -6.3895 -6.932 -2.6615 -4.7915 -4.322 -5.289 -5.832 -9.882 -15.3077 -13.4412 -10.5215 -9.196001 -8.451 -2.4195 -5.126 -7.0955 -8.247 -7.5845 -4.3105 -5.563 -6.8335 -11.9144 -10.718 -7.6155 -8.2605 -7.928 -8.851001 -12.439 -10.91 -10.264 -6.541501 -7.557 -8.7395 -5.4525 -9.7925 -5.6255 -8.0635 -2.4195 -5.126 -7.0955 
-12.1512 -10.8099 -8.693501 -11.1357 -16.1844 -15.5576 -17.0917 -13.5991 -11.0756 -12.3753 -10.6562 -9.6295 -6.932 -4.7915 -7.166 -5.289 -6.687 -10.278 -16.6902 -15.7132 -17.8582 -9.718 -9.802001 -8.952001 -5.126 -7.482 -10.0035 -9.213 -8.357 -6.061 -7.572001 -12.2348 -13.4734 -12.0905 -10.7495 -9.2185 -9.302 -15.6896 -15.8623 -10.757 -13.7895 -10.8965 -8.7395 -8.7395 -11.507 -9.7925 -8.0635 -8.5495 -5.126 -7.482 
-14.9356 -12.9494 -11.1357 -20.0106 -17.4504 -19.4552 -18.6597 -17.1972 -14.1004 -12.3753 -13.8962 -9.6295 -9.649 -7.166 -8.203 -6.687 -10.6375 -17.138 -16.7195 -20.1302 -17.8582 -10.056 -10.2905 -9.981 -7.482 -10.213 -10.5685 -9.7635 -9.932501 -8.903501 -13.1955 -13.7938 -14.8459 -15.2245 -11.7075 -10.675 -16.163 -18.9971 -15.8623 -14.2825 -18.1769 -12.079 -8.7395 -14.9948 -11.507 -12.3917 -8.5495 -9.687 -7.482 
-3.115 -1.4985 -3.836 -1.4985 -3.635 -3.074 -4.535 -2.6615 0 -1.7565 -1.4985 -3.8175 -3.1385 -2.674 -6.745 0 -3.545 -3.635 -1.7565 -1.4985 -3.59 0 
-4.2305 -5.304 -5.9305 -4.5375 -6.435 -8.0755 -8.851 -2.6615 -1.7565 -2.4195 -4.741 -8.1215 -4.8995 -10.029 -5.942 -3.545 -7.044 -4.736 -2.4195 -4.268 -3.59 
-8.434001 -7.7145 -8.529501 -7.2375 -11.8165 -11.6265 -8.637501 -4.7915 -2.4195 -5.376501 -8.7115 -10.2535 -13.2771 -10.523 -10.9473 -7.044 -9.399 -5.435 -5.009 -4.268 
-11.2315 -9.6575 -11.8775 -12.6273 -15.4454 -11.7171 -10.159 -5.5265 -5.376501 -9.185 -11.0221 -18.6311 -13.2771 -15.5283 -15.0205 -9.399 -9.897 -8.753 -5.009 
-13.1745 -13.1539 -17.3353 -16.1434 -15.4454 -13.2386 -12.0142 -8.841001 -9.185 -11.5964 -19.3997 -18.6311 -18.2824 -19.6015 -17.3755 -9.897 -13.215 -8.753 
-4.275 -1.756 -3.7875 -2.645 -3.1575 -3.0365 -6.7835 -3.7515 -3.0465 -2.6615 0 -3.4185 -3.59 -3.545 -3.7875 -6.745 0 -1.934 -3.0465 -1.934 -2.4265 -2.186 -1.8085 -4.248 -3.59 -3.6115 -3.6135 -3.59 -3.299 -2.998 -1.7695 -3.5085 -3.7875 -6.144 0 -3.0465 -1.934 0 
-5.5265 -5.223001 -6.073 -3.72 -6.203501 -10.7495 -10.9762 -7.58 -5.9565 -2.6615 -3.4185 -6.8275 -6.061501 -7.2995 -11.1635 -5.942 -1.934 -5.845 -4.8825 -4.6645 -3.292 -3.164 -6.412001 -8.696501 -7.5935 -7.192 -6.519 -7.224 -6.62 -5.3405 -5.8325 -8.675 -10.607 -5.6255 -3.0465 -4.8825 -1.934 
-9.5505 -7.434 -6.6365 -7.561501 -14.7061 -14.9422 -14.8047 -10.8982 -5.9565 -6.556001 -6.8275 -9.7882 -9.943001 -15.0429 -11.3015 -8.6805 -5.845 -7.9075 -7.377 -6.2365 -4.4005 -7.694 -9.974501 -12.9618 -11.6762 -10.5043 -9.956 -11.272 -9.111501 -9.380501 -11.338 -15.8345 -10.9524 -10.19 -4.8825 -4.8825 
-11.8627 -8.2445 -11.2158 -15.9157 -18.8988 -18.7707 -18.1229 -10.8982 -10.9402 -10.411 -9.7882 -13.6697 -17.8614 -15.0429 -14.04 -13.1456 -7.9075 -10.66 -8.599001 -7.2635 -8.5225 -10.5975 -14.2398 -17.0445 -14.9885 -13.9413 -14.2032 -13.7635 -13.4873 -14.9674 -18.4975 -15.8345 -15.5169 -12.4378 -4.8825 
-12.6732 -12.8832 -19.57 -20.1084 -22.7273 -22.0889 -18.1229 -15.8819 -14.7952 -13.3717 -13.6697 -21.5881 -17.8614 -17.7814 -18.5051 -16.0551 -10.66 -11.882 -9.333501 -11.5351 -11.7038 -14.8628 -18.3225 -20.3568 -18.4255 -18.1885 -16.6947 -18.1393 -19.0742 -22.1269 -18.4975 -20.399 -17.7647 -12.4378 
