-4.759 
n/a 
n/a 
n/a 
n/a 
-4.759 
n/a 
n/a 
n/a 
n/a 
-4.759 
n/a 
n/a 
n/a 
n/a 
-4.759 
n/a 
n/a 
n/a 
n/a 
-4.9505 -4.313 -3.9615 0 -3.06 -4.4345 -1.7565 -5.725 0 -4.1105 -4.5605 -3.074 -4.0225 -3.9875 -1.7695 -4.149 -1.4985 -6.041 -4.5605 0 
-9.549 -8.330501 -3.9615 -3.06 -7.4735 -4.719 -7.022 -5.725 -4.1105 -8.7845 -7.8425 -6.8575 -7.88 -6.3155 -4.925 -5.27 -7.4405 -11.3923 -4.5605 
-13.7635 -8.330501 -7.363 -7.4735 -7.863501 -10.8181 -7.022 -10.254 -8.7845 -12.6915 -11.8852 -11.5292 -9.2015 -8.941 -5.6955 -11.9396 -13.1844 -11.3923 
-13.7635 -12.3296 -12.4929 -7.863501 -14.3366 -10.8181 -11.8348 -15.6088 -12.6915 -16.7342 -16.5569 -12.8507 -11.8664 -10.2335 -12.6257 -17.6835 -13.1844 
-17.7626 -17.4595 -12.8829 -14.3366 -14.3366 -15.6309 -17.1896 -19.5158 -16.7342 -21.4059 -17.8784 -15.5156 -13.1589 -17.1637 -18.3696 -17.6835 
-2.5045 -1.4985 -4.9505 -4.126 0 -3.711 -5.0295 -2.674 -4.4905 -2.356 -4.1285 -5.1035 
-3.1915 -6.153501 -10.1345 -4.126 -3.711 -8.012501 -8.469 -6.452 -6.6155 -6.54 -8.786 
-8.4795 -12.3443 -10.1345 -8.568001 -8.012501 -11.8026 -12.462 -9.328501 -11.2757 -11.7327 
-14.8905 -12.3443 -14.5765 -13.0449 -11.8026 -15.7956 -15.3385 -14.4629 -16.4684 
-14.8905 -16.7863 -19.0534 -16.835 -15.7956 -18.6721 -20.4729 -19.6556 
-3.034 -4.0225 -1.7695 -5.532 -3.1715 -3.06 0 -2.7415 -4.9995 0 -1.4985 -4.1285 -5.468 -5.188 -4.9375 -1.4985 -4.1455 -5.0295 -1.756 -5.651 -3.9875 0 
-6.8215 -4.9235 -6.881501 -9.7575 -7.018001 -3.06 -2.7415 -7.539001 -4.9995 -1.4985 -5.464 -8.4635 -8.257501 -10.985 -6.3255 -5.503 -7.261001 -6.613 -7.016 -8.716001 -3.9875 
-7.4155 -9.6115 -11.5942 -13.7118 -7.018001 -6.845 -7.539001 -7.539001 -7.1455 -5.464 -9.495501 -11.6638 -14.3777 -12.373 -10.733 -8.246501 -9.217501 -10.243 -10.4675 -8.716001 
-12.4089 -14.4504 -15.5485 -13.7118 -11.2178 -11.8617 -7.539001 -9.1575 -11.4834 -9.495501 -12.9838 -17.784 -15.7657 -16.7805 -13.4765 -9.505501 -12.9445 -13.8233 -10.4675 
-17.2478 -18.4047 -15.5485 -17.9116 -16.2345 -11.8617 -9.1575 -13.6276 -15.5149 -12.9838 -19.104 -19.172 -20.1732 -19.524 -14.7355 -13.2995 -16.5248 -13.8233 
-4.6785 -3.9335 -1.7695 -3.8315 -3.826 -4.126 0 -12.16972 -3.06 0 -6.0315 0 -1.756 -3.3725 -1.7565 -4.1285 -6.5385 -5.9455 -1.934 -3.0415 0 -2.4265 -5.1335 -1.7695 -3.3725 -1.7565 -4.1455 
-9.496 -5.9455 -6.101501 -8.562 -6.2925 -4.126 -12.16972 -15.22972 -3.06 -6.0315 -6.0315 -1.756 -5.528 -5.226501 -5.772501 -11.57 -13.5238 -7.5185 -5.3345 -3.0415 -2.4265 -7.88 -6.311 -4.7155 -5.226501 -5.837501 
-11.782 -11.1623 -11.3712 -11.6341 -6.2925 -17.22532 -15.22972 -15.22972 -9.277 -6.0315 -7.056 -5.528 -7.743 -9.205 -13.8382 -18.5553 -15.0968 -9.816001 -5.3345 -4.551 -7.88 -8.977 -10.0108 -8.543 -9.0905 
-16.9988 -16.432 -14.4433 -11.6341 -20.03282 -20.28532 -15.22972 -21.44672 -9.277 -7.056 -11.3868 -7.743 -11.9667 -17.4411 -20.8235 -20.1283 -17.3943 -9.816001 -7.257 -11.3905 -8.977 -12.9078 -13.8383 -12.6494 
-22.2685 -19.5041 -14.4433 -25.37442 -23.09282 -20.28532 -21.44672 -21.44672 -10.6297 -11.3868 -13.6018 -11.9667 -20.2028 -24.4264 -22.3965 -22.4258 -17.3943 -11.9513 -14.2205 -12.4875 -12.9078 -16.7353 -17.9447 
