-4.759 
n/a 
n/a 
n/a 
n/a 
-4.759 
n/a 
n/a 
n/a 
n/a 
-4.759 
n/a 
n/a 
n/a 
n/a 
-4.759 
n/a 
n/a 
n/a 
n/a 
-6.920001 -2.186 -3.301 -10.0795 0 -2.872 -3.0835 -2.95 -2.9805 -4.567 -4.3285 -6.6575 -5.547 -3.7075 
-9.146501 -4.8405 -14.5511 -10.0795 -2.872 -5.8745 -4.3945 -5.2005 -7.2435 -10.4855 -10.841 -12.9503 -10.634 
-11.9176 -16.5716 -14.5511 -13.2491 -5.8745 -7.962501 -6.422501 -9.834001 -13.3958 -16.998 -17.1338 -18.0373 
-23.6487 -16.5716 -17.7207 -16.2516 -7.962501 -10.7175 -11.3684 -16.0333 -19.9083 -23.2908 -22.2208 
-23.6487 -19.7412 -20.7232 -18.3396 -10.7175 -15.6634 -17.5677 -22.5458 -26.2011 -28.3778 
-4.819 -9.299001 -2.229 -4.525 -4.0335 -3.5745 -2.6165 -4.2675 -9.8575 -2.229 -3.998 -2.264 -3.8905 
-15.1026 -12.0294 -6.2765 -8.2185 -7.5485 -4.114 -5.4155 -15.2818 -12.4181 -6.3935 -6.3835 -6.1735 
-17.833 -16.0769 -10.354 -12.0301 -8.172 -6.762 -16.9472 -17.8424 -16.5826 -8.1245 -9.5465 
-21.8805 -20.1544 -14.1656 -12.6536 -10.621 -18.6039 -19.5078 -22.0069 -18.3136 -10.5975 
-25.958 -23.966 -14.7891 -15.1026 -22.4629 -21.1645 -23.6723 -23.7379 -20.7866 
-2.5045 -6.920001 -2.7415 -2.664 -4.7175 -3.6385 -3.0695 -3.423 -4.2675 -4.011 -3.098 -2.356 -1.8085 -4.4265 -4.5255 0 -4.819 0 -2.9805 -3.423 -2.6165 -4.2675 -1.4985 -5.5495 -1.7565 -6.6575 0 
-9.473001 -8.799001 -4.6625 -5.8645 -7.1415 -4.965 -5.397 -6.958 -7.021501 -7.512 -5.295 -3.4075 -5.3885 -8.5165 -4.5255 -4.819 -4.819 -2.9805 -4.896501 -4.4935 -5.4155 -5.025001 -6.370501 -6.205 -8.2005 -6.6575 
-11.4684 -10.404 -7.758501 -7.5775 -8.0895 -6.995 -8.848001 -9.821501 -10.76 -9.2075 -6.4385 -6.8035 -9.6675 -8.5165 -9.3435 -4.819 -7.231501 -4.896501 -5.744 -7.1625 -6.2635 -9.790001 -6.592 -13.399 -8.2005 
-13.0734 -13.5 -8.702001 -8.5625 -9.9375 -10.1945 -11.9245 -13.653 -12.4555 -11.1838 -9.382 -11.2665 -9.6675 -13.7613 -9.3435 -7.231501 -9.444 -5.744 -8.0815 -7.777 -11.2219 -10.0215 -13.9632 -13.399 
-16.1694 -14.4435 -9.449501 -10.3095 -13.137 -13.383 -15.756 -15.3485 -14.4318 -14.1273 -13.9006 -11.2665 -15.0319 -13.7613 -11.999 -9.444 -9.813001 -8.0815 -8.541 -12.9072 -11.4534 -17.3963 -13.9632 
-7.3825 -2.9805 -3.5745 -2.6165 -1.4985 -4.2675 -1.4985 -6.6575 -3.989 -2.7455 -1.4985 -3.8905 -2.5045 -6.920001 -2.186 -7.4485 -4.2675 -3.992 -1.934 -4.2665 -3.3755 0 
-9.9205 -4.8665 -4.114 -4.2225 -6.175 -5.025001 -8.014501 -11.3923 -5.727 -3.637 -5.518001 -5.968 -9.473001 -9.146501 -9.357 -12.374 -7.636001 -5.345 -6.0245 -7.349 -3.3755 
-11.8677 -5.333 -6.8035 -9.658 -8.672501 -12.355 -13.8489 -13.1303 -6.5685 -7.7005 -8.2305 -13.6681 -11.8159 -16.4341 -14.4189 -15.7425 -9.063001 -10.1765 -9.4215 -7.349 
-12.3342 -8.1295 -12.3476 -10.7515 -16.0947 -18.1894 -15.5869 -13.9718 -10.31 -10.5425 -16.011 -16.011 -19.1035 -21.496 -17.7874 -17.1695 -14.2369 -13.6961 -9.4215 
-15.1307 -13.7926 -13.4411 -18.1737 -21.9291 -19.9274 -16.4284 -17.7133 -13.3618 -18.323 -18.3539 -23.2986 -24.1654 -24.8645 -19.2144 -22.3434 -17.7565 -13.6961 
