-4.759 
n/a 
n/a 
n/a 
n/a 
-4.759 
n/a 
n/a 
n/a 
n/a 
-4.759 
n/a 
n/a 
n/a 
n/a 
-4.759 
n/a 
n/a 
n/a 
n/a 
-4.5735 -4.245 -4.6805 -1.7565 -6.078 -5.029 -2.3335 -2.8645 -3.1125 -3.881 -2.3345 -5.0665 -5.3255 0 
-7.5575 -8.469 -4.722 -8.808001 -11.7122 -6.8555 -4.3785 -3.5345 -5.7445 -4.5275 -8.7065 -10.7495 -5.3255 
-12.1741 -8.583 -12.4245 -14.7074 -13.5387 -8.4355 -4.9985 -6.1475 -6.6435 -11.6665 -14.6943 -10.7495 
-12.2881 -16.2803 -18.3239 -16.5339 -15.1187 -9.138 -7.4225 -7.1825 -14.3063 -17.6543 -14.6943 
-19.9854 -22.1797 -20.1504 -18.1139 -15.8212 -10.661 -8.503 -14.9049 -20.2941 -17.6543 
-3.5905 -5.1845 -4.245 -2.674 -6.078 -4.1455 -4.0385 -2.3345 -5.0665 -3.6285 -2.229 
-8.0375 -7.991 -7.210001 -10.4345 -10.8287 -8.805 -7.0165 -8.7065 -9.212501 -4.901 
-10.2045 -10.586 -15.4371 -15.1852 -15.4882 -10.168 -13.9201 -13.1573 -10.0105 
-12.7995 -19.3405 -20.1878 -19.8447 -16.8512 -17.0716 -18.3709 -13.9553 
-21.554 -24.0912 -24.8473 -21.2077 -23.7548 -21.5224 -19.1689 
-10.6845 -4.245 -2.7415 -3.881 -2.3345 -5.0665 -4.073 0 
-13.265 -6.901 -5.344501 -4.5275 -8.7065 -9.555 -4.073 
-13.3435 -8.6835 -5.7685 -11.6665 -13.4998 -9.555 
-15.126 -9.436501 -13.5397 -16.4598 -13.4998 
-15.879 -17.3603 -18.333 -16.4598 
-8.360001 -1.7565 -6.933001 0 -4.3185 -6.078 -4.1455 -3.881 -2.3345 -5.0665 -5.3255 0 
-9.918501 -8.681001 -6.933001 -4.3185 -11.5143 -10.8287 -6.771501 -4.5275 -8.7065 -10.7495 -5.3255 
-17.4016 -8.681001 -11.8671 -11.5143 -16.265 -13.4547 -7.01 -11.6665 -14.6943 -10.7495 
-17.4016 -13.8521 -19.0629 -16.265 -18.891 -13.6932 -14.6054 -17.6543 -14.6943 
-22.5727 -21.0479 -23.8136 -18.891 -19.1295 -21.2886 -20.5932 -17.6543 
