-4.759 
n/a 
n/a 
n/a 
n/a 
-4.759 
n/a 
n/a 
n/a 
n/a 
-4.759 
n/a 
n/a 
n/a 
n/a 
-4.759 
n/a 
n/a 
n/a 
n/a 
0 -7.5605 -3.5435 -2.186 -1.8085 -4.4185 -1.7695 -2.8965 -3.468 0 
-7.5605 -10.703 -5.2365 -3.164 -6.6695 -5.743501 -4.497 -5.387 -3.468 
-10.703 -12.396 -6.755 -8.068001 -8.285 -7.994501 -6.679 -5.387 
-12.396 -13.9145 -12.1806 -9.631001 -10.775 -9.819501 -6.679 
-13.9145 -19.3401 -13.7436 -12.4196 -12.6 -9.819501 
0 -8.445001 -3.5435 -3.301 -3.3755 -1.7695 -2.8965 -3.468 0 
-8.445001 -10.718 -7.676001 -5.5935 -3.992 -4.497 -5.387 -3.468 
-10.718 -14.8505 -9.892 -5.7815 -7.547501 -6.679 -5.387 
-14.8505 -17.0665 -11.4726 -10.1418 -9.682 -6.679 
-17.0665 -18.6471 -15.8329 -12.2763 -9.682 
-8.445001 -2.5045 -1.8085 -4.2245 -2.0935 -2.8965 -3.468 0 
-11.6813 -3.3625 -5.274 -6.008 -4.726501 -5.387 -3.468 
-12.5393 -5.9975 -7.1785 -8.974501 -6.991 -5.387 
-15.1743 -7.733001 -9.611 -11.3974 -6.991 
-16.9098 -10.078 -12.0339 -11.3974 
-10.7545 -3.5435 -2.186 -3.668 -1.7695 -2.8965 -3.1715 
-14.527 -5.2365 -7.023001 -5.4925 -4.497 -5.64 
-16.22 -10.9105 -8.936501 -7.659 -7.2815 
-21.894 -12.824 -11.6668 -10.494 
-23.8075 -15.5543 -14.5018 
