-4.759 
n/a 
n/a 
n/a 
n/a 
-4.759 
n/a 
n/a 
n/a 
n/a 
-4.759 
n/a 
n/a 
n/a 
n/a 
-4.759 
n/a 
n/a 
n/a 
n/a 
-1.4985 -4.6165 -4.6385 -4.732 -5.011 -3.8755 -1.4985 -4.1995 -4.0375 -1.756 -4.164 -1.4985 -3.4975 -3.9675 0 
-5.7985 -8.725 -9.956501 -9.428501 -9.384001 -5.275 -5.049 -7.58 -5.5295 -5.9325 -5.1675 -4.3125 -5.8 -3.9675 
-9.342001 -14.4386 -14.653 -13.9483 -10.22 -8.754001 -8.868 -9.048 -9.710501 -6.562 -8.316501 -7.252 -5.8 
-15.4506 -19.1351 -19.1728 -14.7843 -13.699 -13.159 -9.915501 -13.3616 -10.4615 -9.937501 -10.204 -7.252 
-20.1471 -23.6549 -20.0088 -18.2633 -18.104 -14.2065 -14.3129 -14.1126 -13.837 -11.8824 -10.204 
-3.9345 -1.7695 -1.4985 -4.0105 -4.9735 0 -1.8085 -7.887001 -2.5195 -5.4085 0 -3.1385 0 -4.281 -7.502 0 -2.7415 -4.645 -5.5025 -1.7565 -6.3345 -1.934 -5.011 0 
-3.94 -2.7955 -4.7015 -8.346001 -4.9735 -1.8085 -9.2925 -10.543 -8.157001 -5.4085 -3.1385 -3.1385 -4.281 -9.892 -7.502 -2.7415 -5.6165 -8.582001 -6.2405 -7.66 -8.348001 -6.2645 -5.011 
-4.4455 -6.1775 -8.7255 -8.346001 -7.179501 -9.2925 -10.6475 -10.7195 -8.157001 -9.091001 -3.1385 -6.8905 -9.892 -9.892 -9.4615 -5.6165 -10.004 -9.294001 -9.7705 -9.1365 -12.9219 -6.2645 
-8.165501 -9.621501 -8.7255 -10.096 -10.543 -10.6475 -10.725 -10.7195 -10.6605 -9.091001 -6.8905 -10.7025 -9.892 -10.43 -10.496 -10.004 -10.1815 -10.675 -10.497 -13.8046 -12.9219 
-9.6485 -9.621501 -10.3345 -13.5665 -10.72 -10.725 -10.725 -10.744 -10.6605 -10.703 -10.7025 -10.7025 -10.43 -10.511 -10.5115 -10.1815 -10.7005 -10.7125 -15.5445 -13.8046 
-3.834 -4.2005 -2.925 -4.5485 -1.8085 -2.688 -3.9675 
-7.1665 -7.347 -6.605 -5.7685 -3.642 -6.6625 
-9.290501 -9.7185 -7.188 -7.009 -6.9465 
-12.114 -10.7205 -8.517 -10.096 
-13.116 -12.0495 -11.8234 
-1.934 -5.011 -3.158 -3.469 -1.7695 -4.969 -2.0935 -4.1645 -3.2345 -3.9675 -2.742 -3.4625 0 
-6.2645 -8.519501 -5.8135 -5.5245 -6.744 -6.826 -5.889 -7.2185 -8.370501 -6.834001 -5.367001 -3.4625 
-10.459 -11.95 -7.9975 -11.45 -7.5525 -9.404501 -10.1 -12.6231 -11.5042 -8.798 -5.367001 
-13.8895 -14.134 -14.3016 -12.2585 -10.3605 -14.3353 -15.5046 -15.7568 -13.4682 -8.798 
-16.0735 -20.4381 -15.1101 -15.0665 -14.8703 -19.7399 -18.6383 -17.7208 -13.4682 
