-4.759 
n/a 
n/a 
n/a 
n/a 
-4.759 
n/a 
n/a 
n/a 
n/a 
-4.759 
n/a 
n/a 
n/a 
n/a 
-4.759 
n/a 
n/a 
n/a 
n/a 
-5.1845 -4.245 -3.9675 0 -10.124 0 -9.124001 0 -12.16972 -3.047 -3.1495 -3.074 0 
-7.991 -7.108001 -3.9675 -10.124 -10.124 -9.124001 -9.124001 -12.16972 -15.21672 -5.766 -6.687 -3.074 
-10.688 -7.108001 -15.1693 -10.124 -19.5472 -9.124001 -22.81872 -15.21672 -17.93572 -9.5495 -6.687 
-10.688 -19.0496 -15.1693 -19.5472 -19.5472 -22.81872 -25.86572 -17.93572 -21.71922 -9.5495 
-22.6296 -19.0496 -24.5925 -19.5472 -33.24192 -25.86572 -28.58472 -21.71922 -21.71922 
-1.934 -5.1845 -4.245 -2.925 -3.9535 -1.7695 -4.2775 -4.1955 
-6.564 -7.991 -7.240001 -5.863 -5.098001 -5.341 -8.778501 
-9.073501 -10.7495 -10.6465 -6.7565 -8.55 -9.758 
-11.9286 -14.156 -11.54 -10.1505 -13.384 
-15.3351 -15.0495 -14.934 -14.9845 
-1.934 -5.1845 -4.245 0 -1.4985 -4.918 -1.7565 -4.372 0 -5.986 0 -6.8205 0 -3.301 -4.202 -3.152 -1.4985 -4.029 -1.7565 -3.277 -2.5045 -2.3335 -2.95 0 
-6.564 -7.991 -4.245 -1.4985 -6.363 -5.8505 -6.6495 -4.372 -5.986 -5.986 -6.8205 -6.8205 -3.301 -7.2495 -7.78 -4.764 -5.353001 -5.1 -4.25 -5.2685 -4.744 -4.8245 -2.95 
-9.073501 -7.991 -6.028501 -6.363 -7.0975 -11.5305 -6.6495 -11.5412 -5.986 -9.97 -6.8205 -10.9315 -7.2495 -10.7495 -9.193001 -8.599001 -6.248001 -9.0795 -6.373001 -7.2045 -5.158 -4.8245 
-9.073501 -9.481001 -10.5035 -7.0975 -12.8371 -11.5305 -14.1803 -11.5412 -9.97 -9.97 -10.9315 -14.88 -10.7495 -12.1625 -13.0168 -9.288501 -9.219501 -11.4749 -8.162001 -7.596001 -5.158 
-10.304 -13.956 -11.238 -12.8371 -12.8371 -19.0613 -14.1803 -15.5252 -9.97 -14.1676 -14.88 -18.38 -12.1625 -15.9863 -13.7063 -12.3244 -11.7823 -13.2639 -8.6485 -7.596001 
-1.934 -5.1845 -4.245 0 -3.1435 -5.261 0 -11.0555 0 -4.056 0 -3.301 -3.152 -5.0515 
-6.564 -7.991 -4.245 -3.1435 -7.2205 -5.261 -11.0555 -11.0555 -4.056 -4.056 -3.301 -7.527 -5.932 
-9.073501 -7.991 -7.799001 -7.2205 -7.2205 -17.7953 -11.0555 -15.1115 -4.056 -7.947001 -7.527 -10.6124 
-9.073501 -11.8644 -12.2042 -7.2205 -20.4526 -17.7953 -15.1115 -15.1115 -7.947001 -12.499 -10.6124 
-13.0435 -16.2696 -12.2042 -20.4526 -20.4526 -21.8513 -15.1115 -19.0025 -12.499 -15.5844 
