-4.759 
n/a 
n/a 
n/a 
n/a 
-4.759 
n/a 
n/a 
n/a 
n/a 
-4.759 
n/a 
n/a 
n/a 
n/a 
-4.759 
n/a 
n/a 
n/a 
n/a 
-5.1845 -2.186 -4.701 -4.126 -3.6885 -2.0935 -4.245 -3.495 
-7.895 -8.081 -9.783501 -8.591501 -5.5805 -6.567 -7.97 
-14.2428 -13.3957 -14.3072 -9.760501 -9.732501 -10.8444 
-19.5575 -17.9194 -15.4762 -14.9867 -14.0109 
-24.0812 -19.0884 -20.7024 -19.2651 
-5.1845 -2.186 -5.5335 -10.651 -3.6885 0 
-7.895 -6.3 -17.3583 -14.3395 -3.6885 
-12.4618 -18.6946 -21.0468 -14.3395 
-24.8564 -22.3831 -21.0468 
-28.5449 -22.3831 
-3.402 -2.264 -1.4985 -4.953 -5.1845 -3.849 -2.5045 -3.2795 -1.7565 -4.2915 
-3.793 -2.9195 -6.1265 -10.322 -9.8545 -6.305 -6.479 -4.4575 -5.967 
-4.34 -7.829501 -12.0985 -14.992 -12.3105 -10.123 -8.195001 -8.017 
-8.759001 -14.0181 -16.7685 -17.448 -16.1285 -11.839 -12.1281 
-15.1394 -18.6881 -19.2245 -21.266 -17.8445 -15.7721 
-8.360001 -4.7715 -2.871 -5.1845 -4.126 -4.2915 
-13.4869 -7.242001 -8.660001 -9.536501 -8.993501 
-15.9574 -13.3068 -13.159 -14.6074 
-22.0222 -17.8058 -18.2299 
-26.5212 -22.8767 
