-4.759 
n/a 
n/a 
n/a 
n/a 
-4.759 
n/a 
n/a 
n/a 
n/a 
-4.759 
n/a 
n/a 
n/a 
n/a 
-4.759 
n/a 
n/a 
n/a 
n/a 
-1.4985 -5.533 -4.2485 -2.186 -1.4985 -4.2485 -2.0935 -1.8085 -4.5105 -5.533 -4.153 -2.5045 -2.9705 -1.8085 -4.541 -5.9795 -3.222 -3.1435 -5.254 -4.2555 -1.4985 -4.541 -2.7765 -2.489 -3.264 -1.7695 -2.489 -5.3915 -2.356 -4.7285 -7.9535 0 
-6.5885 -7.833001 -5.843 -3.339 -5.307 -6.0575 -3.385 -5.548 -9.167001 -7.990001 -6.292001 -4.988501 -4.946 -5.7795 -8.550001 -8.887 -5.5485 -8.0835 -6.8555 -5.9735 -5.628 -7.376 -3.495 -5.406 -4.908 -3.1405 -7.4005 -6.51 -6.831 -10.688 -7.9535 
-8.368501 -9.293501 -7.344501 -6.9995 -7.593 -7.258501 -7.3665 -9.9835 -10.135 -9.201501 -7.685501 -6.273 -7.851001 -9.191 -10.0925 -10.3165 -9.7215 -9.3345 -8.7235 -9.081 -8.073501 -7.691 -6.025001 -6.0885 -5.5165 -7.9275 -7.968 -10.6215 -13.1417 -10.688 
-9.7045 -10.2495 -8.343 -9.1975 -8.757501 -10.3675 -10.3415 -10.5085 -10.5935 -10.5235 -8.785501 -8.3035 -9.497001 -10.3105 -10.3285 -10.352 -9.908501 -10.4045 -10.347 -10.5865 -8.3535 -10.598 -6.6755 -6.539 -8.757501 -8.454 -10.66 -17.732 -13.1417 
-10.5555 -10.5325 -10.609 -10.139 -10.5425 -10.6455 -10.633 -10.6545 -10.6605 -10.651 -9.85 -9.505001 -10.318 -10.3515 -10.358 -10.363 -10.5705 -10.6875 -10.684 -10.6055 -10.6465 -10.6175 -7.0845 -10.208 -9.628 -10.6595 -18.0547 -17.732 
-7.626 -3.074 -12.16972 -1.756 -3.321 -8.593 -4.641 -3.893 -1.4985 -3.2495 -3.9755 
-10.66 -16.24412 -13.92572 -4.0055 -12.8224 -14.3802 -5.812 -4.573 -4.1915 -5.5315 
-23.83012 -18.00012 -16.17522 -13.9465 -18.6096 -15.5512 -6.193 -7.6015 -6.424 
-25.58612 -20.24962 -26.11622 -19.7337 -19.7806 -15.9322 -9.637 -10.1725 
-27.83562 -30.19062 -31.90342 -20.9047 -20.1616 -19.3762 -12.2572 
-4.426 -1.7565 -1.4985 -3.6115 -4.7285 -4.1555 -9.5325 -4.2485 -2.186 -1.4985 -3.6065 -1.934 -1.4985 -5.8705 -4.983 -1.4985 -4.7 -1.934 -1.4985 -5.8705 -4.983 0 
-5.47 -2.4195 -4.081 -6.5495 -8.4455 -12.63 -12.7955 -5.843 -3.339 -4.8665 -5.6855 -2.6125 -6.499001 -7.8325 -6.8 -6.009001 -6.781 -2.6125 -6.499001 -7.8325 -4.983 
-5.9535 -5.180501 -6.670501 -9.978001 -16.5425 -15.7101 -14.5424 -7.344501 -7.3025 -8.172501 -6.469 -7.908 -8.521501 -9.4665 -11.6543 -8.403501 -7.291501 -7.908 -8.521501 -7.8325 
-8.462501 -7.797 -10.054 -18.0534 -19.4816 -17.3064 -16.0439 -11.8924 -9.397 -8.784501 -12.0547 -10.0575 -10.111 -14.396 -14.0488 -8.776501 -13.0072 -10.0575 -8.521501 
-10.2375 -11.2985 -18.1658 -20.9925 -21.0779 -18.8079 -20.5918 -13.9869 -10.5045 -14.7176 -14.2042 -11.7752 -15.0405 -16.7905 -14.4218 -14.54 -15.1567 -10.0575 
-4.237 -2.186 -1.7695 -2.489 -12.16972 -1.7695 -2.489 -12.16972 -3.0415 -4.2875 -12.16972 
-6.133 -3.8745 -3.1405 -16.03912 -13.93922 -3.1405 -16.03912 -15.21122 -6.51 -17.64162 
-8.3315 -4.7485 -16.89362 -17.80862 -15.31022 -16.89362 -19.08062 -18.67972 -20.54072 
-8.886001 -19.26662 -18.66312 -19.17962 -29.06334 -19.93512 -22.54912 -32.71044 
-23.73752 -21.03612 -20.03412 -32.93274 -32.10484 -23.40362 -36.57984 
