-4.759 
n/a 
n/a 
n/a 
n/a 
-4.759 
n/a 
n/a 
n/a 
n/a 
-4.759 
n/a 
n/a 
n/a 
n/a 
-4.759 
n/a 
n/a 
n/a 
n/a 
-3.851 -1.7695 -1.4985 -4.2425 -3.4635 -1.7695 -1.4985 -4.2405 -5.181 -1.7565 -1.4985 -3.188 0 -1.4985 -4.414 -3.3165 -3.251 -1.7695 -6.5885 0 -15.661 0 -1.756 -7.252 0 -15.106 0 0 -2.925 -4.3895 -2.664 -3.473 -2.3335 -4.0935 -1.4985 -5.253 -1.7565 -6.2255 0 -4.9305 -4.0005 -1.7565 -5.469 0 -7.771 -5.2915 -1.7565 -5.3235 0 -9.6085 -4.677 -2.5045 -6.277 0 -12.16972 -5.2335 -2.5045 -12.16972 0 -6.222 -1.7565 -5.269 -1.756 -3.7805 -3.545 -1.7565 -10.638 0 
-4.0015 -2.7955 -6.038501 -8.199501 -4.2045 -2.7955 -5.2775 -6.6615 -5.823 -2.4195 -3.619 -3.188 -1.4985 -5.9185 -7.211 -4.6955 -3.664 -7.989 -6.5885 -16.2029 -16.2029 -1.756 -9.120001 -7.252 -13.3025 -13.3025 0 -2.925 -6.951 -6.856 -5.428 -6.474 -5.157001 -4.916 -6.146501 -6.5895 -6.9575 -6.2255 -4.9305 -7.4425 -5.713 -6.329 -5.469 -7.771 -13.7803 -5.807 -6.850501 -5.3235 -9.6085 -14.4317 -6.7735 -7.307501 -6.277 -12.16972 -17.40322 -7.206 -15.36922 -12.16972 -6.222 -7.2355 -6.864501 -6.816 -5.31 -6.7325 -4.649 -13.3437 -10.638 
-4.5775 -7.555501 -10.057 -8.496 -4.7965 -6.883 -6.975501 -6.83 -6.1715 -4.4095 -3.619 -5.0075 -5.9185 -8.832001 -8.6705 -5.014 -9.828001 -7.989 -21.1654 -16.2029 -18.2929 -9.120001 -9.120001 -19.446 -13.3025 -13.3025 -2.925 -6.951 -8.9775 -9.4315 -7.1055 -8.286 -5.75 -10.2755 -7.186501 -7.593 -6.9575 -9.4575 -7.4425 -9.0885 -9.173 -6.329 -14.233 -13.7803 -14.2958 -11.908 -6.850501 -15.8826 -14.4317 -16.5282 -9.1925 -7.307501 -19.44352 -17.40322 -19.37572 -20.31972 -15.36922 -18.39172 -7.2355 -7.809 -7.982 -10.904 -8.5915 -8.6385 -17.413 -13.3437 
-9.729 -11.921 -10.1515 -9.203001 -8.7615 -9.095 -7.126501 -6.966 -6.639 -4.4095 -5.255 -9.442501 -8.832001 -10.7699 -8.757 -11.4364 -9.828001 -22.5896 -21.1654 -18.2929 -26.0707 -9.120001 -21.4016 -19.446 -13.3025 -17.004 -6.951 -8.9775 -11.6488 -11.3926 -8.5255 -9.224501 -11.4227 -11.3155 -8.819 -7.593 -9.5015 -13.5319 -9.0885 -9.4065 -9.173 -15.4158 -20.2423 -14.2958 -20.3968 -11.908 -17.8556 -20.7058 -16.5282 -18.9472 -9.1925 -20.96102 -24.67702 -19.37572 -32.48944 -20.31972 -21.59122 -19.40522 -7.809 -9.09 -12.4666 -14.1855 -10.3955 -21.6575 -17.413 
-14.2285 -12.0155 -10.6995 -13.2046 -11.1247 -9.2235 -7.1835 -7.192 -6.639 -5.975501 -9.814 -12.492 -10.7699 -10.8564 -15.4532 -11.4364 -24.5132 -22.5896 -23.2554 -26.0707 -26.0707 -21.4016 -21.4016 -19.446 -17.004 -21.2335 -8.9775 -11.6488 -13.6099 -12.8126 -9.977501 -15.078 -12.4627 -12.948 -8.819 -9.551001 -13.6157 -15.1779 -9.4065 -9.4065 -18.396 -21.4251 -20.7578 -20.3968 -20.3968 -22.9131 -22.6788 -22.8023 -18.9472 -18.9472 -23.08262 -26.19452 -26.64952 -32.48944 -32.48944 -26.54172 -22.60472 -19.97872 -9.09 -14.0018 -15.7481 -15.9895 -23.4145 -21.6575 
-4.065 -6.3955 0 -3.5855 -4.3625 0 -1.756 -5.7605 -4.9275 -3.202 -4.5185 -2.186 -3.571 -3.0695 -2.8645 -3.793 -1.8085 -3.254 -1.7565 -7.068501 -1.756 -3.8665 -5.181 0 -1.934 -3.091 -3.452 -5.181 -1.7565 -1.4985 -3.188 -4.018 -3.1575 -3.7875 -3.098 -4.2405 -5.181 -1.7565 -1.4985 -3.188 -1.7695 -4.048 -1.4985 -3.264 -1.7565 -3.4795 -1.934 -1.8085 -3.515 0 -4.5185 -2.229 -3.254 -3.7965 -3.748 -5.181 0 -2.871 -2.0935 -3.345 -3.515 -1.7565 -1.4985 -3.158 
-9.0495 -6.3955 -3.5855 -6.665501 -4.3625 -1.756 -7.0195 -9.2705 -6.656 -6.778 -6.687 -5.0315 -6.641 -4.5495 -5.7 -5.6075 -4.394 -4.0065 -7 -7.493001 -5.108 -6.431 -5.181 -1.934 -4.2105 -5.5575 -8.9025 -5.823 -2.4195 -3.619 -7.0765 -4.2785 -6.005 -6.433001 -6.362 -6.6615 -5.823 -2.4195 -3.619 -5.2365 -5.053 -4.9805 -4.0935 -3.6125 -5.2515 -5.116 -3.2685 -4.5725 -3.515 -4.5185 -6.022501 -5.408 -6.248 -8.0065 -10.3895 -5.181 -2.871 -4.9555 -4.212 -5.336 -4.8025 -2.4195 -4.178 
-9.0495 -11.0145 -6.665501 -6.665501 -5.5745 -7.0195 -10.5975 -11.6714 -8.290001 -9.564501 -9.3955 -7.988501 -7.897 -7.441501 -6.382 -7.325 -4.528 -10.429 -8.253 -9.346001 -7.601501 -6.431 -6.606 -4.2105 -6.003 -10.2695 -9.113501 -6.1715 -4.4095 -7.3935 -7.1745 -6.305 -8.5345 -9.300501 -10.0545 -6.83 -6.1715 -4.4095 -5.3635 -8.6815 -5.580501 -7.247 -4.178 -5.737 -6.532001 -6.278 -5.836 -4.5725 -8.0565 -6.022501 -9.346001 -8.035 -10.3885 -14.8922 -10.3895 -8.353001 -4.9555 -6.0615 -6.9675 -7.2695 -6.0565 -4.4755 
-13.7849 -14.0945 -6.665501 -7.8725 -8.071501 -10.5975 -12.9984 -13.3054 -11.9483 -12.368 -12.4577 -8.8725 -10.9278 -8.2965 -7.798501 -7.353001 -10.222 -11.1185 -8.6455 -9.639001 -7.601501 -8.034 -8.903501 -6.003 -10.3475 -10.6825 -9.598001 -6.639 -7.962 -7.494 -9.396501 -8.9215 -11.7642 -13.031 -10.592 -6.966 -6.639 -6.341001 -8.851501 -9.244 -7.8865 -7.375 -6.115 -6.6965 -7.5315 -7.656 -5.836 -9.68 -8.2515 -9.346001 -12.3714 -12.2459 -17.2742 -14.8922 -13.5615 -10.7707 -6.0615 -8.454 -7.754 -7.6385 -7.13 
-16.8649 -14.0945 -7.8725 -10.3215 -11.8403 -12.9984 -14.6324 -16.9637 -14.7518 -15.4302 -13.3417 -11.9095 -11.7828 -10.564 -7.811 -13.3924 -12.0445 -11.391 -10.4495 -9.625501 -9.0935 -10.5535 -10.494 -10.3475 -10.744 -11.167 -10.2725 -10.717 -8.0655 -9.682501 -11.8714 -12.1676 -15.4947 -13.5685 -10.6225 -7.192 -8.905001 -9.7115 -9.4635 -11.6526 -7.986001 -9.677 -6.9455 -7.646 -8.653501 -7.656 -11.2753 -9.9294 -13.2448 -12.3714 -16.5823 -19.1316 -17.2742 -18.0642 -15.9792 -11.8767 -8.454 -8.643001 -8.121 -8.454 
-3.4985 -4.2965 -2.7455 -1.4985 -4.2405 -8.893001 -2.925 -2.4945 -3.9535 -1.7695 -3.6515 -3.251 -1.7695 -1.4985 -3.8405 -1.7565 -6.5885 0 -5.0445 0 -4.753 -3.2615 -4.4805 -4.2705 0 0 -7.252 0 -4.7015 -4.515 -3.2615 -4.4805 -4.2705 0 -2.9705 -3.7965 -6.939 -2.229 -5.253 0 -12.16972 -2.229 -4.9305 -4.3215 0 -5.3235 -2.229 -5.6785 -5.2915 0 -9.727 -4.677 -2.9705 -2.186 -1.934 -6.277 0 -3.941 -3.681 -1.7565 -12.16972 -2.9705 -2.186 -1.934 -12.16972 0 -6.222 -1.7565 -5.269 0 -5.049 -2.229 -5.3555 
-6.612 -4.6695 -3.637 -5.2775 -10.7335 -12.185 -3.7675 -6.6715 -5.098001 -6.2215 -5.427 -3.664 -2.7955 -4.7545 -4.563 -7.5245 -6.5885 -5.0445 -5.0445 -4.753 -8.756001 -7.2875 -8.6085 -4.2705 0 -7.252 -7.252 -4.7015 -8.332001 -8.4125 -7.2875 -8.6085 -4.2705 -2.9705 -5.034 -11.7021 -8.9525 -7.0675 -5.253 -12.16972 -14.39872 -7.0495 -8.1225 -4.3215 -5.3235 -7.4345 -8.272 -9.262501 -5.2915 -9.727 -14.7746 -7.1205 -3.89 -4.0835 -7.356 -6.277 -3.941 -8.5495 -5.939 -14.87542 -15.14022 -3.89 -4.0835 -15.11012 -12.16972 -6.222 -7.2355 -6.864501 -5.269 -5.049 -7.2535 -7.202 
-7.3535 -5.532 -7.611001 -12.1051 -14.0255 -13.0275 -7.878001 -8.2915 -9.591001 -7.3725 -5.6515 -4.522 -6.344 -5.365 -11.4922 -7.5245 -9.115001 -5.0445 -8.7045 -8.756001 -12.8962 -11.7755 -8.6085 -4.2705 -7.252 -7.252 -10.404 -8.332001 -12.4241 -12.5959 -11.7755 -8.6085 -7.3145 -5.034 -13.198 -13.7156 -13.9096 -7.0675 -18.34232 -14.39872 -19.21922 -10.411 -8.1225 -9.102501 -7.4345 -13.9131 -12.0806 -9.262501 -15.9631 -14.7746 -17.2181 -7.7255 -5.7145 -9.55 -7.356 -11.2148 -8.5495 -10.688 -20.06052 -17.84592 -16.05972 -5.7145 -17.88622 -15.11012 -18.39172 -7.2355 -7.809 -6.864501 -9.33 -7.2535 -9.9455 
-7.9985 -9.252501 -14.6778 -15.3971 -14.868 -17.138 -9.557501 -13.0285 -10.8712 -7.6945 -6.2285 -8.001 -6.9125 -12.3374 -11.4922 -10.5425 -9.115001 -8.7045 -13.0331 -12.8962 -17.3842 -11.7755 -8.6085 -12.7353 -7.252 -10.404 -14.4755 -12.4241 -16.6075 -17.0839 -11.7755 -12.0009 -9.616501 -13.198 -15.2115 -18.6727 -13.9096 -20.69702 -20.57132 -19.21922 -22.58072 -10.411 -13.1875 -12.0525 -13.9131 -17.7217 -12.0806 -20.0511 -21.0107 -17.2181 -17.8231 -8.777 -10.66 -9.55 -12.69 -15.8233 -10.688 -24.80952 -23.03102 -18.76542 -17.88422 -19.83282 -17.88622 -21.33212 -19.40522 -7.809 -7.809 -11.4155 -11.9315 -9.9455 
-11.8208 -16.4465 -17.9698 -16.2396 -18.9785 -18.8175 -14.3257 -14.3087 -11.1932 -8.4285 -9.4515 -8.4325 -14.0173 -12.3374 -14.5102 -10.5425 -9.501501 -13.0331 -17.1733 -17.3842 -17.3842 -11.7755 -17.4217 -12.7353 -10.404 -14.4755 -18.5676 -16.6075 -21.0955 -17.0839 -15.1679 -14.3029 -17.8783 -15.2115 -20.1686 -18.6727 -27.53912 -22.92602 -25.39182 -22.58072 -22.58072 -15.476 -16.1375 -18.5311 -17.7217 -17.7217 -22.8692 -25.0987 -23.4542 -17.8231 -18.8746 -14.5755 -10.66 -15.0876 -17.2985 -17.9618 -24.80952 -27.78002 -23.95052 -20.58992 -32.00254 -19.83282 -24.10822 -22.34562 -19.97872 -7.809 -12.73 -14.017 -14.6235 
-7.252 -4.323 -14.5465 -1.756 -3.251 -1.7565 -2.95 -5.253 -1.756 -12.16972 -10.6255 -5.521 -6.277 -10.7225 -4.677 -6.594501 -6.222 -1.7565 -5.269 -12.16972 -6.222 -1.7565 -12.16972 
-12.479 -19.1558 -17.1307 -5.137 -4.97 -4.3865 -8.8365 -6.8985 -14.93432 -22.79522 -16.1465 -10.9575 -17.9963 -15.7421 -12.1759 -13.8877 -7.2355 -6.864501 -18.25172 -18.39172 -7.2355 -14.87542 
-27.7568 -21.6592 -20.5117 -6.5805 -8.779 -10.2925 -10.7422 -20.55862 -25.55982 -28.31622 -21.583 -22.6768 -23.0159 -23.241 -19.4691 -14.9012 -7.809 -20.33722 -24.47372 -19.40522 -21.27742 
-29.8152 -25.0402 -21.9552 -10.7371 -14.9894 -12.1982 -24.40232 -31.18412 -31.08082 -33.75272 -33.3023 -27.6964 -30.5148 -30.5342 -20.4826 -15.4747 -21.65172 -26.55922 -25.48722 -33.44714 
-33.1962 -26.4837 -26.1118 -16.9475 -16.8951 -25.85832 -35.02782 -36.70512 -36.51732 -45.47202 -38.3219 -35.1953 -37.808 -31.5477 -21.0561 -29.31742 -27.87372 -27.57272 -39.52914 
