-4.759 
n/a 
n/a 
n/a 
n/a 
-4.759 
n/a 
n/a 
n/a 
n/a 
-4.759 
n/a 
n/a 
n/a 
n/a 
-4.759 
n/a 
n/a 
n/a 
n/a 
-2.4265 -3.644 -1.4985 -3.729 -2.7415 -2.6165 -4.834 -2.3345 -3.3425 -4.3075 0 -4.442 0 -1.756 -4.5945 -2.4265 -2.186 -1.8085 -2.871 -1.7565 -1.4985 -3.8245 -3.89 0 
-5.2615 -4.97 -4.763 -5.9115 -4.266 -7.22 -6.04 -4.554 -7.8885 -4.3075 -4.442 -4.442 -1.756 -6.036 -7.346 -3.292 -3.164 -4.756001 -3.5385 -2.4195 -5.1915 -6.634 -3.89 
-6.5245 -8.146501 -6.2665 -7.6705 -8.0935 -8.596001 -7.704 -9.434501 -7.8885 -8.822001 -4.442 -5.390501 -6.036 -8.521 -7.8945 -4.4005 -5.7905 -6.113501 -3.7675 -5.9015 -8.391001 -6.634 
-10.054 -8.892501 -7.955501 -9.582001 -9.210501 -10.5048 -12.6735 -9.434501 -12.8926 -8.822001 -5.390501 -9.466001 -8.521 -9.089001 -8.7775 -7.0425 -6.8345 -6.8655 -8.031501 -8.971001 -8.391001 
-10.8298 -10.734 -9.953001 -10.8346 -11.3541 -15.4743 -12.6735 -14.5164 -12.8926 -9.764001 -9.466001 -12.015 -9.089001 -10.119 -11.6989 -8.198501 -7.7835 -11.3377 -11.4148 -8.971001 
-8.253 -9.139001 -2.186 -2.6165 -4.17 -1.4985 -3.729 -9.2215 -2.5045 -3.4625 -4.834 -2.3345 -1.4985 -4.3075 0 -4.202 0 -4.351 -1.756 -4.5945 0 
-10.368 -10.8215 -3.5105 -6.507 -5.1315 -4.763 -14.0017 -11.9298 -4.931 -6.528501 -6.04 -3.233 -5.4645 -4.3075 -4.202 -4.202 -4.351 -5.677001 -6.036 -4.5945 
-12.0505 -12.146 -8.092501 -7.139 -8.5625 -15.7201 -16.71 -14.3563 -8.6675 -7.6775 -6.731 -7.5775 -5.4645 -7.215501 -4.202 -7.648 -5.677001 -8.716001 -6.036 
-13.375 -16.728 -8.647 -10.906 -20.1926 -18.4284 -19.1365 -18.0928 -9.6675 -8.2355 -11.3611 -7.5775 -9.297501 -7.215501 -7.648 -8.5585 -8.716001 -8.716001 
-17.957 -17.2825 -12.623 -22.5361 -22.9009 -20.8549 -22.873 -19.0928 -10.384 -12.983 -11.3611 -11.5459 -9.297501 -9.552501 -8.5585 -10.5225 -8.716001 
-8.253 -9.139001 -3.4405 -2.6165 -4.115 -1.8085 -3.729 -2.186 -2.664 -6.037 -3.89 -2.3335 -2.186 -3.43 -2.925 -1.7565 -3.183 -4.3075 0 -4.202 0 -4.351 0 -1.756 -4.5945 0 
-10.368 -12.8603 -3.7415 -5.732 -5.443501 -5.3225 -5.6265 -3.8555 -7.6075 -9.092 -5.018 -3.7085 -4.64 -5.0455 -4.898 -5.364501 -8.207001 -4.3075 -4.202 -4.202 -4.351 -4.351 -1.756 -6.036 -4.5945 
-14.0893 -13.1613 -6.4055 -7.214001 -9.048 -6.921 -7.348 -8.826 -9.654 -10.209 -6.236 -6.29 -5.649 -5.285 -8.058001 -10.7495 -8.207001 -7.215501 -4.202 -7.648 -4.351 -5.677001 -6.036 -6.036 
-14.3903 -15.8253 -8.0895 -10.5425 -10.8641 -8.923 -12.7977 -10.2985 -10.8774 -11.427 -8.92 -7.269001 -5.6955 -8.196 -13.8106 -10.7495 -11.7128 -7.215501 -7.648 -7.648 -5.677001 -8.716001 -6.036 
-17.0543 -17.5093 -11.5882 -12.3586 -12.8661 -14.4257 -14.2702 -11.5219 -12.0954 -14.111 -10.355 -7.323 -8.685 -14.068 -13.8106 -14.2553 -11.7128 -9.552501 -7.648 -8.5585 -8.716001 -8.716001 
-8.253 -7.259501 -3.4405 -2.6165 -4.115 -1.8085 -3.729 -3.183 -1.756 -3.5645 -3.8245 -3.4625 -2.356 -4.921 0 -4.202 0 -4.8465 -1.756 -4.5945 0 
-9.3485 -10.435 -3.7415 -5.732 -5.443501 -5.3225 -7.068 -6.0085 -4.7635 -6.932 -6.8275 -6.031 -6.847501 -4.921 -4.202 -4.202 -4.8465 -5.885 -6.036 -4.5945 
-12.7414 -10.6355 -6.4055 -7.214001 -9.048 -8.2995 -9.356001 -9.175501 -7.426001 -9.672001 -8.55 -11.2559 -6.847501 -8.104 -4.202 -8.175501 -5.885 -9.1155 -6.036 
-12.9419 -13.2995 -8.0895 -10.5425 -12.2426 -10.7511 -12.9388 -12.4076 -10.1305 -11.4063 -14.1459 -11.2559 -9.811001 -8.104 -8.175501 -8.828501 -9.1155 -9.1155 
-15.6059 -14.9835 -11.5882 -13.7371 -14.6942 -14.3339 -16.1709 -15.1121 -11.8648 -17.0022 -14.1459 -14.2194 -9.811001 -12.7483 -8.828501 -10.647 -9.1155 
