-4.759 
n/a 
n/a 
n/a 
n/a 
-4.759 
n/a 
n/a 
n/a 
n/a 
-4.759 
n/a 
n/a 
n/a 
n/a 
-4.759 
n/a 
n/a 
n/a 
n/a 
-4.426 -1.7565 -1.4985 -3.0835 -4.7285 -4.1555 -6.6455 -4.563 -3.458 -4.176 -1.756 -6.458 -3.4985 -2.8645 -3.8535 -3.098 -2.871 -3.699 -4.319 0 -2.3345 -3.8185 -4.176 -3.618 -3.135 -1.7565 -3.9665 -3.8535 -3.135 -5.2015 0 
-5.47 -2.4195 -3.535 -6.042 -8.4455 -9.149501 -9.884001 -6.849 -7.489501 -5.847 -7.514 -10.143 -7.79 -5.189 -6.543 -4.554 -6.001 -8.118 -4.319 -2.3345 -7.253 -7.613501 -8.833 -6.73 -3.9195 -5.707 -8.710501 -6.095 -7.896501 -5.2015 
-5.9535 -4.6785 -6.335501 -9.523001 -13.1065 -12.9005 -13.1235 -9.5275 -7.785 -12.7506 -10.281 -14.5523 -10.287 -8.407001 -8.298 -8.1635 -10.543 -8.118 -6.7795 -7.253 -11.71 -13.7319 -12.0884 -6.974 -10.2285 -11.157 -11.2506 -11.4217 -7.896501 
-8.021 -7.476501 -10.0095 -14.2685 -16.7874 -16.1498 -15.9618 -10.1205 -15.2696 -15.5176 -14.7433 -17.0493 -13.505 -9.478001 -12.2279 -12.9035 -10.543 -10.19 -12.0466 -11.71 -17.8284 -16.9873 -12.3324 -14.6674 -15.8301 -13.6971 -16.5773 -11.4217 
-9.983001 -11.3061 -14.865 -17.9494 -19.9213 -18.8857 -16.5548 -17.7385 -18.0366 -19.9799 -17.2403 -20.2673 -14.576 -13.4703 -16.9679 -12.9035 -12.615 -15.4571 -16.5036 -17.8284 -21.0838 -17.2313 -20.0258 -20.269 -18.3702 -19.0238 -16.5773 
-3.2615 -4.4525 -1.4985 -3.618 -1.7565 -3.982 -2.925 -3.5745 -3.8275 -2.356 -2.4265 
-5.912 -5.323501 -5.099 -4.561501 -5.614 -7.048 -4.941 -8.3265 -5.674 -4.606501 
-6.5165 -8.998501 -5.6515 -9.382501 -8.295 -9.1495 -9.807 -10.2435 -8.3525 
-9.544001 -9.739 -10.001 -12.1801 -10.3815 -14.2769 -11.8404 -12.922 
-10.271 -14.2135 -12.9166 -14.2666 -15.6621 -16.3103 -14.5189 
-3.034 -3.982 -1.756 -6.862 -5.192 -3.9225 -3.277 0 -2.925 -4.6225 -4.319 -3.3255 -1.8085 -3.7285 -3.3755 0 -3.99 -3.4985 -5.148 -3.959 -5.7505 -3.9615 -4.033 -1.7565 -4.299 -1.7695 -7.323 -1.4985 -4.176 -4.132 0 
-7.4965 -5.4715 -8.9925 -12.6614 -8.187 -5.4525 -3.277 -2.925 -7.271 -9.149 -7.078 -4.441 -4.2045 -7.328 -3.3755 -3.99 -7.154 -8.193501 -7.1695 -8.959 -8.468 -6.366 -4.5795 -5.852 -6.4355 -7.949 -8.241501 -5.1055 -8.649 -4.132 
-8.8365 -13.6246 -14.9139 -15.6564 -10.1 -5.4525 -5.285501 -7.271 -12.0859 -10.758 -8.272 -6.442 -7.884501 -7.328 -7.911 -7.154 -12.144 -10.147 -12.5279 -11.7805 -11.1901 -6.649 -8.917 -7.7715 -13.059 -8.699 -12.1229 -10.0345 -8.649 
-17.5414 -19.546 -17.9089 -17.5694 -10.1 -7.569 -9.747001 -12.0859 -13.6949 -13.18 -10.76 -10.6832 -7.884501 -12.1563 -10.2595 -12.144 -14.0975 -15.6072 -15.3494 -14.5026 -11.4731 -11.5751 -10.9361 -14.5992 -13.809 -12.6268 -17.0519 -10.0345 
-23.4628 -22.541 -19.8219 -17.5694 -12.2165 -11.9755 -14.5455 -13.6949 -16.1169 -15.668 -15.0012 -10.6832 -13.0786 -14.5048 -15.2495 -14.0975 -19.5577 -18.4287 -18.0715 -14.7856 -16.3992 -13.5942 -17.7638 -15.3492 -17.7368 -17.5558 -17.0519 
-9.5865 -2.7415 -1.934 -5.63 -4.5165 0 -3.098 -2.871 -3.699 -4.5115 -1.934 -2.3335 -2.95 
-12.5204 -4.5155 -9.3745 -10.9315 -4.5165 -3.098 -4.554 -6.001 -9.075001 -5.896 -4.359 -4.8245 
-14.2944 -12.5374 -14.8004 -10.9315 -8.056 -4.554 -8.1635 -12.358 -10.265 -8.383 -6.2115 
-22.3163 -17.9633 -14.8004 -14.471 -9.7655 -8.1635 -14.7185 -13.548 -12.752 -10.199 
-27.7422 -17.9633 -18.3399 -16.1805 -13.4432 -14.7185 -15.9085 -16.035 -14.568 
