-4.759 
n/a 
n/a 
n/a 
n/a 
-4.759 
n/a 
n/a 
n/a 
n/a 
-4.759 
n/a 
n/a 
n/a 
n/a 
-4.759 
n/a 
n/a 
n/a 
n/a 
-3.321 0 -3.7545 -3.9105 -3.7075 -3.3755 -5.759501 -7.205 -3.135 -1.7565 -4.8795 -4.6505 0 
-3.321 -3.7545 -6.0785 -8.201 -8.608001 -9.307001 -14.0051 -10.9575 -3.9195 -7.909 -10.3545 -4.6505 
-7.7935 -6.0785 -9.496 -13.4145 -14.7541 -18.0638 -17.7576 -11.742 -11.355 -13.4094 -10.3545 
-10.7175 -9.496 -14.9667 -19.5606 -23.5109 -21.8163 -18.5421 -19.1775 -16.8554 -13.4094 
-14.135 -14.9667 -21.1128 -28.3174 -27.2634 -22.6008 -25.9776 -24.6779 -16.8554 
-3.321 0 -3.948 -5.4435 -3.4635 -1.7695 -3.8315 -2.4945 -4.6505 -1.934 -3.7545 -1.756 -3.9105 -3.519 0 
-3.321 -3.948 -8.942 -8.7705 -4.2045 -6.101501 -6.91 -6.1425 -5.5835 -5.147501 -5.274 -5.502501 -7.015501 -3.519 
-7.669 -8.942 -12.5232 -8.8835 -7.406001 -8.746501 -10.5035 -6.5565 -8.811001 -6.3715 -5.8195 -8.290001 -7.015501 
-12.7684 -12.5232 -12.6362 -12.2538 -9.863001 -12.5032 -10.9175 -10.396 -10.1765 -7.649001 -8.330501 -8.290001 
-16.3496 -12.6362 -16.0065 -14.7108 -13.6197 -12.9172 -14.757 -11.7615 -10.184 -8.5255 -8.330501 
-3.2615 -2.3615 -7.665 -3.866 -2.0935 -4.157 -1.934 -3.8315 -5.0695 
-5.276 -7.221 -9.231501 -5.3855 -6.7475 -6.51 -6 -9.354 
-11.4575 -9.671 -9.647 -10.19 -9.233001 -11.0864 -12.2109 
-13.9996 -11.6405 -14.9042 -12.8195 -13.8984 -17.2973 
-15.7837 -17.1454 -17.5823 -17.4849 -20.1093 
-3.882 0 -1.934 -2.9805 -4.7595 -5.5415 -1.934 -3.7545 -3.9105 -3.402 -5.2785 0 
-3.882 -1.934 -5.9345 -6.097 -10.4855 -7.1965 -5.147501 -6.0785 -7.4945 -8.024501 -5.2785 
-5.1945 -5.9345 -8.9075 -12.1216 -12.1405 -11.0848 -8.3485 -9.576 -13.2626 -8.024501 
-9.7095 -8.9075 -14.9343 -13.7766 -16.0288 -14.2858 -12.4394 -14.7407 -13.2626 
-12.7235 -14.9343 -16.5893 -17.6649 -19.2298 -18.3767 -17.6041 -14.7407 
