-4.759 
n/a 
n/a 
n/a 
n/a 
-4.759 
n/a 
n/a 
n/a 
n/a 
-4.759 
n/a 
n/a 
n/a 
n/a 
-4.759 
n/a 
n/a 
n/a 
n/a 
-3.17 -1.7565 -1.4985 -6.899 -4.9545 -2.4945 -4.9345 -2.0935 -4.388 0 -9.1265 0 -3.5505 -2.0935 -4.2225 
-4.179 -2.4195 -8.336 -12.8639 -6.479 -6.43 -7.1225 -6.0045 -4.388 -9.1265 -9.1265 -3.5505 -5.35 -5.982 
-4.497 -9.251 -14.3939 -14.3884 -8.651501 -8.0555 -9.861 -6.0045 -14.6779 -9.1265 -12.8818 -5.35 -7.62 
-11.8645 -15.4219 -15.9184 -16.5609 -10.0575 -11.3814 -9.861 -16.7882 -14.6779 -12.8818 -14.6813 -7.62 
-18.0354 -16.9464 -18.0909 -17.9669 -13.4862 -11.3814 -20.6147 -16.7882 -18.4332 -14.6813 -16.9513 
-7.902 -2.0935 -6.899 -4.2085 -2.0935 -4.388 0 -4.202 -6.524 0 -3.5505 -2.0935 -4.2225 
-10.1 -8.9865 -12.1179 -6.5755 -6.0045 -4.388 -4.202 -11.642 -6.524 -3.5505 -5.35 -5.982 
-16.993 -14.2848 -14.4849 -8.9685 -6.0045 -8.563 -11.642 -11.642 -10.8625 -5.35 -7.62 
-22.2913 -16.6518 -16.8779 -8.9685 -10.1855 -16.5634 -11.642 -15.9805 -12.662 -7.62 
-24.6583 -19.0448 -16.8779 -13.1517 -18.1859 -16.5634 -15.9805 -17.78 -14.932 
-4.628 -6.739501 -4.282 -4.9545 -4.9345 -2.0935 -4.5085 0 -4.0455 -3.213 0 -4.282 -12.16972 
-10.6215 -11.6675 -7.9185 -8.783001 -7.1225 -5.9465 -4.5085 -4.0455 -7.422 -3.213 -4.282 -17.60512 
-15.5495 -15.304 -12.0452 -10.2595 -10.131 -5.9465 -9.037001 -7.422 -7.422 -8.4655 -17.60512 
-19.186 -19.4307 -13.5217 -13.268 -10.131 -10.647 -13.0929 -7.422 -12.8781 -21.96082 
-23.3127 -20.9072 -16.5302 -13.268 -14.9171 -14.7029 -13.0929 -12.8781 -26.37342 
-4.628 -4.743 -2.229 -4.2085 -3.892 -2.7415 -4.9345 -2.3345 -4.388 0 -4.9165 -3.8125 0 -7.7335 -4.0435 0 -3.843 
-4.7515 -6.5015 -6.147 -7.2425 -6.3605 -6.129 -5.816 -7.0445 -4.388 -4.9165 -8.6525 -3.8125 -7.7335 -12.6288 -4.0435 -3.843 
-6.5135 -10.19 -9.343 -9.697001 -9.5135 -6.621 -9.635 -7.0445 -10.4345 -8.6525 -8.6525 -12.5732 -12.6288 -12.6288 -7.6765 
-10.1945 -13.5934 -11.9139 -12.85 -10.005 -10.8324 -9.635 -13.688 -14.1705 -8.6525 -17.6116 -17.4685 -12.6288 -16.2618 
-13.6005 -16.1643 -15.0669 -13.3415 -14.364 -10.8324 -16.3645 -17.424 -14.1705 -17.6116 -22.5069 -17.4685 -16.2618 
