-4.759 
n/a 
n/a 
n/a 
n/a 
-4.759 
n/a 
n/a 
n/a 
n/a 
-4.759 
n/a 
n/a 
n/a 
n/a 
-4.759 
n/a 
n/a 
n/a 
n/a 
-1.4985 -3.948 -3.6045 -3.916 -1.756 -2.8965 -3.8435 -5.3515 -4.255 -1.4985 -3.772 -1.7565 -3.6065 -4.887 -3.115 -3.188 -3.473 0 -3.16 0 -3.5965 -2.915 -7.2115 -1.7565 -3.1495 -3.9535 -3.152 -3.8755 -2.3345 -1.4985 -3.188 -3.473 -4.2875 0 -5.1465 0 -3.3155 -1.4985 -14.764 -2.7415 -3.4625 -2.5045 -1.8085 -6.710501 -1.934 -3.135 -1.7565 -3.1495 -3.152 -3.8755 -2.3345 -3.5025 -3.9155 -4.106 -3.9665 0 -4.6565 0 -1.756 -3.074 -2.8965 -3.7495 0 
-4.7695 -7.553 -5.63 -4.9735 -3.751 -6.269 -9.057 -9.9755 -5.1745 -5.215 -5.153 -4.8305 -7.098001 -8.537001 -6.9775 -6.6245 -3.473 -3.16 -3.16 -3.5965 -5.9115 -10.3105 -8.884001 -3.914 -5.7775 -6.396 -5.6875 -4.4955 -3.233 -3.619 -6.6245 -7.9755 -4.2875 -5.1465 -5.1465 -3.3155 -4.1745 -8.985001 -9.1175 -5.288 -6.07 -3.3625 -7.9655 -8.056001 -4.4015 -3.9195 -3.914 -5.3825 -5.6875 -4.4955 -6.0885 -5.826 -5.852 -4.868501 -3.9665 -4.6565 -4.6565 -1.756 -4.566 -6.226 -5.528501 -3.7495 
-8.3925 -9.205501 -6.6695 -6.9935 -6.637 -10.6465 -13.5584 -10.895 -8.464001 -5.5775 -8.014 -8.363001 -11.6712 -12.6221 -11.0214 -6.6245 -6.5375 -3.16 -7.1495 -5.9115 -12.863 -10.6845 -9.663501 -6.478 -7.42 -8.045 -6.443 -5.454 -5.843 -7.909 -10.3345 -7.9755 -10.5096 -5.1465 -9.106 -4.1745 -12.3565 -11.641 -11.6825 -8.658001 -7.1955 -9.452001 -9.913501 -9.842501 -5.5905 -5.107501 -6.3625 -8.004 -6.443 -7.753 -8.963 -5.861 -5.8575 -4.868501 -6.179501 -4.6565 -7.021 -4.566 -7.321 -8.778 -5.528501 
-9.844001 -10.058 -8.5255 -8.5175 -11.5109 -15.1479 -14.4779 -14.1845 -9.179501 -8.472501 -11.8669 -13.095 -15.7563 -16.666 -11.0214 -10.1345 -6.5375 -7.1495 -9.896501 -13.8956 -14.3486 -12.1495 -12.121 -8.2255 -9.005501 -8.4685 -7.1585 -7.8875 -9.884501 -12.1876 -10.3345 -14.4642 -10.5096 -9.106 -10.0075 -12.3635 -14.616 -14.536 -15.3017 -10.5035 -14.3121 -12.1895 -12.2445 -11.763 -6.655001 -7.282001 -8.844501 -8.609 -10.2509 -11.6607 -9.160501 -5.8625 -5.8575 -6.180501 -6.179501 -7.021 -9.7045 -7.321 -9.824 -8.778 
-10.9251 -11.914 -10.733 -14.2728 -16.0123 -16.0674 -17.7674 -14.9 -12.2563 -12.4102 -16.5989 -17.1801 -19.8002 -16.666 -14.5314 -10.1345 -11.481 -9.896501 -17.9286 -14.3486 -15.8016 -14.5015 -13.646 -9.932 -9.6245 -8.568001 -9.8295 -12.4104 -14.4883 -12.1876 -18.23 -14.4642 -14.4691 -10.0075 -18.4059 -14.8422 -17.8186 -18.2828 -17.1826 -17.6201 -16.3551 -14.3575 -13.8165 -12.3495 -10.2585 -9.777 -9.491 -12.4789 -14.1586 -11.8582 -9.172 -5.8625 -6.204 -6.180501 -8.241501 -9.7045 -12.7517 -9.824 -9.824 
-1.934 -2.3615 -3.188 0 -3.16 0 -4.841 -2.915 -4.824 -2.4945 -4.091 -2.5045 -1.8085 -3.3715 -3.5215 -1.756 -3.4865 -3.8435 -3.3725 -2.3615 -5.1465 -2.7415 -3.8755 -2.3345 -12.16972 -4.261 -2.5045 -1.8085 -4.2245 -1.934 -2.3335 -6.387 -1.934 -2.3615 -3.9155 -4.106 -3.9665 0 -4.6565 0 -1.756 -3.571 -6.327 -2.3345 -1.4985 -4.6565 -3.152 -3.8755 0 
-3.539 -5.2525 -3.188 -3.16 -3.16 -4.841 -7.609 -8.343 -8.441 -5.3025 -4.9705 -3.3625 -6.3835 -5.047 -4.979 -4.9215 -7.276 -8.692 -6.226 -7.9325 -8.244 -5.065001 -4.4955 -14.83482 -16.43072 -7.521 -3.3625 -5.274 -4.929 -4.359 -8.856001 -7.901 -3.539 -7.4575 -5.852 -4.868501 -3.9665 -4.6565 -4.6565 -1.756 -5.1285 -9.414001 -9.2045 -3.233 -5.448501 -8.976501 -5.6875 -3.8755 
-5.714 -5.2525 -6.658501 -3.16 -8.992001 -7.609 -13.7012 -12.3788 -11.657 -5.97 -5.6455 -8.035 -8.213 -6.4115 -8.4355 -8.764 -12.7273 -11.4521 -12.4924 -11.9952 -8.983 -5.7145 -17.54022 -19.09582 -19.69072 -8.290501 -5.9975 -5.555 -7.794001 -9.9165 -10.003 -9.2405 -8.889001 -10.2485 -5.8575 -4.868501 -6.179501 -4.6565 -7.021 -5.1285 -11.2169 -12.3373 -10.3234 -6.4865 -9.320001 -12.126 -5.6875 
-5.714 -9.2435 -6.658501 -8.992001 -12.1358 -13.7012 -17.737 -15.5948 -12.3245 -7.3955 -10.513 -10.172 -9.802501 -10.6238 -12.5078 -14.4097 -15.4874 -17.7185 -16.5551 -12.7342 -10.038 -19.35842 -21.80122 -22.35582 -20.46022 -11.2061 -6.312 -8.302501 -11.8325 -11.3255 -11.699 -15.0126 -11.8456 -10.254 -5.8575 -6.180501 -6.179501 -7.021 -9.019001 -11.2169 -14.1402 -13.4562 -13.5769 -11.5584 -12.7623 -12.126 
-10.054 -9.2435 -13.1473 -12.1358 -18.228 -17.737 -20.953 -16.2623 -13.75 -12.5348 -12.8556 -11.7615 -14.0148 -14.6961 -18.1535 -17.1698 -21.7538 -21.7812 -17.2941 -13.7892 -24.48732 -23.61942 -25.06122 -23.12532 -23.37582 -11.5206 -9.201501 -12.4362 -14.6809 -13.3304 -17.734 -18.2056 -11.8511 -10.254 -6.204 -6.180501 -8.241501 -9.019001 -16.8332 -14.1402 -15.2591 -16.7097 -18.6488 -15.0007 -12.7623 
-3.188 -4.0005 -3.16 0 -3.5025 0 -3.5965 -3.127 -4.763 -1.756 -3.3715 -4.1335 -2.4945 -3.4625 -5.367 -2.3345 -1.4985 -3.684 -3.433 -3.17 -1.7565 -3.1495 -5.593 -3.152 -3.8755 -3.188 -4.0005 -3.16 0 -5.1465 0 -3.774 -3.9875 -2.3345 -6.277 -9.1745 -3.135 -1.7565 -3.1495 -3.152 -3.8755 -2.3345 -3.5025 -3.9155 -4.106 -3.9665 0 -4.6565 0 -1.756 -2.3345 -3.135 -2.8965 -4.5675 0 
-4.969501 -5.2365 -3.16 -3.5025 -3.5025 -3.5965 -6.3675 -6.8125 -6.0515 -4.6545 -6.691501 -5.6415 -4.7105 -7.1875 -6.6975 -3.233 -5.3025 -5.6975 -6.81 -4.179 -3.914 -7.707001 -8.568001 -5.6875 -7.5085 -4.969501 -5.2365 -3.16 -5.1465 -5.1465 -3.774 -8.0935 -6.002 -8.7405 -11.2345 -13.062 -3.9195 -3.914 -5.3825 -5.6875 -4.4955 -6.0885 -5.826 -5.852 -4.868501 -3.9665 -4.6565 -4.6565 -1.756 -4.614 -5.141 -4.9085 -6.9525 -4.5675 
-5.246 -5.2365 -6.443 -3.5025 -6.471 -6.3675 -10.8842 -7.777 -9.365 -8.601501 -8.0135 -7.88 -7.962501 -8.450001 -7.321 -7.303 -7.0075 -9.496501 -7.9045 -5.5265 -8.8105 -9.803 -11.4767 -10.4855 -9.094001 -5.246 -5.2365 -7.954 -5.1465 -9.185 -8.0935 -8.7335 -12.9476 -14.8274 -16.8202 -13.9368 -5.107501 -6.3625 -8.004 -6.443 -7.753 -8.963 -5.861 -5.8575 -4.868501 -6.179501 -4.6565 -7.021 -4.614 -7.1875 -6.562 -8.642 -6.9525 
-5.246 -7.5825 -6.443 -6.471 -9.7795 -10.8842 -11.8487 -11.7415 -13.2142 -9.6085 -9.963501 -11.5934 -9.274 -8.87 -11.701 -8.732 -11.3199 -10.1085 -9.049 -9.464001 -11.1387 -12.7117 -16.2747 -12.071 -9.818501 -5.246 -8.749001 -7.954 -9.185 -13.7259 -8.7335 -15.6069 -19.4181 -19.6413 -17.2632 -15.4718 -7.282001 -8.844501 -8.609 -10.2509 -11.6607 -9.160501 -5.8625 -5.8575 -6.180501 -6.179501 -7.021 -9.986501 -7.1875 -8.8055 -9.706 -8.642 
-7.5845 -7.5825 -9.0375 -9.7795 -14.4102 -11.8487 -15.8132 -15.5907 -14.2212 -11.5889 -13.8009 -12.9049 -10.0355 -13.4438 -13.13 -13.2608 -11.9319 -11.0924 -13.0375 -12.6858 -14.0474 -17.5097 -17.8602 -12.7955 -9.818501 -8.7515 -8.749001 -12.4871 -13.7259 -14.3659 -15.6069 -22.0774 -23.8484 -20.0843 -18.7982 -17.6463 -9.777 -9.491 -12.4789 -14.1586 -11.8582 -9.172 -5.8625 -6.204 -6.180501 -8.241501 -9.986501 -12.9818 -8.8055 -12.0035 -9.706 
-1.4985 -3.6065 -4.1665 -1.7565 -3.188 -4.0005 -3.16 0 -3.5025 0 -2.915 -3.6615 -1.934 -3.5965 -3.429 -1.4985 -4.3365 -1.7565 -2.8965 -3.0435 -7.931 -1.7565 -3.1495 -3.682 -2.4945 -3.8755 -2.3345 -1.4985 -3.188 -4.0005 -3.16 0 -5.1465 0 -3.8475 -2.9705 -2.8645 -1.8085 -4.2245 -6.277 -7.028 -3.135 -1.7565 -3.1495 -2.4945 -3.43 -2.3345 -1.4985 -3.5025 -3.9155 -4.106 -3.9665 0 -4.6565 0 -1.756 -2.3345 -1.4985 -2.8965 -3.7495 
-4.8665 -7.0265 -5.517 -5.13 -4.969501 -5.2365 -3.16 -3.5025 -3.5025 -2.915 -6.676001 -4.437 -5.215 -7.5385 -4.4635 -5.657001 -5.768 -4.5345 -5.5885 -11.316 -8.77 -3.914 -5.644 -5.2045 -5.463 -4.4955 -3.233 -3.619 -4.969501 -5.2365 -3.16 -5.1465 -5.1465 -3.8475 -6.3125 -4.6335 -3.9785 -5.274 -11.3573 -9.606001 -9.872 -3.9195 -3.914 -4.459 -4.758 -4.5865 -3.233 -4.16 -5.826 -5.852 -4.868501 -3.9665 -4.6565 -4.6565 -1.756 -4.614 -3.233 -3.928 -5.528501 
-8.031 -8.567 -9.073501 -6.884501 -5.246 -5.2365 -6.443 -3.5025 -5.892 -6.676001 -7.6255 -8.272 -10.7025 -8.6155 -8.162001 -6.2605 -7.806 -7.3145 -15.584 -13.6732 -10.3925 -6.565 -6.2575 -6.9135 -6.347 -5.454 -5.843 -5.421 -5.246 -5.2365 -7.954 -5.1465 -10.6458 -6.3125 -7.516 -5.6305 -8.054501 -13.462 -14.4678 -12.017 -10.8135 -5.107501 -5.749 -7.155 -5.9025 -5.2085 -6.104 -5.9535 -5.861 -5.8575 -4.868501 -6.179501 -4.6565 -7.021 -4.614 -5.34 -5.9375 -7.0085 
-8.895 -12.3709 -11.421 -7.428 -5.246 -7.5825 -6.443 -5.892 -10.3745 -7.6255 -12.0557 -13.9153 -11.7795 -12.5778 -9.6055 -8.214001 -11.231 -17.6398 -16.868 -14.5047 -12.53 -7.528 -7.4375 -8.109 -7.0245 -7.8875 -7.266 -5.466 -5.246 -8.749001 -7.954 -10.6458 -13.1108 -7.516 -8.7425 -9.93 -16.1447 -16.5725 -15.7413 -11.5258 -12.1708 -6.5715 -8.421 -8.210501 -6.7035 -8.861501 -7.6495 -5.975501 -5.8625 -5.8575 -6.180501 -6.179501 -7.021 -9.986501 -5.34 -8.007 -8.6695 
-12.8205 -14.7184 -11.9645 -7.428 -7.5845 -7.5825 -9.316 -10.3745 -11.637 -12.0557 -17.699 -14.9923 -15.7418 -14.0213 -11.5592 -11.6642 -21.5563 -18.9238 -17.6995 -17.3616 -13.2449 -9.7235 -9.1475 -8.711 -10.0375 -8.826 -7.3415 -5.466 -8.7515 -8.749001 -13.9479 -13.1108 -14.3143 -8.7425 -13.106 -18.1038 -19.2552 -17.846 -17.3279 -13.4891 -13.3678 -9.272 -9.305 -9.069 -10.7575 -10.375 -7.713 -5.977 -5.8625 -6.204 -6.180501 -8.241501 -9.986501 -10.264 -8.007 -10.7175 
