-4.759 
n/a 
n/a 
n/a 
n/a 
-4.759 
n/a 
n/a 
n/a 
n/a 
-4.759 
n/a 
n/a 
n/a 
n/a 
-4.759 
n/a 
n/a 
n/a 
n/a 
-3.0365 -2.186 -1.8085 -3.3235 -4.09 -3.8935 -3.6215 -1.934 -1.4985 -3.502 -12.16972 
-3.66 -3.164 -4.9145 -5.9935 -8.203501 -7.0275 -5.679501 -2.6125 -4.5955 -17.17032 
-4.218 -5.823 -6.648 -9.4655 -11.7127 -8.742001 -6.415501 -5.258 -18.58402 
-7.045001 -7.789001 -10.1715 -13.0447 -13.4272 -9.503 -9.028501 -19.35872 
-8.245501 -11.5005 -13.7507 -14.7592 -14.1882 -12.2264 -23.39122 
-3.8935 -3.6215 -3.3825 -1.934 -3.321 -10.8475 
-7.0275 -7.705501 -5.027 -6.1755 -15.0769 
-11.2269 -10.275 -10.586 -18.2222 
-13.7964 -15.834 -22.6327 
-19.3554 -27.8807 
-4.09 -3.8935 -3.6215 -2.186 -1.934 -1.4985 -3.502 -3.994 
-8.203501 -7.0275 -5.5965 -4.0835 -2.6125 -4.5955 -5.394 
-11.7127 -8.661 -7.3625 -4.6915 -5.258 -7.2135 
-13.3462 -10.3675 -7.777501 -7.523 -8.046 
-15.0527 -10.7825 -11.415 -10.5598 
-3.502 -4.4485 -3.177 -1.7565 -3.8935 -7.0655 
-7.9685 -7.6155 -4.2135 -5.327 -11.9496 
-11.5667 -8.948 -9.281501 -13.7639 
-12.8992 -15.0646 -17.8238 
-19.0158 -23.6069 
