-4.759 
n/a 
n/a 
n/a 
n/a 
-4.759 
n/a 
n/a 
n/a 
n/a 
-4.759 
n/a 
n/a 
n/a 
n/a 
-4.759 
n/a 
n/a 
n/a 
n/a 
-3.0365 -2.4945 -3.3715 -4.823 -4.2915 -4.6505 -2.356 -4.58 0 
-3.688 -4.846 -8.6075 -10.1345 -9.484 -6.808001 -6.7345 -4.58 
-4.8765 -10.7495 -14.913 -15.327 -11.8377 -11.7645 -6.7345 
-10.8294 -17.055 -20.1055 -17.6807 -16.7942 -11.7645 
-17.1349 -22.2475 -22.4592 -22.6372 -16.7942 
-3.1495 -4.6565 -1.934 -4.58 -11.068 -4.0205 0 -4.7255 -3.8445 -4.5925 0 -4.823 0 0 -7.0885 -4.555 0 -3.321 -3.436 -1.756 -3.2615 -4.823 -4.418 -1.756 -4.58 -3.9535 -2.674 -4.394 -4.4155 
-9.028001 -6.940001 -5.729 -9.956 -12.016 -4.0205 -4.7255 -5.942 -6.3435 -4.5925 -4.823 -4.823 0 -7.0885 -13.0187 -4.555 -3.321 -6.7345 -5.0245 -4.788 -8.6675 -9.892 -5.694 -6.534 -6.595 -6.297501 -6.5145 -7.7245 
-12.0187 -9.262501 -9.889501 -9.097501 -9.085 -8.8035 -5.942 -6.9295 -6.3435 -6.818501 -4.823 -4.823 -7.0885 -13.0187 -13.0187 -7.8455 -6.7345 -8.3975 -5.3375 -10.535 -14.2281 -11.7932 -11.2534 -9.774 -9.9645 -10.151 -9.2945 
-14.3412 -14.3784 -10.699 -9.092 -10.293 -9.8765 -6.9295 -6.9295 -7.1115 -6.818501 -4.823 -12.9595 -13.0187 -13.0187 -16.3092 -11.8422 -8.3975 -9.449 -11.2917 -16.0956 -16.1293 -17.3526 -14.4934 -13.5657 -14.065 -12.931 
-19.4571 -14.3799 -10.699 -10.3055 -10.3085 -10.1345 -6.9295 -7.1575 -7.1115 -6.818501 -12.9595 -18.8897 -13.0187 -16.3092 -20.3059 -13.5052 -9.449 -15.436 -16.8523 -17.9968 -21.6887 -20.5926 -18.2851 -17.6662 -16.845 
-2.3615 -4.6565 -1.934 -4.58 -11.068 -4.0205 0 -4.823 0 -8.962501 -4.555 -1.4985 -4.253 -1.756 -3.17 -4.4385 -1.7565 -4.823 -1.7695 -2.489 -4.728 -4.58 -3.802 
-8.389 -6.940001 -5.729 -9.956 -12.016 -4.0205 -4.823 -4.823 -8.962501 -13.8373 -6.5755 -5.429501 -6.007 -4.684 -8.540501 -5.339001 -7.009 -6.670001 -3.1405 -5.7945 -10.001 -7.986501 
-11.1995 -9.262501 -9.889501 -9.097501 -9.085 -9.0165 -4.823 -14.8335 -13.8373 -15.8578 -10.66 -7.538501 -8.811501 -10.3291 -10.7495 -11.3551 -8.820001 -7.754001 -6.4085 -12.0671 -14.1923 
-13.522 -14.3784 -10.699 -9.092 -10.342 -9.0165 -14.8335 -19.7083 -15.8578 -19.9423 -12.769 -9.671 -14.6554 -12.5381 -16.7656 -13.1661 -10.2135 -11.9074 -12.8663 -16.2584 
-18.6379 -14.3799 -10.699 -10.3425 -10.342 -19.5824 -19.7083 -21.7288 -19.9423 -22.0513 -14.9015 -15.6193 -16.8644 -18.5542 -18.5766 -14.5596 -14.4271 -18.3652 -17.0576 
-2.3615 -4.6565 -1.934 -4.58 -11.068 -4.0205 0 -4.7255 -3.8445 -4.5925 0 -4.823 0 0 -8.962501 -7.991 -3.3715 -3.9755 -1.7565 -4.823 -4.4385 -4.849 -4.58 -3.802 -1.7695 -2.489 -4.164 
-8.389 -6.940001 -5.729 -9.956 -12.016 -4.0205 -4.7255 -5.942 -6.3435 -4.5925 -4.823 -4.823 0 -8.962501 -17.4728 -11.666 -5.96 -4.312 -7.009 -9.268501 -8.879001 -9.848501 -7.986501 -5.625 -3.1405 -5.493 
-11.1995 -9.262501 -9.889501 -9.097501 -9.085 -8.8035 -5.942 -6.9295 -6.3435 -6.818501 -4.823 -4.823 -8.962501 -17.4728 -21.3491 -15.3498 -6.003 -9.2225 -11.9711 -14.1332 -14.1191 -13.602 -10.5535 -6.516 -6.672 
-13.522 -14.3784 -10.699 -9.092 -10.293 -9.8765 -6.9295 -6.9295 -7.1115 -6.818501 -4.823 -14.8335 -17.4728 -21.3491 -24.6321 -15.4328 -11.1209 -14.5658 -16.8358 -19.3733 -17.8726 -16.169 -11.4445 -10.0285 
-18.6379 -14.3799 -10.699 -10.3055 -10.3085 -10.1345 -6.9295 -7.1575 -7.1115 -6.818501 -14.8335 -23.3438 -21.3491 -24.6321 -24.7151 -20.5507 -16.4642 -19.4305 -22.0759 -23.1268 -20.4396 -17.06 -14.957 
