-4.759 
n/a 
n/a 
n/a 
n/a 
-4.759 
n/a 
n/a 
n/a 
n/a 
-4.759 
n/a 
n/a 
n/a 
n/a 
-4.759 
n/a 
n/a 
n/a 
n/a 
-2.985 -4.6825 -3.251 -4.2745 -5.7865 -3.7745 -3.8735 0 -6.013 -1.756 -3.135 -3.355 -1.7565 -8.027 0 
-7.3025 -7.339001 -7.2045 -8.307001 -9.569 -7.003 -3.8735 -6.013 -7.4925 -4.5755 -6.2565 -3.725 -9.340501 -8.027 
-9.47 -9.863501 -11.9018 -12.5147 -13.7281 -7.003 -7.662 -7.4925 -10.031 -7.909 -6.377 -12.0234 -9.340501 
-12.1125 -14.8322 -16.1095 -16.6738 -13.7281 -10.513 -10.111 -10.031 -13.5733 -8.096001 -15.1418 -12.0234 
-17.0812 -19.0399 -20.2686 -16.6738 -17.2381 -12.962 -12.6495 -13.5733 -13.7603 -16.7308 -15.1418 
-2.985 -4.9295 -4.63 -2.925 -1.7695 -3.7745 -3.8735 0 -6.013 -1.756 -3.135 -4.418 -1.7565 -5.6305 
-7.574501 -10.0315 -7.351 -3.71 -5.924 -7.003 -3.8735 -6.013 -7.4925 -4.5755 -6.5325 -5.347 -6.561501 
-12.9505 -12.9833 -7.4835 -8.3385 -8.975 -7.003 -7.662 -7.4925 -10.031 -8.247001 -7.283501 -10.199 
-15.9023 -13.1158 -12.6302 -11.6763 -8.975 -10.513 -10.111 -10.031 -13.9113 -8.817 -12.5749 
-16.0348 -18.2625 -15.968 -11.6763 -12.673 -12.962 -12.6495 -13.9113 -14.4813 -14.0122 
-3.0365 -4.6825 -3.152 -4.196 -5.7865 -3.9785 -3.8735 0 -8.804501 0 -1.756 -3.074 -1.4985 -3.9035 -1.7565 -5.6305 
-9.052501 -7.5275 -6.0035 -10.411 -9.654501 -8.237 -3.8735 -8.804501 -8.804501 -1.756 -4.566 -4.6505 -5.498 -4.616 -6.561501 
-12.1807 -10.0315 -12.9331 -14.279 -14.0792 -8.237 -13.67 -8.804501 -9.7095 -4.566 -5.66 -8.611 -6.046 -9.108 
-14.6847 -17.1181 -16.8011 -18.7037 -14.0792 -18.6791 -13.67 -9.7095 -13.0241 -5.66 -9.587501 -9.143001 -10.83 
-21.7713 -20.9861 -21.2258 -18.7037 -24.5213 -18.6791 -14.575 -13.0241 -14.1181 -9.587501 -10.136 -14.0256 
-2.985 -4.0965 -7.5405 -1.7695 -3.7745 -3.355 -1.7565 -3.8735 0 -6.013 -1.756 -3.135 -3.9035 -1.7565 -5.6305 -3.6245 
-7.458 -12.5898 -9.0635 -5.924 -6.2975 -3.725 -5.112 -3.8735 -6.013 -7.4925 -4.5755 -5.793 -4.616 -6.561501 -9.4005 
-16.6111 -14.1128 -13.4392 -9.4585 -6.3705 -7.186501 -5.112 -7.662 -7.4925 -10.031 -7.2415 -5.955501 -9.108 -10.5425 
-18.1341 -18.4885 -16.9737 -9.5375 -9.234 -7.186501 -9.0755 -10.111 -10.031 -10.762 -7.3885 -10.361 -13.2282 
-22.5098 -22.023 -17.0527 -12.2418 -9.234 -11.6656 -11.7997 -12.6495 -10.762 -10.784 -11.7172 -14.4812 
