-4.759 
n/a 
n/a 
n/a 
n/a 
-4.759 
n/a 
n/a 
n/a 
n/a 
-4.759 
n/a 
n/a 
n/a 
n/a 
-4.759 
n/a 
n/a 
n/a 
n/a 
-3.4765 -3.929 -1.4985 -5.1845 -4.02 -2.186 -3.689 -3.1575 -2.6615 0 -1.4985 -4.348 -3.5435 -2.8645 -3.43 -5.1845 -2.5045 -1.4985 -3.4075 -3.6885 
-4.589 -4.8985 -6.5205 -8.144 -5.624 -4.993 -4.168 -5.056 -2.6615 -1.4985 -6.117001 -7.107 -5.259501 -4.9155 -9.6505 -8.093 -3.583 -4.118 -6.5955 
-5.3395 -9.7565 -8.448501 -9.658 -7.7765 -5.2735 -5.505 -5.056 -4.8885 -6.117001 -7.4125 -8.384501 -6.861 -10.6735 -12.5218 -9.274 -6.1225 -7.131001 
-10.3475 -11.7521 -9.977501 -11.8105 -7.875 -6.824 -5.505 -7.4195 -9.5495 -7.4125 -8.407001 -10.0375 -12.9562 -13.5448 -13.7028 -12.0669 -8.184501 
-12.4275 -13.2811 -12.13 -11.909 -9.3795 -6.824 -7.7605 -12.3343 -10.7615 -8.407001 -10.06 -16.2069 -15.8275 -14.7258 -16.4957 -14.1289 
-3.7515 -2.5685 0 -4.348 -3.7875 -6.4735 -3.689 -3.1575 -2.6615 0 -1.7565 -2.985 -4.02 0 -4.3215 -5.1845 -2.5045 -2.871 -1.7565 -2.985 -3.4075 -3.6885 0 
-5.411 -2.5685 -4.348 -8.518 -10.932 -10.647 -4.168 -5.056 -2.6615 -1.7565 -3.9355 -6.726 -4.02 -4.3215 -10.4345 -8.093 -4.7085 -3.5385 -3.9355 -6.1175 -6.5955 -3.6885 
-5.411 -7.4405 -8.518 -15.7721 -15.1055 -11.126 -5.505 -5.056 -4.7915 -3.9355 -7.3065 -6.726 -9.2795 -10.4345 -13.343 -10.0475 -4.9525 -5.547 -6.9585 -8.3765 -6.5955 
-10.6875 -12.5607 -15.7721 -19.9456 -15.5845 -12.463 -5.505 -6.306 -6.7685 -7.3065 -7.3065 -12.3679 -15.5611 -13.343 -15.2975 -10.094 -6.7165 -8.678 -9.686501 -8.3765 
-15.8077 -19.8148 -19.9456 -20.4246 -16.9215 -12.463 -6.668 -7.7755 -9.291 -7.3065 -13.0518 -18.6495 -18.4696 -15.2975 -15.344 -12.6468 -9.6105 -11.7012 -9.686501 
-3.9485 -2.356 -2.3615 0 -1.934 -2.985 -3.59 -4.02 -2.186 -3.689 -3.1575 -2.6615 0 -9.6365 -3.333 -2.5045 -4.348 0 -4.5065 -8.242001 -5.1845 -2.186 -1.8085 -3.4075 -3.6885 
-4.311 -4.2185 -2.3615 -1.934 -4.111 -5.6905 -7.505 -5.624 -4.993 -4.168 -5.056 -2.6615 -9.6365 -13.0957 -4.623 -7.014501 -4.348 -4.5065 -13.8475 -14.0027 -7.895 -3.164 -4.782001 -6.5955 
-5.9935 -4.2185 -4.886 -4.111 -6.3825 -10.2755 -9.34 -7.7765 -5.2735 -5.505 -5.056 -12.834 -13.0957 -14.3857 -9.301001 -7.014501 -6.6085 -13.8475 -19.6082 -16.7132 -8.701 -5.7735 -7.783 
-5.9935 -6.1385 -6.9805 -6.3825 -10.7595 -12.1105 -11.5359 -7.875 -6.824 -5.505 -16.2247 -16.2932 -14.3857 -19.0637 -9.301001 -10.016 -16.7683 -19.6082 -22.3187 -17.5192 -11.7501 -9.0935 
-8.9565 -8.803 -9.873501 -10.7595 -12.5945 -14.3064 -11.6344 -9.3795 -6.824 -16.8533 -19.6839 -17.5832 -19.0637 -19.0637 -12.5141 -20.261 -22.529 -22.3187 -23.1247 -20.5683 -15.0701 
-3.7515 -2.5685 0 -2.4265 -2.186 -4.703 -1.7695 -3.6595 -2.3335 -4.39 -3.115 -4.348 -2.9705 -2.674 -8.27 -4.912 -3.689 -3.1575 -2.6615 0 -1.7565 -1.4985 -4.02 -2.674 -4.5385 -5.1845 -2.5045 -1.8085 -3.4075 -3.6885 0 
-5.411 -2.5685 -2.4265 -3.292 -5.6485 -5.6605 -5.264 -4.406 -7.239 -7.028501 -7.572001 -7.401 -4.904 -12.4858 -13.6088 -9.0765 -4.168 -5.056 -2.6615 -1.7565 -2.4195 -4.914001 -6.7955 -6.3945 -10.2235 -8.093 -3.3625 -4.782001 -6.5955 -3.6885 
-5.411 -5.1845 -3.292 -6.175 -6.0415 -8.5505 -5.5015 -9.925501 -8.674001 -9.4455 -9.368001 -9.184501 -15.145 -17.8246 -17.7733 -9.337001 -5.505 -5.056 -4.7915 -2.4195 -5.2775 -7.298 -10.822 -12.6635 -13.132 -9.0555 -6.1265 -7.783 -6.5955 
-6.976 -6.029 -6.175 -6.682 -8.6495 -8.66 -10.434 -11.3605 -11.4366 -11.4653 -10.648 -19.3445 -20.4838 -21.9891 -18.0338 -11.0214 -5.505 -6.306 -5.5265 -5.2775 -7.364 -11.4395 -17.091 -15.572 -14.0945 -10.2235 -8.525001 -7.783 
-7.4645 -9.066501 -6.682 -8.658501 -8.750501 -13.7149 -11.869 -14.1231 -13.4564 -12.7453 -20.808 -24.6833 -24.6483 -22.2496 -19.7182 -11.0214 -6.668 -6.64 -7.2095 -7.364 -11.5239 -17.7085 -19.9995 -16.5345 -15.2625 -10.3245 -8.525001 
