-4.759 
n/a 
n/a 
n/a 
n/a 
-4.759 
n/a 
n/a 
n/a 
n/a 
-4.759 
n/a 
n/a 
n/a 
n/a 
-4.759 
n/a 
n/a 
n/a 
n/a 
-3.288 -3.0575 0 -3.2615 -3.7145 -3.277 0 -4.9655 -5.128 -3.458 -3.8735 -1.756 -4.756 -5.1125 0 
-5.1055 -3.0575 -3.2615 -7.663 -6.622 -3.277 -4.9655 -7.238 -7.3435 -6.666 -5.3865 -6.7415 -8.916 -5.1125 
-5.1055 -6.824 -7.663 -7.8875 -6.622 -8.8575 -7.238 -8.679501 -10.078 -6.711 -7.363501 -11.5313 -8.916 
-8.692 -11.4219 -7.8875 -7.8875 -12.4811 -11.3706 -8.679501 -11.5942 -10.132 -8.389501 -12.3461 -11.5313 
-13.4401 -11.6464 -7.8875 -14.4212 -14.9942 -12.8121 -11.5942 -11.6482 -11.6745 -13.5163 -12.3461 
-3.288 -3.0575 -3.2615 -9.05 -4.297 -3.1335 -5.024 -3.458 -3.8735 -1.756 -4.756 0 
-5.1055 -6.824 -11.046 -13.778 -5.976001 -7.772 -9.141001 -6.666 -5.3865 -6.7415 -4.756 
-8.692 -14.8049 -15.774 -15.457 -11.3083 -12.2084 -12.4358 -6.711 -7.363501 -6.7415 
-16.8231 -19.5329 -17.453 -20.7893 -15.7447 -15.5032 -12.4808 -8.389501 -7.363501 
-21.5511 -21.2119 -22.7853 -25.2257 -19.0395 -15.5482 -14.1593 -8.389501 
-3.288 -3.0575 0 -3.2615 -3.7145 -3.277 -1.4985 -4.297 -3.1335 -3.458 -4.756 -1.756 -3.8735 -5.1125 0 
-5.1055 -3.0575 -3.2615 -7.663 -6.622 -4.839 -5.24 -5.976001 -6.4475 -8.045 -6.595 -5.724 -8.490001 -5.1125 
-5.1055 -6.824 -7.663 -7.8875 -8.3325 -9.105 -7.4605 -7.684 -10.382 -8.122001 -7.6975 -11.0027 -8.490001 
-8.692 -11.4219 -7.8875 -9.519 -12.6935 -10.6745 -9.163 -11.7693 -10.535 -8.708 -13.1372 -11.0027 
-13.4401 -11.6464 -9.519 -13.9314 -14.263 -12.377 -13.3819 -11.9223 -10.778 -14.3071 -13.1372 
-3.288 -3.0575 0 -1.4985 -4.905 -3.09 -3.9535 -3.458 -9.271501 -1.756 -3.8735 -3.2615 -3.7145 -3.277 0 
-5.1055 -3.0575 -1.4985 -5.860001 -7.67 -7.61 -7.632501 -9.48 -7.453 -5.724 -7.034 -7.663 -6.622 -3.277 
-5.1055 -5.256001 -5.860001 -8.626501 -12.6416 -10.4425 -13.9126 -10.8965 -9.203501 -8.610001 -11.8385 -7.8875 -6.622 
-7.306 -9.661 -8.626501 -14.1261 -15.4741 -16.7226 -14.1096 -11.2735 -12.4799 -13.5983 -12.063 -7.8875 
-12.1232 -12.5063 -14.1261 -16.9586 -21.7542 -16.9196 -15.8726 -15.2845 -17.9068 -13.8228 -12.063 
