-4.759 
n/a 
n/a 
n/a 
n/a 
-4.759 
n/a 
n/a 
n/a 
n/a 
-4.759 
n/a 
n/a 
n/a 
n/a 
-4.759 
n/a 
n/a 
n/a 
n/a 
-1.934 -3.691 -3.3715 -5.891 -3.1385 -3.511 -1.934 -3.0365 0 
-4.8225 -7.469501 -9.531501 -8.070001 -5.979 -4.582 -5.1375 -3.0365 
-7.947001 -13.9513 -11.8061 -10.419 -6.5055 -7.6955 -5.1375 
-14.4552 -16.2259 -14.1551 -10.9455 -9.553 -7.6955 
-16.7298 -18.5749 -14.6816 -13.993 -9.553 
-3.691 -2.186 -1.4985 -4.733 -1.7565 -3.6065 0 -3.849 0 -4.3705 -3.1385 0 
-5.832 -3.339 -6.153501 -6.5565 -4.8305 -3.6065 -3.849 -3.849 -4.3705 -6.575 -3.1385 
-6.955 -8.014 -7.044001 -9.517501 -4.8305 -8.4275 -3.849 -7.737 -6.575 -6.575 
-12.182 -8.299001 -9.975 -9.517501 -10.298 -8.4275 -7.737 -10.1345 -6.575 
-12.467 -10.66 -9.975 -15.1402 -10.298 -12.3913 -10.1345 -10.1345 
-3.6065 -3.9755 -1.7565 -4.2655 -3.1385 -3.8245 -1.934 -3.691 0 
-5.153 -4.312 -5.3855 -7.602 -5.577001 -4.7245 -4.8225 -3.691 
-5.1935 -8.4505 -8.689501 -10.361 -5.9835 -7.141 -4.8225 
-8.875 -12.0209 -11.7479 -10.462 -8.558001 -7.141 
-12.8006 -15.0793 -11.8489 -13.3557 -8.558001 
-1.934 -3.691 -3.1385 -2.5195 -3.948 -10.0975 -2.4945 -3.8245 
-4.8225 -6.927501 -5.074 -5.454 -15.0759 -12.6804 -5.751 
-8.253 -8.583 -7.3195 -17.0997 -17.6588 -15.9369 
-9.738001 -10.9587 -19.6362 -19.6826 -20.9153 
-12.1137 -23.2754 -22.2191 -22.9391 
