-4.759 
n/a 
n/a 
n/a 
n/a 
-4.759 
n/a 
n/a 
n/a 
n/a 
-4.759 
n/a 
n/a 
n/a 
n/a 
-4.759 
n/a 
n/a 
n/a 
n/a 
-1.4985 -3.5125 -1.7565 -7.235 -3.9075 -4.232 -3.251 -1.7695 -3.1435 -4.399 0 
-4.7015 -4.312 -8.764 -8.561 -8.800501 -5.9925 -3.664 -4.49 -6.321 -4.399 
-4.846 -11.8617 -9.764 -13.7752 -9.491 -6.066501 -6.154 -7.596001 -6.321 
-12.7983 -12.8617 -15.0836 -14.4657 -9.606501 -8.394001 -8.330501 -7.596001 
-13.7983 -18.1813 -15.7741 -14.5812 -12.0508 -9.801001 -8.330501 
-1.934 -1.4985 -6.4185 -6.612 -4.0965 -2.985 -3.535 -4.9295 -3.152 -1.934 -12.16972 0 -12.16972 
-2.6125 -6.940001 -13.9071 -11.4135 -8.1425 -6.361 -8.7745 -8.269501 -4.9115 -15.11012 -12.16972 -12.16972 
-7.176001 -15.372 -18.7086 -15.4595 -11.6805 -12.0177 -12.9009 -9.9945 -18.68522 -15.11012 -24.33944 
-16.45 -20.1735 -22.7546 -18.9975 -17.3372 -16.1441 -14.6259 -23.91962 -18.68522 -27.27984 
-21.2515 -24.2195 -26.2926 -24.6542 -21.4636 -17.8691 -28.55102 -23.91962 -30.85494 
-1.934 -3.5905 -6.864 -2.229 -3.8405 -9.3585 0 -9.9965 -2.186 -2.985 -4.0165 -3.8195 0 
-5.709 -9.4385 -8.205501 -6.798501 -14.2014 -9.3585 -9.9965 -12.3771 -5.3955 -6.798 -6.796 -3.8195 
-12.2166 -11.0702 -13.6572 -17.4874 -14.2014 -19.5086 -12.3771 -15.5866 -9.537001 -9.447001 -6.796 
-13.8483 -16.5219 -24.3461 -17.4874 -24.3515 -21.8892 -15.5866 -19.7281 -12.216 -9.447001 
-19.3 -27.2108 -24.3461 -27.6375 -26.7321 -25.0987 -19.7281 -22.4071 -12.216 
-3.5905 -6.864 -3.9035 0 -9.3585 0 -1.756 -12.16972 0 -3.135 -1.7565 -3.5015 -1.7695 -3.535 -4.6555 0 
-9.4385 -11.5553 -3.9035 -9.3585 -9.3585 -1.756 -14.93432 -12.16972 -3.135 -3.9195 -4.97 -4.5585 -5.5315 -7.5585 -4.6555 
-14.42 -11.5553 -14.1836 -9.3585 -10.4765 -14.93432 -14.93432 -15.30472 -3.9195 -10.01 -7.329 -9.79 -9.4165 -7.5585 
-14.42 -21.8354 -14.1836 -10.4765 -23.65482 -14.93432 -18.06932 -16.08922 -10.01 -12.369 -12.5561 -13.675 -9.4165 
-24.7001 -21.8354 -15.3016 -23.65482 -23.65482 -18.06932 -18.85382 -22.17972 -12.369 -17.5961 -16.4411 -13.675 
