-4.759 
n/a 
n/a 
n/a 
n/a 
-4.759 
n/a 
n/a 
n/a 
n/a 
-4.759 
n/a 
n/a 
n/a 
n/a 
-4.759 
n/a 
n/a 
n/a 
n/a 
-1.4985 -3.638 -1.7565 -4.4515 -2.186 -4.4065 -3.3255 -4.9425 
-4.9385 -5.668 -6.639 -6.113501 -5.5895 -5.921 -7.404 
-6.114 -10.2135 -8.9125 -10.1616 -7.1955 -9.852501 
-10.9879 -12.487 -13.0386 -11.7676 -10.76 
-13.2614 -16.6131 -14.6446 -15.3321 
-3.7075 -3.638 -2.186 -3.0465 -1.7695 -2.664 -4.9315 -4.878 0 
-7.687 -5.627 -6.316 -4.532001 -4.185 -6.3295 -10.4035 -4.878 
-8.938001 -10.5975 -7.9845 -7.196501 -8.0155 -12.6797 -10.4035 
-14.1781 -12.266 -10.181 -11.3972 -14.5327 -12.6797 
-15.8466 -14.4625 -14.5775 -17.9144 -14.5327 
-3.7075 -2.229 -3.3435 -3.638 -2.186 -4.296 -2.3345 -4.3415 -4.729 0 
-5.5255 -5.0415 -6.858 -5.627 -5.484 -4.81 -6.7495 -6.671 -4.729 
-8.830501 -8.7235 -8.3925 -7.743501 -5.922 -8.06 -8.328501 -6.671 
-10.5135 -9.8225 -10.4425 -8.476501 -8.978001 -9.356501 -8.328501 
-10.549 -10.5365 -10.5365 -9.887001 -9.8085 -9.356501 
-3.7075 -2.229 -3.638 -2.7765 -2.489 -3.557 -2.3345 -4.563 -4.9635 0 
-5.5255 -5.6035 -6.506001 -3.495 -4.467 -5.518 -7.3085 -9.7995 -4.9635 
-7.105 -8.388 -6.8035 -4.7 -6.0875 -11.0024 -13.096 -9.7995 
-9.014501 -8.535501 -8.509001 -6.255 -12.4277 -16.7899 -13.096 
-9.269501 -10.7516 -9.8255 -12.9584 -18.2152 -16.7899 
