-4.759 
n/a 
n/a 
n/a 
n/a 
-4.759 
n/a 
n/a 
n/a 
n/a 
-4.759 
n/a 
n/a 
n/a 
n/a 
-4.759 
n/a 
n/a 
n/a 
n/a 
-12.16972 -8.827001 -12.16972 -12.16972 
-20.99672 -21.37692 -24.33944 
-33.54664 -33.54664 
-45.71636 
n/a 
-10.678 -1.756 -12.16972 -3.2495 -3.9755 0 
-12.8564 -14.93432 -15.41922 -5.5315 -3.9755 
-26.03472 -18.18382 -17.70122 -5.5315 
-29.28422 -20.46582 -17.70122 
-31.56622 -20.46582 
-10.678 0 -12.16972 -2.4945 -1.4985 -8.311501 
-10.678 -12.16972 -14.66422 -3.9315 -10.238 
-23.27012 -14.66422 -16.10122 -13.1978 
-25.76462 -16.10122 -25.36752 
-27.20162 -25.36752 
-5.947001 -6.8715 -1.756 -8.439 -6.8715 -2.7415 -12.16972 
-13.2021 -8.475 -10.7025 -15.9713 -9.3055 -16.27702 
-14.8056 -17.7525 -18.2348 -18.4053 -23.24862 
-24.0831 -25.2848 -20.6688 -32.34842 
-31.6154 -27.7188 -34.61192 
