-4.759 
n/a 
n/a 
n/a 
n/a 
-4.759 
n/a 
n/a 
n/a 
n/a 
-4.759 
n/a 
n/a 
n/a 
n/a 
-4.759 
n/a 
n/a 
n/a 
n/a 
0 -2.688 -3.6615 0 -2.6165 -4.3285 -3.7765 -2.229 -2.8645 -3.1125 -3.687 -2.9905 0 -3.135 -4.1145 -4.5745 -2.8645 -3.943 -2.356 -4.4265 -4.0395 0 
-2.688 -6.455 -3.6615 -2.6165 -5.818 -8.620501 -7.29 -5.659 -3.5345 -5.981501 -5.673 -2.9905 -3.135 -7.617001 -7.757 -7.5475 -8.7025 -6.3275 -5.8925 -7.763 -4.0395 
-6.455 -6.455 -6.7895 -5.818 -9.7185 -12.2586 -11.1682 -6.4105 -6.547 -6.913001 -5.673 -5.4545 -7.617001 -9.783001 -11.4062 -13.6837 -11.3036 -10.016 -9.334001 -7.763 
-6.455 -9.616001 -9.837501 -9.7185 -13.5578 -16.1368 -11.9197 -9.700001 -7.48 -6.913001 -7.651501 -10.3345 -9.783001 -13.7092 -17.5424 -16.2848 -14.9921 -13.4575 -9.334001 
-9.616001 -12.7646 -13.8812 -13.5578 -17.436 -16.8883 -15.2092 -10.72 -7.48 -9.799001 -12.9309 -12.7247 -13.7092 -19.8454 -20.1435 -19.9733 -18.4336 -13.4575 
-1.4985 -4.278 -4.174 -2.9195 -3.8995 -2.7455 -3.228 -2.915 0 
-6.1565 -8.404001 -8.1835 -5.272 -5.7805 -6.3245 -7.6635 -2.915 
-9.804501 -12.8315 -10.4035 -7.375 -10.361 -11.7626 -7.6635 
-14.5066 -15.0515 -12.5065 -12.0793 -16.0207 -11.7626 
-16.7266 -17.1545 -17.2108 -17.739 -16.0207 
-4.0775 -3.6615 -2.9775 -4.598 -1.7565 -3.7765 -1.756 -4.268 -1.7565 -3.135 -4.1145 -2.229 -4.5745 
-8.621 -6.953 -8.8935 -4.855 -6.753 -5.777 -6.2815 -7.445 -4.6765 -7.617001 -6.818501 -7.0925 
-12.3179 -13.5196 -9.2495 -11.0533 -8.621 -11.6743 -8.9425 -9.481 -9.206 -9.708 -12.372 
-18.8845 -13.8756 -15.7734 -12.9213 -14.7541 -14.3353 -11.0705 -13.9441 -12.0648 -15.3265 
-19.2405 -20.3995 -17.6414 -19.0544 -17.4151 -16.4633 -15.5336 -16.8029 -17.6833 
-2.7835 -3.634 -3.6615 -3.64 -2.674 -3.687 -3.754 0 -2.4265 -3.1425 -2.489 -4.465 -2.3345 -3.135 -4.1145 -4.5745 0 
-7.344 -4.866 -8.0015 -6.4145 -5.5825 -7.197001 -3.754 -2.4265 -4.211 -3.7875 -5.727 -5.2135 -5.141 -7.617001 -7.757 -4.5745 
-9.269501 -8.786 -11.285 -10.085 -8.1815 -7.197001 -6.1055 -4.211 -4.546 -7.6185 -6.216 -7.9585 -9.964001 -9.783001 -7.757 
-13.9007 -12.8299 -14.9555 -12.684 -8.1815 -10.564 -7.5805 -4.546 -9.080001 -7.866 -8.7775 -13.0897 -10.5905 -9.783001 
-17.9446 -16.5004 -17.5545 -12.684 -11.7549 -12.039 -7.8585 -9.080001 -9.3275 -10.532 -13.9823 -13.7162 -10.5905 
