-4.759 
n/a 
n/a 
n/a 
n/a 
-4.759 
n/a 
n/a 
n/a 
n/a 
-4.759 
n/a 
n/a 
n/a 
n/a 
-4.759 
n/a 
n/a 
n/a 
n/a 
-4.712 -12.16972 -4.4995 0 -1.4985 -4.462 -1.7565 -5.3085 -2.742 -4.397 -2.0935 -2.5685 -3.1385 -5.5495 -1.934 -1.4985 -4.1115 -4.675 -3.8195 -1.7565 -4.317 -3.959 
-18.11232 -16.66922 -4.4995 -1.4985 -5.594501 -5.1505 -6.896501 -7.868501 -5.4265 -6.229001 -3.987 -5.4325 -7.302001 -5.777 -2.6125 -4.843 -6.957001 -7.698 -4.542 -5.877 -6.091001 
-22.61182 -16.66922 -6.12 -5.594501 -5.9005 -9.4975 -10.064 -10.1635 -7.400001 -7.946001 -6.3385 -8.9715 -7.519001 -6.22 -6.0655 -7.203 -10.31 -8.668 -8.962501 -7.64 
-22.61182 -18.28972 -9.842001 -5.9005 -10.4585 -13.08 -12.747 -12.2534 -8.802 -10.2535 -9.72 -9.113501 -7.954 -10.2535 -9.4585 -10.8774 -11.28 -13.3949 -10.2185 
-24.23232 -22.01172 -10.257 -10.4585 -14.041 -15.763 -14.8369 -13.6554 -11.4683 -13.635 -9.785501 -9.5155 -12.1221 -13.6465 -13.2055 -11.8474 -16.0069 -14.6509 
-4.712 -3.995 -5.2425 -4.638 0 -4.462 -2.7455 -5.3085 -2.742 -2.489 -4.0225 -1.7695 -1.4985 -4.317 -3.1385 -3.8245 -3.9615 -6.0515 0 
-9.861 -7.2275 -9.043 -4.638 -4.462 -7.025001 -8.279501 -7.868501 -3.301 -5.738 -4.9235 -2.7955 -5.569 -7.0565 -5.577001 -6.5155 -9.257 -6.0515 
-13.3337 -10.5535 -9.043 -9.726 -7.025001 -12.9442 -11.1001 -8.7465 -6.1835 -6.387 -5.748 -6.964001 -8.411001 -9.236 -7.514 -12.4056 -9.257 
-16.6597 -10.5535 -14.349 -12.4296 -12.9442 -15.7648 -11.9781 -11.7542 -6.8545 -7.1555 -10.2235 -9.619501 -10.7613 -11.3266 -13.6441 -12.4056 
-16.6597 -15.8595 -17.0526 -18.3488 -15.7648 -16.6428 -14.9858 -12.4252 -7.4985 -11.8364 -13.1024 -12.0628 -12.8519 -17.4567 -13.6441 
-5.6255 -1.934 -1.4985 -4.317 -3.959 0 -3.0365 -2.742 -2.489 -1.4985 -4.462 -1.7565 -1.4985 -5.3085 -4.712 -3.0365 -2.186 -4.8345 -1.934 -1.4985 -3.892 0 
-7.2025 -2.6125 -5.569 -6.091001 -3.959 -3.0365 -4.668 -3.301 -3.9675 -5.594501 -5.1505 -2.4195 -6.114 -10.168 -6.323501 -3.66 -7.913501 -6.0035 -2.6125 -4.68 -3.892 
-8.051001 -6.5955 -7.505501 -6.091001 -6.476 -4.668 -4.759501 -4.8715 -8.249001 -5.9005 -6.147501 -6.912001 -11.4791 -10.375 -6.552001 -9.7935 -10.0575 -7.150001 -5.113501 -4.68 
-12.4186 -8.2285 -7.505501 -8.5275 -8.1545 -4.759501 -6.875501 -9.498 -8.485001 -6.792 -10.2695 -12.4629 -11.6861 -10.3865 -13.1691 -12.0133 -10.755 -8.493501 -5.113501 
-14.0516 -8.2285 -9.9055 -10.233 -8.281501 -6.875501 -10.494 -9.886001 -9.3985 -11.1592 -15.8204 -12.6699 -11.6976 -18.5236 -15.3889 -12.7108 -12.0985 -8.493501 
-2.674 -3.383 -5 0 -1.934 -4.0195 -1.934 -4.8345 -4.317 -1.756 -4.1115 -4.9225 -2.4945 -5.8165 -3.277 -2.0935 -5.3085 
-5.6065 -9.366501 -5 -1.934 -7.165 -6.25 -6.849 -9.8225 -5.9925 -5.7375 -7.8225 -6.9525 -7.384 -7.877501 -4.957 -7.0525 
-12.4386 -9.366501 -6.4405 -7.165 -9.305501 -11.7148 -12.7682 -11.6468 -10.4945 -9.5835 -10.0715 -12.16 -10.096 -10.634 -10.6132 
-12.4386 -11.0374 -12.4703 -9.305501 -14.9723 -17.634 -14.5925 -16.1488 -14.7579 -11.8803 -15.279 -14.872 -12.8525 -16.2902 
-14.1095 -17.0672 -14.6108 -14.9723 -20.8915 -19.4583 -19.0945 -20.4122 -17.0547 -17.0878 -17.991 -17.6285 -18.5087 
