-4.759 
n/a 
n/a 
n/a 
n/a 
-4.759 
n/a 
n/a 
n/a 
n/a 
-4.759 
n/a 
n/a 
n/a 
n/a 
-4.759 
n/a 
n/a 
n/a 
n/a 
-1.934 -4.6625 -5.0235 -3.8755 -4.269 -3.9205 -2.5045 -12.16972 
-6.565 -7.438001 -7.992001 -9.0185 -7.593 -4.449 -15.59162 
-9.887501 -10.019 -14.0564 -12.4451 -8.618 -17.26692 
-12.5475 -16.3008 -17.483 -13.4701 -21.54452 
-18.8293 -19.7274 -18.508 -26.39662 
-2.7835 -2.7295 -3.5185 -5.2915 -3.3425 -4.6625 -3.757 -2.925 -2.674 -3.849 -2.5045 0 -4.6625 -5.2915 -4.169 0 
-4.405 -5.843 -9.6665 -9.1145 -7.8415 -9.0695 -5.8745 -4.1785 -5.9075 -6.305 -2.5045 -4.6625 -9.8125 -9.989 -4.169 
-7.511001 -12.3754 -14.1227 -13.6743 -12.6831 -10.718 -6.9665 -7.4525 -9.144501 -6.305 -7.1625 -9.8125 -14.51 -9.989 
-14.5172 -16.8316 -18.6825 -18.5159 -14.3316 -11.81 -10.5679 -10.3885 -9.144501 -11.0666 -12.7171 -14.51 -14.51 
-18.9734 -21.3914 -23.5241 -20.1644 -15.4236 -15.4114 -13.5039 -10.3885 -14.1077 -16.6212 -17.4146 -14.51 
-1.4985 -3.729 -2.7415 -4.0835 -2.5195 -4.6625 0 -4.281 -2.5045 -12.16972 0 
-4.763 -5.9115 -5.341001 -6.003 -7.131001 -4.6625 -4.281 -5.893 -15.59162 -12.16972 
-6.2665 -7.176 -7.0245 -9.753501 -7.131001 -9.734001 -5.893 -19.34092 -15.59162 
-7.748 -9.4335 -11.0742 -9.753501 -12.6369 -11.4152 -19.34092 -19.34092 
-10.034 -13.4072 -11.0742 -15.3042 -14.3181 -24.86312 -19.34092 
-3.45 -3.0695 -6.0675 -3.594 -1.934 -4.4925 -2.186 -3.849 -2.5045 0 -12.16972 0 
-4.273 -8.527 -8.851501 -5.373 -6.024 -6.245 -4.8565 -6.305 -2.5045 -12.16972 -12.16972 
-10.733 -11.9126 -10.204 -10.1425 -7.9245 -8.900001 -7.104 -6.305 -15.59162 -12.16972 
-14.1186 -13.2651 -15.7147 -12.043 -10.4505 -11.2843 -7.104 -19.49572 -15.59162 
-15.4711 -18.7758 -17.6152 -14.569 -12.8348 -11.2843 -20.42452 -19.49572 
