-4.759 
n/a 
n/a 
n/a 
n/a 
-4.759 
n/a 
n/a 
n/a 
n/a 
-4.759 
n/a 
n/a 
n/a 
n/a 
-4.759 
n/a 
n/a 
n/a 
n/a 
-2.872 -2.0935 -2.3615 -4.6955 -3.6705 -3.7015 -1.4985 -4.1785 -4.153 -6.074 -2.3345 -1.4985 -3.7075 -1.756 -2.8965 -5.2365 -2.264 -1.4985 -6.055501 -1.7565 -1.4985 -5.936 -2.264 -3.995 0 -1.4985 -4.764 -1.7565 -1.4985 -3.995 -3.1425 -2.674 -3.7905 -5.192 -1.756 -5.9735 -4.8315 0 -3.135 -4.493 -3.711 -3.9765 -2.3335 -3.115 -2.4265 -4.4995 -2.264 -1.4985 -4.8 0 -2.4265 -3.1425 -2.674 -5.631 -6.3425 -3.6615 -2.264 -3.995 -2.0935 -2.645 -3.1575 -1.8085 -3.748 -3.277 0 
-4.8935 -3.854 -7.4645 -8.578501 -6.585501 -4.3435 -5.3315 -6.6225 -7.125 -6.661 -3.233 -4.6235 -5.318 -3.751 -6.56 -7.639501 -2.9195 -6.5065 -7.541501 -2.4195 -6.1495 -7.968 -4.972 -3.995 -1.4985 -5.909 -5.776 -2.4195 -4.712 -6.5265 -4.2225 -5.123 -7.08 -6.452001 -7.162 -10.1905 -4.8315 -3.135 -7.968 -7.229 -7.571 -4.531 -5.892 -4.63 -5.4455 -6.209001 -2.9195 -6.112 -4.8 -2.4265 -4.211 -4.2225 -7.415501 -13.1121 -9.059501 -5.837501 -4.972 -6.1645 -3.883 -3.72 -4.4255 -5.1845 -5.8405 -3.277 
-6.627501 -8.944501 -11.6961 -11.8475 -7.238 -8.471001 -7.956501 -10.0925 -7.377501 -6.9875 -6.444 -5.845 -7.559 -7.622001 -8.949 -8.153501 -8.6695 -7.963 -8.073501 -6.8125 -8.066 -9.913 -4.972 -5.7605 -5.909 -6.313 -6.1685 -5.2205 -7.263 -7.8615 -6.941 -8.856001 -7.856 -9.612 -11.6196 -10.1905 -7.009501 -7.968 -8.9145 -10.76 -8.111501 -8.146501 -7.4885 -8.0705 -7.147 -6.778501 -7.500501 -6.112 -7.344501 -4.211 -5.3215 -8.699 -15.263 -15.8291 -11.3951 -8.431001 -6.941 -7.9315 -4.941 -4.8385 -6.3525 -6.686 -5.8405 
-12.0762 -13.3233 -14.9651 -12.5 -10.396 -10.3605 -10.316 -10.388 -7.706 -9.238501 -7.371 -7.8015 -8.9925 -9.7665 -9.513 -14.2333 -9.425001 -8.415501 -12.7535 -8.853001 -10.126 -9.913 -6.3765 -9.432501 -6.313 -6.753 -8.123 -7.914001 -8.284 -9.768001 -10.3035 -9.642 -11.351 -14.2644 -11.6196 -12.3947 -12.0819 -8.9145 -12.5827 -11.3005 -11.9712 -10.159 -10.76 -9.473001 -8.040501 -11.8939 -7.500501 -9.2235 -8.802 -5.3215 -9.546 -16.7437 -17.98 -18.1647 -13.9886 -10.426 -8.5865 -8.507501 -5.745501 -6.384 -8.311501 -6.686 
-16.455 -16.5923 -15.6176 -15.658 -12.2855 -12.72 -10.553 -10.541 -10.0944 -9.895 -9.157001 -9.149501 -11.3266 -10.413 -15.735 -14.9888 -9.9335 -13.1673 -14.794 -11.0116 -10.126 -11.4379 -10.2355 -9.662001 -6.753 -8.372001 -10.354 -8.9875 -10.057 -13.2081 -11.0895 -13.137 -16.0034 -14.2644 -13.8238 -17.4671 -13.0284 -12.5827 -13.1232 -15.1602 -13.9837 -13.8301 -12.1625 -10.1775 -13.2565 -11.8939 -10.3885 -11.3994 -9.676001 -9.546 -17.6671 -19.4607 -20.3156 -20.7582 -15.9836 -12.4219 -8.938001 -9.264 -8.197001 -8.514501 -8.311501 
-3.7075 -1.756 -2.8965 -4.3305 -4.174 -3.299 -4.8935 -3.518 -1.7695 -2.8965 -4.153 -4.625 -1.756 -2.4265 -3.6615 -3.995 -2.229 -4.8935 -3.518 0 -2.645 -5.117 -4.3305 -3.6245 -2.7765 -2.489 -4.3215 -1.756 -2.4265 -2.742 -3.4625 -3.2615 -3.135 -8.297 -3.277 0 
-5.318 -3.751 -7.446 -8.4935 -7.384501 -6.0175 -7.047501 -5.4885 -4.497 -7.5495 -7.814001 -5.8445 -3.949 -6.1035 -7.981501 -5.324 -7.312 -7.047501 -3.518 -2.645 -7.8535 -8.314501 -7.7885 -6.0505 -3.495 -5.414001 -5.659 -3.949 -4.095 -5.367001 -6.4345 -5.675 -12.663 -10.1635 -3.277 
-7.559 -9.1125 -12.0938 -12.0182 -10.6215 -8.7375 -8.731001 -8.43 -9.114501 -11.7067 -8.453001 -8.5285 -7.425 -11.0955 -9.1735 -11.7202 -9.261001 -7.047501 -6.558001 -7.8535 -11.7344 -12.1523 -10.4741 -6.867001 -6.009501 -6.3235 -8.022501 -5.276 -6.586 -7.882501 -8.898001 -15.7982 -14.5295 -10.1635 
-13.6079 -13.9143 -15.6185 -15.2552 -13.3415 -10.411 -11.8669 -13.3615 -13.6389 -12.3457 -11.774 -12.1735 -12.7196 -12.2875 -16.0147 -13.6692 -9.261001 -9.918 -12.3133 -11.7344 -15.5722 -14.8379 -11.2906 -10.085 -7.001501 -8.809501 -9.444 -7.675 -9.3315 -10.1185 -19.1 -17.6647 -14.5295 
-18.4097 -17.439 -18.8555 -17.9752 -15.015 -13.5469 -16.7984 -17.8859 -14.2779 -15.6667 -15.419 -17.4681 -13.9116 -19.1287 -17.9637 -13.6692 -12.2803 -16.0287 -16.1942 -15.5722 -18.2578 -15.6544 -14.5086 -11.077 -9.496501 -9.9405 -12.229 -10.5517 -11.6919 -20.3573 -20.9665 -17.6647 
-2.7835 -3.098 -3.0365 -2.7415 -2.847 -4.5855 -4.57 -1.7695 -5.618 -1.4985 -4.153 -1.7565 -1.4985 -3.7075 -1.756 -2.8965 -5.2365 0 -1.4985 -4.9375 -1.7565 -1.4985 -3.995 -3.1425 -2.674 -3.1125 -5.2295 -3.074 0 -2.4265 -3.1425 -2.674 -4.8635 -1.934 -5.0625 -3.6615 -2.0935 -3.2295 -3.748 -3.277 
-5.3295 -6.2745 -4.2225 -4.8165 -7.344 -8.3905 -5.413 -5.9075 -6.175 -5.274 -5.717 -2.4195 -4.6235 -5.318 -3.751 -6.56 -5.2365 -1.4985 -5.8885 -5.944 -2.4195 -4.712 -6.5265 -4.2225 -3.6315 -7.679501 -8.158001 -3.074 -2.4265 -4.211 -4.2225 -5.8425 -4.9455 -6.369 -8.6835 -5.47 -4.9135 -7.952001 -5.8405 
-7.054 -7.265 -4.944 -8.55 -11.4316 -8.576 -9.0625 -6.421 -7.8165 -6.134 -6.319001 -5.468501 -5.845 -7.559 -7.622001 -6.56 -6.8535 -5.8885 -6.566501 -6.2175 -5.2205 -7.263 -7.8615 -4.8755 -8.064 -11.0552 -8.158001 -5.653 -4.211 -5.3215 -6.818 -5.945 -8.752501 -10.396 -11.1522 -9.0085 -9.9755 -10.054 
-7.4335 -8.3 -8.5795 -12.7996 -11.6171 -10.7605 -9.637501 -8.012 -8.196 -6.644001 -9.560501 -6.535 -7.8015 -8.9925 -7.622001 -7.908 -10.3675 -6.566501 -6.744501 -7.3685 -7.914001 -8.284 -8.4905 -8.909501 -11.4791 -11.0552 -9.497001 -6.9325 -5.3215 -8.205501 -6.9275 -9.444 -12.9655 -13.4259 -14.6907 -14.2485 -12.0775 
-9.540001 -11.9691 -12.8409 -12.9851 -13.8016 -11.3355 -11.2641 -8.3555 -8.7845 -10.009 -10.844 -8.505501 -9.149501 -8.9925 -8.98 -11.653 -10.5975 -6.744501 -7.508 -9.681 -8.9875 -8.8675 -12.6463 -12.6248 -11.4791 -12.3942 -10.1915 -8.273001 -8.205501 -8.226001 -10.7139 -13.8968 -15.9954 -16.9644 -19.9307 -16.3505 
-3.7075 -3.7805 -1.756 -4.3305 -3.995 0 -5.936 -3.299 -4.2485 -3.6065 -1.934 -2.3615 -3.995 -1.934 -4.976 -2.264 -1.8085 -3.3365 -4.4515 -3.7465 0 -5.301 -3.3755 -1.7565 -3.748 -3.277 -1.934 -3.299 -3.6065 -3.135 -5.458 0 
-6.981 -5.1485 -6.729 -5.8005 -3.995 -5.936 -9.173 -5.627501 -8.394501 -5.6855 -3.539 -5.9625 -5.975 -7.642 -7.202001 -3.5925 -4.4295 -5.861 -7.488001 -3.7465 -5.301 -9.512 -4.5295 -6.934 -5.8405 -4.8125 -4.976501 -8.8255 -7.08 -8.168501 -5.458 
-8.0775 -10.459 -7.7205 -5.8005 -9.045501 -9.173 -11.9575 -10.4765 -10.4505 -7.1995 -7.878 -7.7615 -12.3716 -9.4235 -8.338 -6.0925 -6.788 -7.882 -7.488001 -8.8865 -9.512 -10.7496 -10.591 -8.4575 -7.702001 -7.5375 -11.3554 -12.3524 -12.5277 -8.168501 
-13.6274 -11.4505 -7.7205 -11.405 -12.4445 -11.9575 -16.8065 -12.5325 -11.9645 -11.9913 -9.690001 -14.4757 -14.1531 -10.6105 -11.0936 -7.9545 -8.333 -7.882 -12.9062 -13.5671 -10.7496 -16.8111 -12.1145 -9.885 -10.8342 -14.803 -14.8823 -17.8001 -12.5277 
-14.6189 -11.4505 -13.8132 -14.804 -15.229 -16.8065 -18.8625 -14.0465 -16.7563 -13.8033 -16.478 -16.2572 -15.3401 -13.3661 -12.9556 -8.659 -8.333 -13.5378 -17.5868 -14.8047 -16.8111 -18.3346 -13.542 -13.2766 -18.0997 -18.3299 -20.33 -17.8001 
