-4.759 
n/a 
n/a 
n/a 
n/a 
-4.759 
n/a 
n/a 
n/a 
n/a 
-4.759 
n/a 
n/a 
n/a 
n/a 
-4.759 
n/a 
n/a 
n/a 
n/a 
-12.16972 -3.757 -8.724501 0 -12.16972 -4.1465 0 
-15.92672 -13.7431 -8.724501 -12.16972 -16.31622 -4.1465 
-25.91282 -13.7431 -21.20422 -16.31622 -16.31622 
-25.91282 -26.22282 -25.35072 -16.31622 
-38.39254 -30.36932 -25.35072 
-12.16972 -4.977 -10.049 -12.16972 -4.1465 0 
-17.14672 -15.6354 -22.37672 -16.31622 -4.1465 
-27.80512 -27.96312 -26.52322 -16.31622 
-40.13284 -32.10962 -26.52322 
-44.27934 -32.10962 
-12.16972 -2.4285 -12.16972 0 -12.16972 0 -12.16972 -4.1465 0 
-14.59822 -15.55642 -12.16972 -12.16972 -12.16972 -12.16972 -16.31622 -4.1465 
-27.72614 -15.55642 -24.33944 -12.16972 -24.33944 -16.31622 -16.31622 
-27.72614 -27.72614 -24.33944 -24.33944 -28.48594 -16.31622 
-39.89586 -27.72614 -36.50916 -28.48594 -28.48594 
-8.724501 -3.849 -2.5045 -22.07422 -10.8075 0 -12.16972 -7.7175 -4.0135 -1.7565 -4.1465 -4.3665 -5.0185 -4.3055 -5.923 0 
-12.8835 -6.305 -25.49612 -33.08412 -10.8075 -12.16972 -20.20222 -10.9235 -4.201 -5.8335 -7.6475 -10.361 -10.3285 -7.0665 -5.923 
-15.3395 -29.40022 -36.50602 -33.08412 -22.97722 -20.20222 -23.47322 -11.403 -7.826001 -9.085 -14.305 -15.671 -13.0895 -7.0665 
-38.43472 -40.41012 -36.50602 -45.25384 -31.00972 -23.47322 -23.57272 -14.561 -10.3745 -15.6875 -19.615 -18.432 -13.0895 
-49.44462 -40.41012 -48.67574 -53.28634 -34.28072 -23.57272 -26.73072 -17.3679 -17.0842 -20.9975 -22.376 -18.432 
