-4.759 
n/a 
n/a 
n/a 
n/a 
-4.759 
n/a 
n/a 
n/a 
n/a 
-4.759 
n/a 
n/a 
n/a 
n/a 
-4.759 
n/a 
n/a 
n/a 
n/a 
-4.7855 -1.756 -3.873 -3.729 -8.0375 -1.7565 -3.511 -1.7695 -4.7615 0 
-5.7805 -5.383 -7.0835 -9.887501 -10.375 -5.6285 -5.814 -5.0705 -4.7615 
-9.467 -9.1455 -13.8802 -12.3142 -14.247 -8.461 -10.0545 -5.0705 
-13.3349 -15.987 -16.3069 -16.1862 -17.0795 -12.9773 -10.0545 
-20.1764 -18.4137 -20.1789 -19.0187 -21.5958 -12.9773 
-4.7855 -3.3425 -1.4985 -3.9195 -3.3035 -1.7695 -3.2345 -2.8195 -1.756 -4.657 
-7.613 -4.0125 -4.9505 -6.667 -5.16 -3.713 -6.506001 -4.6595 -6.066 
-8.651 -8.181001 -7.836 -8.7955 -7.069 -7.258 -8.6645 -8.4235 
-12.9047 -11.0423 -10.9755 -10.9619 -10.228 -9.1645 -12.9461 
-15.766 -14.1818 -13.1419 -14.1209 -12.1345 -13.3283 
-3.1385 -1.7565 -1.4985 -3.873 -1.934 -3.681 -2.9645 -1.934 -1.4985 -3.545 0 
-4.861 -2.4195 -4.7405 -5.468 -6.3805 -7.543 -4.6135 -2.6125 -4.401 -3.545 
-5.5655 -5.411 -6.374001 -10.3743 -10.6387 -10.199 -5.409 -5.1745 -4.401 
-7.3525 -6.852 -11.7109 -14.6325 -13.2947 -10.9945 -8.494 -5.1745 
-9.301001 -12.3239 -15.9691 -17.2885 -14.0902 -14.0795 -8.494 
-3.1385 -3.511 -1.934 -1.4985 -3.873 -2.3345 -3.9195 -4.4705 -3.3425 -3.9195 -3.8975 
-5.979 -4.582 -2.6125 -4.7405 -6.259501 -6.165 -8.3955 -7.9265 -7.921 -5.889 
-6.5055 -5.3785 -5.722 -7.012 -10.3475 -11.4422 -12.0527 -12.6092 -9.240001 
-7.1645 -7.6695 -8.181001 -11.4 -15.6247 -15.0994 -16.7354 -13.9282 
-10.0575 -10.9329 -12.8932 -16.6772 -19.2819 -19.7821 -18.0544 
