-4.759 
n/a 
n/a 
n/a 
n/a 
-4.759 
n/a 
n/a 
n/a 
n/a 
-4.759 
n/a 
n/a 
n/a 
n/a 
-4.759 
n/a 
n/a 
n/a 
n/a 
-2.3615 -3.59 -2.186 -6.3195 -1.934 -3.2495 -3.9035 -2.3345 -3.502 -4.1115 -1.7565 -3.8005 
-5.0215 -5.4475 -7.965501 -8.162001 -4.821 -5.7605 -6.128 -6.294 -6.412 -5.6415 -5.0365 
-6.27 -11.7082 -9.359001 -9.661 -6.4785 -7.875 -10.9077 -9.0445 -9.193001 -8.856501 
-12.8855 -13.1017 -10.4115 -10.525 -8.3675 -12.9317 -13.6582 -12.3617 -9.885 
-14.279 -14.1542 -10.7625 -12.414 -13.41 -15.6822 -16.9754 -13.0537 
-2.3615 -3.59 -2.8645 -4.7925 -2.3345 -3.2495 -3.9035 -2.3345 -3.502 -4.1125 -4.1115 
-5.0215 -5.794 -7.012 -5.537 -5.238 -5.7605 -6.128 -6.294 -8.2115 -8.449501 
-6.573 -9.8675 -9.634501 -7.481 -8.611 -7.875 -10.9077 -10.733 -9.486501 
-10.7495 -12.4596 -11.6631 -10.2425 -10.9437 -12.9317 -15.3467 -12.008 
-13.3416 -14.4882 -14.4246 -12.5752 -16.0004 -17.3707 -16.6217 
-2.3615 -3.59 -2.186 -4.7925 -3.222 -3.2495 -3.9035 -2.3345 -1.4985 -4.1115 -1.7565 -3.502 -3.8005 0 
-5.0215 -5.4475 -5.544001 -5.2095 -5.334 -5.7605 -6.128 -3.233 -4.843 -5.6415 -4.9855 -6.1245 -3.8005 
-6.27 -7.7005 -5.673501 -5.913 -6.3775 -7.875 -7.5235 -5.7655 -6.177 -9.278001 -7.6225 -6.1245 
-9.045 -7.897 -6.411 -6.7535 -8.2225 -8.5535 -10.347 -7.865 -9.576 -12.31 -7.6225 
-9.953 -9.163 -6.9915 -8.465 -8.693 -11.5058 -12.7371 -11.5844 -13.0502 -12.31 
-2.3615 -3.59 -2.186 -4.7925 -2.3345 -1.4985 -3.502 -3.8005 -4.1115 -3.222 -3.2495 -3.892 
-5.0215 -5.4475 -5.544001 -5.537 -3.233 -4.5955 -6.1245 -6.360001 -7.3835 -5.334 -7.778501 
-6.27 -7.7005 -6.747001 -5.9355 -6.5085 -6.63 -6.509 -9.4375 -9.529501 -9.9805 
-9.045 -9.188001 -7.132 -9.593 -8.4205 -6.742001 -9.628 -10.46 -14.35 
-10.322 -9.851001 -10.199 -9.856 -8.602 -9.654501 -10.5055 -16.0677 
