-4.759 
n/a 
n/a 
n/a 
n/a 
-4.759 
n/a 
n/a 
n/a 
n/a 
-4.759 
n/a 
n/a 
n/a 
n/a 
-4.759 
n/a 
n/a 
n/a 
n/a 
-9.0045 0 -4.2215 -3.539 -7.636 0 -8.630501 0 -4.4695 -4.681 
-9.0045 -4.2215 -6.560501 -10.3735 -7.55 -8.630501 -8.630501 -4.4695 -7.466001 
-13.4832 -6.560501 -12.0265 -9.330001 -17.0495 -8.630501 -13.4228 -7.466001 
-15.8222 -10.2035 -10.2035 -18.9221 -17.0495 -13.4228 -16.4193 
-19.4652 -10.2035 -20.0962 -18.9221 -21.8418 -16.4193 
-9.0045 0 -4.2705 -3.539 -7.636 -12.16972 0 -4.4695 -4.1865 -3.8195 -4.681 
-9.0045 -4.2705 -7.204 -10.3735 -20.32652 -12.16972 -4.4695 -7.6645 -6.8305 -7.058001 
-13.5322 -7.204 -12.5975 -22.36872 -20.58872 -16.63922 -7.6645 -9.547501 -8.8095 
-16.4657 -13.0347 -26.16602 -22.46132 -25.05822 -19.83422 -9.547501 -10.623 
-22.2964 -26.16602 -26.16602 -26.93082 -28.25322 -21.71722 -10.623 
-5.995 -5.805501 0 -4.2705 0 -3.539 -2.743 0 -4.893 0 -8.630501 0 0 -4.4695 -4.1865 -4.681 
-8.413501 -5.805501 -4.2705 -4.2705 -3.539 -5.566501 -2.743 -4.893 -4.893 -8.630501 -8.630501 0 -4.4695 -7.6645 -7.797 
-8.413501 -10.513 -4.2705 -7.204 -5.566501 -5.566501 -7.55 -4.893 -14.1303 -8.630501 -8.630501 -4.4695 -7.6645 -9.6555 
-13.343 -10.513 -7.204 -8.834001 -5.566501 -9.330001 -7.55 -14.1303 -14.1303 -8.630501 -13.4228 -7.6645 -9.6555 
-13.343 -13.4465 -8.834001 -8.834001 -9.330001 -9.330001 -17.0495 -14.1303 -14.1303 -13.4228 -16.6178 -9.6555 
-9.0045 0 -4.2705 0 -3.539 -2.743 0 -4.893 0 -8.630501 0 0 -2.186 -1.8085 -4.4695 -5.9175 -4.681 
-9.0045 -4.2705 -4.2705 -3.539 -5.566501 -2.743 -4.893 -4.893 -8.630501 -8.630501 0 -2.186 -3.164 -5.8105 -9.489 -9.026501 
-13.5322 -4.2705 -7.204 -5.566501 -5.566501 -7.55 -4.893 -14.1303 -8.630501 -8.630501 -2.186 -3.164 -6.77 -11.4892 -12.7716 
-13.5322 -7.204 -8.834001 -5.566501 -9.330001 -7.55 -14.1303 -14.1303 -8.630501 -10.985 -3.164 -6.77 -12.6605 -14.7718 
-16.4657 -8.834001 -8.834001 -9.330001 -9.330001 -17.0495 -14.1303 -14.1303 -10.985 -11.963 -6.77 -12.6605 -15.9431 
