-4.759 
n/a 
n/a 
n/a 
n/a 
-4.759 
n/a 
n/a 
n/a 
n/a 
-4.759 
n/a 
n/a 
n/a 
n/a 
-4.759 
n/a 
n/a 
n/a 
n/a 
-2.9805 -4.938 -3.748 0 -1.7565 -4.1855 -3.034 -2.9805 -4.68 -2.0935 -1.4985 -4.0105 -4.219 -1.7565 -1.4985 -4.4225 -3.6825 0 
-6.533501 -8.807 -3.748 -1.7565 -5.711 -7.336 -4.4605 -5.969501 -6.015501 -2.9725 -4.7015 -6.251 -5.549 -2.4195 -5.0975 -5.3855 -3.6825 
-10.494 -8.807 -6.1335 -5.711 -8.783501 -8.4235 -6.948 -6.948 -6.9395 -6.326 -6.9775 -8.002501 -6.355 -5.988 -5.812 -5.3855 
-10.494 -10.4345 -9.611501 -8.783501 -9.911 -9.5315 -7.4385 -7.712 -11.0082 -7.7555 -8.078501 -9.2405 -9.1415 -6.4715 -5.812 
-12.1215 -14.2545 -12.8166 -9.911 -10.762 -9.703501 -8.236 -12.0563 -12.4377 -8.177 -9.459001 -10.6095 -9.653501 -6.4715 
-1.934 -1.4985 -3.0835 -3.946 -1.7565 -4.219 -1.934 -3.3985 -3.3635 0 -4.5665 -3.6825 -3.7555 -3.748 0 -4.037 
-2.6125 -3.535 -7.016 -4.9965 -5.991001 -5.832 -4.924 -5.303 -3.3635 -4.5665 -5.489 -7.485001 -8.388 -3.748 -4.037 
-4.5575 -7.426001 -7.964 -9.5325 -7.821501 -7.9195 -6.548 -5.303 -7.577 -5.489 -8.979 -12.3145 -8.388 -7.9385 
-9.0235 -8.216001 -13.2402 -11.5558 -10.292 -9.250501 -6.548 -10.1305 -8.9175 -8.979 -13.9797 -12.3145 -12.9249 
-9.7155 -13.4132 -15.2635 -14.0263 -11.623 -9.250501 -11.5787 -11.9504 -13.2307 -13.9797 -13.9797 -16.8514 
-1.934 -3.3635 0 -4.0105 -4.219 -3.986 -3.9955 -1.934 -2.664 -4.9935 -5.806 -1.7565 -3.748 0 
-4.921 -3.3635 -4.0105 -6.251 -7.303 -6.5985 -6.0695 -4.0475 -5.782 -9.429001 -7.668 -5.998001 -3.748 
-4.921 -7.451 -6.251 -9.5695 -9.178 -8.328001 -8.204 -7.101 -9.691 -11.6776 -12.1479 -5.998001 
-9.0635 -8.257501 -9.5695 -10.282 -10.2815 -10.208 -10.292 -10.1505 -11.985 -16.1575 -12.1479 
-10.718 -10.322 -10.282 -10.4215 -10.421 -10.426 -10.428 -12.6905 -16.4649 -16.1575 
-1.934 -3.3985 -3.3635 -2.9805 -3.7555 -3.748 0 -1.7565 -4.1855 -1.4985 -4.085 -3.0835 -4.07 -1.7565 -4.219 0 
-4.924 -5.303 -6.203 -5.3095 -8.388 -3.748 -1.7565 -5.711 -6.193501 -4.7765 -7.528501 -5.278 -5.1955 -5.991001 -4.219 
-6.548 -8.009001 -8.714001 -9.675501 -8.388 -6.1335 -5.711 -7.091001 -9.553 -8.4175 -10.177 -5.951 -8.765 -5.991001 
-8.3055 -10.7008 -13.3824 -9.675501 -9.4475 -9.611501 -7.091001 -10.322 -13.4666 -11.3174 -11.1342 -9.574 -8.765 
-10.9701 -15.3692 -13.3824 -10.356 -13.4625 -11.1241 -10.322 -14.4446 -16.3665 -12.2746 -14.7572 -9.574 
