-4.759 
n/a 
n/a 
n/a 
n/a 
-4.759 
n/a 
n/a 
n/a 
n/a 
-4.759 
n/a 
n/a 
n/a 
n/a 
-4.759 
n/a 
n/a 
n/a 
n/a 
-4.138 -1.7565 -3.473 -3.1335 0 -4.185 -2.0935 -3.766 -3.432 -3.64 0 -6.316501 -1.756 -3.013 -3.2015 -2.9775 -3.486 -3.319 -1.7565 -3.776 -3.9915 0 -1.756 -2.871 -1.7565 -2.871 -3.5185 -1.4985 -3.571 -6.9475 -2.4285 -3.1495 -3.6055 -3.432 -4.503 -1.4985 -3.432 -2.9775 0 
-5.1845 -5.448 -5.8755 -3.1335 -4.185 -6.312 -5.5775 -8.43 -6.837501 -3.64 -5.3005 -7.4085 -5.4135 -7.467501 -6.141 -7.716001 -5.7975 -4.165 -5.3685 -7.224 -3.9915 -1.756 -4.514 -3.5385 -4.521 -6.99 -4.9765 -6.7215 -11.5433 -9.500501 -6.479001 -7.4575 -8.137001 -8.552 -5.6905 -4.829 -6.34 -2.9775 
-9.8025 -7.658 -5.8755 -7.326 -6.312 -10.1425 -11.1907 -12.1111 -6.837501 -10.01 -7.118001 -8.677501 -9.490001 -10.054 -11.6423 -10.6135 -6.1045 -8.208501 -8.758 -7.224 -5.1375 -4.514 -5.218 -7.393001 -9.446501 -8.6965 -9.908501 -14.9948 -14.0963 -13.737 -11.2046 -12.68 -13.741 -10.3345 -9.104 -8.302501 -6.34 
-12.7765 -7.658 -11.0336 -9.818501 -10.1425 -15.9511 -14.8718 -12.1111 -13.5145 -12.0151 -8.467501 -12.909 -12.4019 -15.9831 -14.5398 -10.9205 -9.978001 -11.8206 -8.758 -8.258 -8.0155 -5.218 -9.142501 -12.6423 -11.5184 -13.7539 -18.3638 -17.5478 -18.3328 -18.4626 -16.4271 -18.284 -15.5235 -13.748 -12.7681 -8.302501 
-12.7765 -13.2673 -13.5261 -13.7238 -15.9511 -19.6322 -14.8718 -18.7881 -15.5196 -13.3646 -14.3342 -17.2461 -18.331 -18.8806 -14.8468 -14.794 -13.8535 -11.8206 -9.622001 -11.351 -8.8365 -9.142501 -14.4998 -14.7142 -16.5758 -22.2092 -20.9168 -21.7843 -23.0584 -23.6851 -22.0311 -20.0665 -18.937 -17.4121 -12.7681 
-3.17 -1.7565 -1.4985 -3.16 -3.09 0 0 -5.803 -6.316501 0 -1.756 -3.013 -4.0995 -4.81 0 -9.3295 0 -2.4945 -4.439 -1.934 -3.486 -3.5495 0 -2.8965 -4.105 -2.871 -2.4285 -2.645 -3.9885 -2.4285 -3.1335 -3.6005 0 
-4.179 -2.4195 -4.0625 -4.8555 -3.09 0 -4.9945 -10.9225 -5.3005 -1.756 -5.4135 -7.863001 -8.256001 -4.81 -7.54 -7.54 -2.4945 -6.4575 -6.322001 -5.8505 -6.3925 -3.5495 -2.8965 -7.832 -6.6195 -4.4275 -4.1105 -7.550501 -6.277 -5.083 -6.754 -3.6005 
-4.497 -5.068501 -6.172501 -4.8555 -3.09 -4.9945 -10.4185 -10.4185 -7.118001 -5.4135 -9.0495 -12.9409 -8.256001 -11.7561 -5.944001 -9.021501 -6.4575 -7.501 -9.89 -9.035001 -6.3925 -6.9805 -7.832 -10.19 -7.701 -4.587 -9.3195 -10.4382 -9.407001 -8.421 -6.754 
-6.1515 -7.3875 -6.172501 -4.8555 -9.752001 -10.2875 -10.2875 -11.651 -8.467501 -9.0495 -15.4582 -12.9409 -15.8353 -11.7561 -8.990001 -12.5038 -7.501 -10.6595 -13.2913 -9.035001 -9.356 -12.789 -10.19 -11.4253 -7.921 -9.547501 -12.4404 -13.5682 -13.2988 -8.421 
-9.444 -7.3875 -6.172501 -12.2704 -15.1902 -10.2875 -12.8598 -14.5523 -13.8003 -15.4582 -15.4582 -20.5202 -15.8353 -14.8021 -13.2328 -15.1098 -10.6595 -14.0608 -13.2913 -12.0773 -15.6707 -15.147 -11.4253 -11.6453 -13.1335 -12.8006 -15.5704 -17.46 -13.2988 
-3.17 -1.7565 -1.4985 -3.16 -3.09 -2.674 -3.1435 -3.5205 -3.4605 -2.0935 -3.668 0 -6.316501 0 -1.756 -3.013 -4.0995 -3.7905 0 -4.2165 -13.589 0 -3.1495 -3.2495 -4.3625 -1.7695 -5.3285 -3.486 -3.4605 0 
-4.179 -2.4195 -4.0625 -4.8555 -5.922 -5.7465 -4.573 -5.8695 -5.0435 -3.995 -3.668 -5.3005 -5.3005 -1.756 -5.4135 -7.863001 -6.5085 -3.7905 -4.2165 -16.895 -12.1095 -3.1495 -4.8975 -7.1835 -6.0905 -8.428 -9.190001 -7.1745 -3.4605 
-4.497 -5.068501 -6.172501 -7.5935 -10.2185 -6.172 -7.174 -7.508 -7.2795 -3.995 -7.775001 -5.3005 -7.118001 -5.4135 -9.0495 -8.429001 -6.5085 -7.547 -15.6849 -15.6849 -14.6966 -4.8975 -8.5115 -8.774 -13.4906 -12.7641 -13.5971 -7.1745 
-6.1515 -7.3875 -9.549001 -12.2414 -10.644 -8.368501 -8.776501 -9.261001 -7.2795 -8.453 -7.775001 -7.118001 -8.467501 -9.0495 -9.078501 -8.429001 -9.964001 -17.7224 -15.6849 -19.7565 -16.5496 -8.5115 -10.31 -16.4331 -17.8267 -17.1712 -13.5971 
-9.444 -10.553 -14.3989 -12.6669 -12.8405 -10.2865 -10.6595 -9.261001 -12.1121 -8.453 -9.878 -8.467501 -13.8003 -9.078501 -9.078501 -12.7383 -20.2158 -17.7224 -19.7565 -21.6095 -20.3812 -10.31 -17.9691 -20.7692 -22.2338 -17.1712 
-3.17 -3.16 -4.2635 -2.4945 -3.354 -2.925 -3.2775 -2.3335 -3.5155 -1.4985 -3.7905 -4.238 0 -5.893001 0 -6.316501 0 -1.756 -1.4985 -3.013 -6.055501 0 -5.893001 0 -9.3295 0 -4.4195 -1.7695 -1.4985 -3.486 -3.4605 -3.769 -4.116 -2.871 -3.519 -2.4285 -1.4985 -2.8965 0 -2.4285 -2.925 -2.882 -3.347 -1.7695 -3.6065 -3.16 -3.609 0 
-6.3915 -5.7865 -5.8635 -5.232 -4.3775 -6.4635 -4.922 -5.3005 -4.496 -4.9115 -7.7165 -4.238 -4.0555 -4.0555 -5.3005 -5.3005 -1.756 -3.0405 -5.357 -7.878501 -6.055501 -4.0555 -4.0555 -7.54 -7.54 -4.4195 -4.535501 -2.7955 -3.5655 -7.1745 -8.018001 -6.999001 -6.724501 -6.02 -5.2595 -4.002501 -3.928 -2.8965 -2.4285 -5.361 -4.7805 -7.5815 -5.423 -5.3625 -6.6915 -4.601 -3.609 
-7.8605 -7.429501 -8.1155 -6.2735 -7.308 -7.7885 -7.48 -6.134 -8.137 -8.3065 -7.7165 -8.0465 -4.0555 -8.5225 -5.3005 -7.118001 -3.0405 -6.896 -8.501 -7.878501 -8.712501 -4.0555 -8.785001 -5.944001 -9.550501 -4.535501 -5.002 -5.0515 -7.2545 -12.1634 -11.7232 -9.457001 -9.591001 -6.5895 -7.0665 -5.6835 -3.928 -6.064 -5.361 -6.259501 -9.644 -7.9675 -8.213501 -8.2255 -7.375 -4.601 
-9.053 -8.943001 -8.355 -8.929501 -8.087501 -10.1805 -8.273001 -9.583 -11.9632 -8.3065 -10.2265 -8.0465 -8.189501 -8.189501 -7.118001 -8.078 -6.896 -10.163 -8.501 -10.473 -8.712501 -8.621501 -8.621501 -10.586 -10.679 -5.002 -6.7935 -8.266001 -12.2894 -15.8686 -14.1812 -10.751 -10.505 -8.111 -7.9325 -5.6835 -6.6885 -8.142 -6.259501 -10.4675 -10.1615 -9.5395 -10.6465 -8.729501 -7.375 
-10.299 -8.9575 -10.634 -8.993501 -10.4425 -10.54 -10.688 -13.4996 -11.9632 -10.273 -10.2265 -12.5571 -8.189501 -9.490001 -8.078 -10.4335 -10.163 -10.163 -10.617 -10.473 -10.6515 -8.621 -10.7575 -10.7215 -11.716 -6.7935 -10.5745 -13.4741 -15.9946 -18.3266 -15.4752 -10.7785 -10.7505 -8.1165 -7.9325 -7.4195 -8.561501 -8.969001 -10.4675 -10.612 -10.542 -10.7595 -10.779 -8.729501 
