-4.759 
n/a 
n/a 
n/a 
n/a 
-4.759 
n/a 
n/a 
n/a 
n/a 
-4.759 
n/a 
n/a 
n/a 
n/a 
-4.759 
n/a 
n/a 
n/a 
n/a 
-3.2615 -4.663 -3.5455 -4.255 -3.522 -1.7695 -4.369 -2.0935 -1.4985 -3.4225 -3.468 -4.293 0 -3.986 -4.3215 -3.091 -4.293 -4.1665 -1.934 -3.488 -3.428 0 
-7.465 -8.9615 -7.1225 -7.202 -5.742 -6.256001 -6.112501 -2.9725 -3.9655 -3.628 -6.1525 -4.293 -3.986 -6.989 -6.2485 -6.889 -6.717501 -5.8025 -4.9205 -5.4145 -3.428 
-12.3315 -12.7071 -9.7075 -8.5985 -10.4425 -8.162001 -6.9175 -5.709 -4.053 -6.1555 -6.1525 -7.598001 -6.989 -7.7405 -9.3435 -8.107 -8.046 -8.176001 -6.576 -5.4145 
-16.0771 -15.2921 -11.1044 -13.4934 -12.5949 -8.602501 -9.785001 -5.818 -6.4935 -6.1555 -9.435 -11.1154 -7.7405 -11.5419 -10.1315 -9.305 -10.533 -9.84 -6.576 
-18.6621 -16.689 -15.9993 -15.6458 -13.0354 -11.6776 -9.916 -7.554 -6.4935 -9.436501 -13.1424 -11.8669 -11.5419 -12.3299 -11.4511 -11.9206 -12.197 -9.84 
-3.986 -3.998 -3.2295 -2.0935 -6.3195 -4.285 -3.545 -1.934 -4.255 -3.522 0 -1.756 -3.9535 -8.311501 -1.934 -3.488 -3.428 
-7.913501 -7.3435 -5.6495 -7.6965 -11.5587 -6.5315 -5.182 -5.4475 -7.202 -3.522 -1.756 -5.4855 -10.8845 -9.786501 -4.9205 -5.4145 
-11.7398 -9.7995 -11.8361 -13.2717 -13.8052 -8.248501 -8.285 -7.561 -7.202 -5.399 -5.4855 -13.1325 -12.3595 -12.833 -6.576 
-14.1958 -16.1101 -17.4113 -15.5182 -15.5222 -10.4265 -10.8725 -7.561 -8.357 -8.6175 -13.1325 -14.6075 -15.406 -14.4885 
-20.5064 -21.6853 -19.6578 -17.2352 -17.7002 -13.697 -10.8725 -8.616 -11.7777 -16.3867 -14.6075 -17.654 -17.0615 
-1.934 -3.522 -3.986 -5.244 -1.8085 -4.463 -1.7695 -4.7595 -3.091 -4.948 -1.756 -5.247 -4.3215 -3.091 -5.831 -1.934 -3.428 0 
-5.0285 -8.6355 -9.553 -6.5425 -5.6085 -6.562 -5.005 -7.4385 -7.438 -6.1315 -6.805501 -7.106 -6.2485 -6.6105 -7.287001 -4.979 -3.428 
-8.960501 -10.361 -9.997001 -8.51 -7.193501 -9.301001 -7.6875 -10.0285 -8.7185 -12.0864 -8.738501 -8.111 -7.3815 -7.8915 -10.1765 -4.979 
-10.8676 -10.3725 -10.3675 -9.242001 -9.751 -10.3045 -10.142 -11.5658 -14.8368 -14.0194 -9.650001 -8.5825 -8.511001 -10.757 -10.1765 
-10.8791 -10.384 -10.379 -10.2145 -10.312 -10.3715 -11.8231 -17.6841 -16.7698 -14.9309 -9.977 -9.707001 -11.7279 -10.757 
-2.5195 -1.4985 -3.9785 -1.7565 -3.522 0 -2.9805 -3.5095 -2.7455 -6.3195 -1.934 -1.4985 -3.4975 -3.3785 -4.219 0 -1.756 -1.934 -3.488 -3.428 0 -3.986 -4.3215 -3.091 -4.219 -4.1665 0 
-3.1695 -4.496 -4.924 -5.616 -3.522 -2.9805 -6.650001 -4.731 -8.678 -8.132501 -2.6125 -4.3125 -6.679 -5.4025 -4.219 -1.756 -4.0205 -4.9205 -5.4145 -3.428 -3.986 -6.989 -6.2485 -6.423 -6.041 -4.1665 
-6.0535 -4.959 -8.3265 -5.616 -6.2725 -6.650001 -7.917 -10.586 -10.523 -8.625501 -5.731 -8.035501 -9.697001 -5.4025 -5.83 -4.0205 -7.047 -6.576 -5.4145 -8.530001 -6.989 -7.7405 -9.6295 -7.676001 -6.041 
-6.6455 -8.3395 -8.3265 -7.798 -10.6578 -7.917 -13.9568 -12.431 -11.016 -11.9974 -9.406501 -10.1425 -9.697001 -7.0185 -7.733001 -7.047 -8.588 -6.576 -9.874001 -10.181 -7.7405 -11.8279 -10.735 -7.676001 
-9.6785 -8.3395 -10.4765 -12.1901 -11.9248 -13.9568 -15.8018 -12.924 -14.3879 -15.6729 -11.9847 -10.1425 -10.4205 -8.7565 -10.1945 -8.588 -8.588 -9.8915 -10.7635 -10.7675 -11.8279 -12.9334 -10.735 
