-4.759 
n/a 
n/a 
n/a 
n/a 
-4.759 
n/a 
n/a 
n/a 
n/a 
-4.759 
n/a 
n/a 
n/a 
n/a 
-4.759 
n/a 
n/a 
n/a 
n/a 
-1.934 -3.5125 -4.2 -7.9545 -3.1015 -1.8085 -3.4795 0 -6.0755 -5.9885 -2.4945 -4.0385 -3.6215 -4.6105 -4.255 -4.153 0 
-5.129 -6.8425 -13.3979 -11.8946 -5.0505 -6.392 -3.4795 -6.0755 -6.37 -8.699 -8.492001 -8.134001 -7.7615 -8.696501 -6.9075 -4.153 
-9.468501 -16.7724 -17.338 -13.8436 -6.6635 -6.392 -9.967 -6.37 -9.371501 -14.8789 -12.8387 -13.187 -12.679 -10.1245 -6.9075 
-19.5538 -20.7125 -19.287 -15.4566 -6.6635 -13.1553 -10.4155 -9.371501 -15.6696 -19.2256 -18.1323 -17.6378 -15.5022 -10.8735 
-23.4939 -22.6615 -20.9 -15.4566 -13.7538 -13.6038 -13.6666 -15.6696 -20.0163 -24.5192 -22.3425 -20.2198 -15.5022 
-5.515 -3.5095 -2.3335 -1.4985 -3.8825 -6.6335 -2.882 -2.489 -3.881 -1.934 -2.341 -4.153 -4.747 
-8.226001 -4.5055 -3.3515 -4.569 -10.9315 -10.733 -3.631 -5.4125 -5.05 -4.9255 -7.621 -8.8465 
-8.7425 -5.461 -6.3715 -12.1008 -15.031 -11.482 -6.7485 -6.1895 -8.509001 -10.382 -10.4645 
-9.269501 -8.458501 -13.9419 -16.2003 -15.78 -14.5995 -7.4845 -9.449 -14.1813 -13.003 
-12.349 -16.1463 -18.0414 -16.9493 -18.8975 -15.3355 -10.7025 -15.2571 -16.8023 
-5.515 -3.5095 -2.3335 -1.4985 -3.8825 -3.845 -1.7565 -6.6335 0 -3.768 -2.674 -3.1125 -3.881 -1.934 -1.4985 -4.255 -4.153 -4.747 0 
-8.226001 -4.5055 -3.3515 -4.569 -7.588 -4.948 -8.495501 -6.6335 -3.768 -4.7755 -3.6315 -5.7445 -5.05 -2.6125 -5.3005 -6.9075 -8.8465 -4.546 
-8.7425 -5.461 -6.3715 -7.799001 -8.4925 -12.3424 -8.495501 -11.2911 -4.7755 -5.424 -6.175 -6.773001 -5.829 -6.2755 -7.2635 -8.596001 -6.706 
-9.269501 -8.458501 -9.522 -8.522 -16.2085 -12.3424 -13.2835 -12.2986 -5.424 -7.997 -7.2045 -7.244 -9.128 -7.685 -8.399 -8.026501 
-12.349 -11.7264 -10.0725 -16.2614 -16.2085 -17.1304 -14.291 -12.9471 -7.997 -8.993 -7.883 -10.368 -9.271501 -8.819 -8.415501 
-3.5125 -4.1985 -2.7455 -3.644 -6.0755 -8.678 0 
-6.7775 -7.141 -7.3485 -10.0225 -9.6175 -8.678 
-9.59 -12.3134 -13.863 -13.4241 -9.6175 
-14.9078 -18.8279 -17.2646 -13.4241 
-21.4223 -22.2295 -17.2646 
