-4.759 
n/a 
n/a 
n/a 
n/a 
-4.759 
n/a 
n/a 
n/a 
n/a 
-4.759 
n/a 
n/a 
n/a 
n/a 
-4.759 
n/a 
n/a 
n/a 
n/a 
-3.2615 -1.4985 -4.02 -6.318 -1.934 -4.723 0 -3.5435 -2.8645 -3.7855 -3.2895 -1.7695 -3.4625 -1.4985 -4.703 -1.756 -1.7695 -3.5185 -2.688 -3.5035 -1.7695 -4.052 -1.4985 -3.3435 -1.7565 -6.8885 0 
-4.032 -4.914001 -11.4824 -8.4725 -5.897 -4.723 -3.5435 -5.259501 -5.325 -7.422 -4.985001 -4.3 -4.474 -5.3265 -6.19 -3.963 -4.134 -4.9865 -5.738 -5.3545 -4.393 -4.752 -4.6745 -4.7005 -8.0045 -6.8885 
-8.451501 -12.8588 -13.6369 -13.0611 -5.897 -8.935 -5.259501 -7.339001 -9.611 -8.0035 -7.7305 -4.9495 -8.653501 -7.316 -7.924 -6.191 -5.9055 -8.696 -7.107501 -8.215 -4.9985 -7.4405 -5.03 -10.0065 -8.0045 
-16.6865 -15.0133 -18.2255 -13.0611 -10.2435 -10.901 -7.339001 -11.7346 -9.750501 -10.316 -8.317 -9.507501 -10.688 -9.486 -10.5425 -7.5405 -9.039001 -10.1725 -9.6295 -8.7305 -7.679 -7.7375 -10.213 -10.0065 
-18.841 -19.6019 -18.2255 -17.4076 -12.2095 -12.9805 -11.7346 -11.8741 -12.2128 -11.3543 -13.282 -11.5442 -12.858 -12.1357 -11.892 -10.99 -10.4425 -12.6945 -10.24 -11.5846 -7.969501 -13.3925 -10.213 
-3.2615 -1.4985 -4.723 -4.46 -2.688 -3.519 -2.8645 -3.7855 -1.7695 -1.4985 -4.87 -3.5435 -1.7695 -3.2345 -3.2275 -3.6615 -4.154 -3.919 -5.0505 
-4.032 -6.543 -9.0975 -7.216 -6.198501 -6.305 -5.325 -4.793 -2.7955 -5.655001 -6.6695 -5.157001 -3.713 -7.009 -6.076 -7.1765 -8.4245 -8.742001 
-7.923501 -9.594501 -12.1177 -11.8875 -9.153501 -8.385 -6.841 -5.356501 -6.9205 -7.0655 -8.148001 -6.873 -7.3425 -8.349501 -8.661 -11.6158 -13.6217 
-11.7396 -12.5319 -16.7892 -14.8425 -11.4439 -9.198 -7.459 -9.613001 -8.4385 -8.500001 -9.9835 -9.517 -8.602501 -10.4425 -13.1017 -16.813 
-14.677 -17.2034 -19.7442 -17.1329 -12.2569 -10.9378 -11.9851 -10.6485 -10.172 -10.2805 -12.6693 -10.369 -10.553 -14.8832 -18.2989 
-3.2615 -1.4985 -6.318 -1.934 -4.9175 0 -4.28 -2.7415 -3.7855 -1.7695 -3.2345 -3.6615 -1.934 -1.4985 -8.3855 -1.756 -4.1645 -1.7565 -2.688 -4.1 -1.934 -1.4985 -4.938 -3.5435 -3.4635 -3.614 
-4.032 -7.476001 -8.4725 -6.1035 -4.9175 -4.28 -7.005 -5.209001 -4.793 -3.713 -5.5705 -4.437 -2.6125 -9.7775 -9.3515 -5.198 -4.6095 -4.2285 -6.0345 -5.763 -2.6125 -6.091001 -6.7715 -6.87 -5.5835 
-9.956 -9.265 -13.2676 -6.1035 -10.419 -7.005 -7.943501 -5.926001 -7.704501 -5.862 -6.561 -5.0245 -11.2857 -10.7625 -12.8141 -5.489 -6.588 -8.217501 -7.788001 -6.395 -7.087501 -7.756001 -10.382 -8.8935 
-11.745 -14.4245 -13.2676 -12.0444 -13.144 -7.943501 -8.394501 -8.731501 -10.3675 -6.751 -7.095 -14.1845 -12.2707 -14.2251 -13.1051 -7.161 -10.2085 -10.328 -8.418 -10.4185 -9.441001 -11.7209 -13.0067 
-16.9045 -14.4245 -19.2085 -14.7694 -14.0825 -8.394501 -10.6215 -11.6079 -11.2565 -7.3145 -16.6926 -15.1695 -15.7333 -14.5161 -14.7771 -11.0643 -12.319 -11.1676 -12.6389 -12.772 -13.4067 -14.3456 
-3.7745 -3.5435 -2.7415 -5.569 -1.7695 -5.0785 -1.4985 -4.179 -2.0935 -2.688 
-5.717 -5.902 -7.446 -6.079 -5.3425 -5.5975 -5.087 -6.1085 -4.612 
-7.9785 -9.3205 -7.604001 -8.904 -5.7615 -8.074501 -7.377001 -8.7805 
-10.543 -9.4635 -10.476 -9.226001 -8.1815 -9.975 -10.503 
-10.686 -12.3311 -10.798 -11.9726 -10.1335 -13.2738 
