-4.759 
n/a 
n/a 
n/a 
n/a 
-4.759 
n/a 
n/a 
n/a 
n/a 
-4.759 
n/a 
n/a 
n/a 
n/a 
-4.759 
n/a 
n/a 
n/a 
n/a 
-2.925 -3.5895 -4.524 -3.1725 -3.7345 0 
-5.511001 -7.490001 -6.611 -7.796 -3.7345 
-9.0655 -9.5305 -9.627501 -7.796 
-11.3394 -12.9212 -9.627501 
-14.7301 -12.9212 
-2.925 -2.4945 -4.1685 -4.524 -3.7345 -1.7695 -3.5665 -1.4985 -3.127 -1.934 -3.1065 0 
-3.7675 -5.8625 -8.604501 -7.113 -5.4305 -5.017 -5.204 -4.269 -4.82 -5.472 -3.1065 
-6.803501 -10.223 -10.6465 -8.778001 -7.068501 -5.942 -6.9245 -5.6785 -8.583 -5.472 
-10.586 -12.265 -12.3115 -9.408001 -7.866 -7.2075 -7.638 -10.0815 -8.583 
-12.628 -13.93 -12.9415 -11.1173 -9.057 -8.038501 -12.3952 -10.0815 
-2.925 -2.4945 -4.0515 -4.524 -4.3725 -3.7345 -2.0935 -4.97 -4.617 0 
-3.7675 -5.9095 -7.910001 -7.273 -5.493501 -5.153 -5.496 -8.8675 -4.617 
-6.991001 -9.906 -11.0248 -7.3045 -6.8535 -7.7135 -9.492001 -8.8675 
-10.5855 -13.1736 -11.0563 -9.326 -8.949 -11.8755 -9.492001 
-13.8531 -13.2051 -13.0778 -11.6837 -13.3398 -11.8755 
-2.925 -4.2755 -4.524 -3.7345 -3.4905 -2.0935 -3.046 -3.991 0 
-6.3985 -8.342001 -7.113 -7.2155 -5.5045 -4.281 -7.1835 -3.991 
-9.616001 -10.494 -11.6222 -8.677 -8.639001 -9.387501 -7.1835 
-11.8926 -15.0032 -13.0837 -12.1707 -14.0267 -9.387501 
-16.4018 -16.4647 -16.5774 -17.5584 -14.0267 
