-4.759 
n/a 
n/a 
n/a 
n/a 
-4.759 
n/a 
n/a 
n/a 
n/a 
-4.759 
n/a 
n/a 
n/a 
n/a 
-4.759 
n/a 
n/a 
n/a 
n/a 
-5.831 -7.160501 0 -7.212 -7.7675 -4.6895 -2.7415 -4.226 -2.5195 -7.160501 -1.756 -4.339 -1.7695 -4.092 -3.5135 
-12.998 -7.160501 -7.212 -15.4717 -12.8716 -7.3765 -5.661 -4.796 -8.952001 -8.34 -5.7075 -4.8945 -6.100501 -7.035 
-14.0736 -15.0557 -15.4717 -20.5758 -15.5586 -10.1425 -6.2765 -12.3399 -10.0195 -12.6995 -6.1635 -8.9205 -8.519501 
-21.9688 -23.3154 -20.5758 -23.2628 -18.3246 -10.2875 -13.913 -13.4074 -14.3658 -13.1555 -10.2035 -10.7575 
-30.2285 -28.4195 -23.2628 -26.0288 -18.4696 -18.8914 -14.9805 -17.7537 -14.8218 -17.1955 -12.0405 
-3.288 -2.543 -7.2765 0 -7.212 
-5.364 -10.6095 -7.2765 -7.212 
-14.5061 -10.6095 -15.0715 
-14.5061 -18.4045 
-22.3011 
-3.288 -2.543 0 -7.212 -7.7675 -3.7095 -2.7415 -4.226 -2.5195 -7.160501 -1.7695 -3.571 -4.092 -3.5015 0 
-5.364 -2.543 -7.212 -15.4717 -11.8916 -6.396 -5.661 -4.796 -8.952001 -9.147 -4.6785 -7.735 -5.9395 -3.5015 
-5.364 -9.933001 -15.4717 -19.5958 -14.5781 -9.124001 -6.2765 -12.3399 -9.634001 -12.129 -8.741 -8.7945 -5.9395 
-13.8296 -18.4563 -19.5958 -22.2823 -17.3061 -9.790501 -13.913 -13.0219 -12.6714 -16.1915 -9.528501 -8.7945 
-22.3529 -22.5804 -22.2823 -25.0103 -17.9726 -17.4082 -14.595 -16.0593 -16.7339 -16.979 -9.528501 
-3.288 -2.543 0 -7.160501 -7.212 -7.7675 -4.895 -2.7415 -4.6525 -1.7695 -3.135 -4.875 -3.5015 0 
-5.364 -2.543 -7.160501 -15.0557 -15.4717 -13.0771 -6.7665 -5.9235 -7.0705 -4.779 -8.408501 -8.475 -3.5015 
-5.364 -10.177 -15.0557 -23.3154 -20.7813 -14.9486 -9.801001 -8.5465 -9.201 -9.967 -12.4801 -8.475 
-14.0736 -18.0722 -23.3154 -28.625 -22.6528 -17.9831 -12.654 -10.634 -15.3408 -14.2882 -12.4801 
-21.9688 -26.3319 -28.625 -30.4965 -25.6873 -20.8361 -14.7415 -16.892 -19.662 -14.2882 
