-4.759 
n/a 
n/a 
n/a 
n/a 
-4.759 
n/a 
n/a 
n/a 
n/a 
-4.759 
n/a 
n/a 
n/a 
n/a 
-4.759 
n/a 
n/a 
n/a 
n/a 
-6.729 -2.229 -4.0905 -5.2875 -5.1885 0 -7.4885 -4.1975 -3.2795 -3.251 -4.368 -1.7695 -3.8005 -2.229 -3.5435 -1.934 -8.619 -3.158 0 
-9.728001 -5.78 -7.019001 -10.2435 -5.1885 -7.4885 -12.3132 -6.818 -6.076 -5.6405 -5.5235 -5.519001 -5.0465 -5.054 -5.3395 -11.5594 -12.1448 -3.158 
-13.3342 -9.423 -12.5808 -10.2435 -13.931 -12.3132 -14.9337 -10.322 -8.616501 -6.338 -8.3415 -6.610001 -7.3385 -6.8495 -15.9221 -15.0852 -12.1448 
-16.9772 -15.0028 -12.5808 -18.986 -18.7557 -14.9337 -18.4377 -12.8625 -9.276001 -9.184501 -10.688 -9.024 -9.299001 -17.8465 -19.4479 -15.0852 
-22.557 -15.0028 -21.3233 -23.8107 -21.3762 -18.4377 -20.9782 -13.522 -12.1817 -11.6878 -13.102 -10.347 -20.3928 -21.3723 -19.4479 
-3.0365 -2.186 -1.8085 -5.3535 -1.934 -3.8005 -2.229 -4.0905 -9.912001 -2.9705 -3.644 -2.7455 -1.8085 -6.864 -2.229 -3.8355 -3.2795 -4.5335 -1.4985 -3.8005 -4.0965 -1.934 -5.6475 -5.804 0 
-3.66 -3.164 -6.665501 -7.052001 -4.8035 -5.0465 -5.78 -14.7539 -12.9343 -6.1875 -6.078501 -4.4765 -8.037001 -8.205501 -5.843 -6.514501 -7.995501 -5.4045 -5.7805 -8.8535 -6.3255 -8.436001 -10.051 -4.165 
-4.218 -8.320001 -8.146501 -10.4681 -6.2615 -9.322001 -16.6808 -17.7762 -16.1513 -9.062501 -7.722001 -11.581 -9.7535 -12.7017 -8.259501 -11.8821 -8.7655 -9.6245 -11.8251 -11.4851 -13.4159 -13.2359 -10.293 
-9.0605 -9.673 -11.8294 -11.9261 -10.6875 -20.7846 -19.7031 -20.9932 -19.0263 -10.8528 -15.2757 -13.2975 -14.5261 -15.1182 -13.8591 -12.6521 -13.1015 -15.6691 -14.4567 -18.5755 -18.2158 -13.2359 
-9.852501 -13.5487 -13.2874 -16.3521 -22.1501 -23.8069 -22.9201 -23.8682 -20.8166 -18.4065 -16.9922 -18.0701 -16.9426 -20.7178 -14.6291 -16.9881 -19.1461 -18.3007 -21.5471 -23.3754 -18.2158 
-6.28 -5.6475 -6.09 -3.8565 -3.515 -4.6525 -2.7455 -1.4985 -6.324 -3.5435 -2.0935 -4.184 -1.7565 -3.8005 -4.0905 -8.4195 
-10.479 -12.3709 -10.5975 -7.152 -8.0965 -6.5805 -3.637 -7.9235 -10.543 -5.7 -6.405 -4.726 -5.0365 -8.372001 -13.2614 
-17.7376 -16.8784 -14.3722 -12.3131 -10.155 -7.196 -10.4675 -12.5755 -12.6995 -10.634 -6.517 -9.4385 -9.369 -17.7349 
-22.2451 -20.6531 -19.5333 -14.3716 -10.8883 -14.2557 -15.1195 -14.732 -17.6335 -10.655 -10.459 -13.8842 -18.8563 
-26.0198 -25.8142 -21.5918 -15.1049 -17.948 -18.9077 -17.276 -19.666 -17.6545 -15.1532 -14.9047 -23.3715 
-1.4985 -3.8625 -1.7565 -4.0905 -4.3465 -1.4985 -4.0745 -2.3335 0 -1.934 -5.6475 -6.864 -2.229 -3.0435 -3.515 -4.101 -1.7695 -3.8005 0 
-5.431 -5.847 -6.171501 -8.31 -5.372001 -5.021 -5.0265 -2.3335 -1.934 -8.436001 -13.1449 -8.205501 -5.0405 -6.808001 -6.851 -4.6905 -5.519001 -3.8005 
-6.8485 -9.610001 -10.434 -9.519001 -8.776001 -6.2415 -5.0265 -4.468 -8.436001 -16.0878 -14.4864 -11.8992 -8.895 -10.7018 -7.502 -7.5125 -5.519001 
-10.609 -13.8725 -11.643 -13.0666 -9.805 -6.2415 -7.28 -11.5374 -16.0878 -17.4293 -18.1801 -15.7537 -12.9134 -11.3528 -10.047 -7.5125 
-14.8715 -15.0815 -15.1906 -14.0956 -9.805 -8.722501 -14.4606 -19.1892 -17.4293 -21.123 -22.0346 -19.7721 -13.5644 -13.8978 -10.047 
