-4.759 
n/a 
n/a 
n/a 
n/a 
-4.759 
n/a 
n/a 
n/a 
n/a 
-4.759 
n/a 
n/a 
n/a 
n/a 
-4.759 
n/a 
n/a 
n/a 
n/a 
-3.571 -5.4185 -2.4945 -3.468 -4.794 -2.5195 -3.0835 -3.062 -3.468 -3.892 0 
-10.061 -6.963 -7.170001 -8.596001 -5.6105 -5.8835 -6.8835 -6.847 -6.891 -3.892 
-11.9307 -12.3499 -13.079 -9.399 -9.464001 -10.586 -9.1945 -10.8844 -6.891 
-17.3176 -18.2589 -13.882 -13.2771 -14.2215 -12.897 -13.3977 -10.8844 
-23.2266 -19.0619 -17.7601 -18.0346 -16.5325 -17.1002 -13.3977 
-3.571 -3.3755 -1.7565 -4.8745 -2.4945 0 -1.4985 -5.557 -8.675501 -2.9705 -3.152 -4.5485 -3.519 -3.277 
-5.429 -4.5295 -6.522 -6.2875 -2.4945 -1.4985 -7.4545 -14.5531 -10.674 -5.007 -6.251 -8.723 -7.4875 
-6.2735 -9.753501 -8.2545 -6.2875 -3.9315 -7.4545 -16.9468 -16.5516 -12.7105 -7.917001 -10.647 -12.8911 
-12.2955 -11.7634 -8.2545 -7.353001 -9.5495 -16.9468 -18.9453 -18.5881 -15.6205 -12.6738 -14.8151 
-14.3054 -11.7634 -10.0095 -13.0378 -19.122 -18.9453 -20.9818 -21.4981 -20.3773 -16.8419 
-2.8965 -4.8745 -3.5795 -1.4985 -3.468 -4.5485 -2.5195 -1.4985 -3.8315 -3.062 -3.468 0 
-7.1335 -6.685 -4.5845 -5.0815 -7.875 -6.042 -3.1695 -4.604 -8.081 -6.847 -3.468 
-8.9845 -8.135 -8.318501 -9.067 -9.343 -6.638 -6.0285 -8.989501 -12.2314 -6.847 
-9.7815 -11.9546 -12.9016 -10.1465 -9.6075 -9.920501 -10.0995 -13.6221 -12.2314 
-13.7419 -16.5377 -13.9811 -10.323 -13.019 -14.0589 -15.1971 -13.6221 
-3.571 -3.319 -1.7565 -4.452 -2.186 -3.45 -3.468 -2.3335 -3.152 -4.5485 -2.5195 -1.4985 -5.376 -3.468 -4.418 0 
-6.2305 -4.165 -6.712501 -5.829 -6.414001 -6.2615 -5.035501 -4.664001 -6.251 -6.042 -3.1695 -6.537001 -7.382 -7.0465 -4.418 
-6.3165 -7.6685 -8.1575 -8.9125 -9.362 -7.15 -7.37 -7.653 -7.743001 -6.638 -8.455501 -8.075001 -11.4733 -7.0465 
-9.5295 -8.353001 -11.57 -11.9423 -9.9165 -8.9465 -9.844001 -9.0185 -8.261001 -12.312 -9.998 -12.4747 -11.4733 
-10.3755 -12.1925 -14.5998 -12.4968 -11.8336 -11.5713 -10.536 -9.524 -14.0194 -13.8545 -14.3977 -12.4747 
