-4.759 
n/a 
n/a 
n/a 
n/a 
-4.759 
n/a 
n/a 
n/a 
n/a 
-4.759 
n/a 
n/a 
n/a 
n/a 
-4.759 
n/a 
n/a 
n/a 
n/a 
-12.16972 -12.16972 -8.962501 -9.1765 
-24.33944 -21.13222 -18.4692 
-33.30194 -30.63892 
-42.80864 
n/a 
-9.1765 -2.186 -1.4985 -2.742 -3.0835 -4.25 -1.934 -3.8275 -3.5015 
-11.5937 -3.339 -5.438 -6.0975 -6.79 -6.2315 -5.911 -8.676001 
-12.7467 -7.01 -9.322001 -11.0742 -8.463501 -10.7229 -11.3359 
-16.4177 -11.5172 -14.4095 -12.7477 -13.1685 -16.1478 
-20.9249 -16.6047 -16.083 -17.4527 -18.5934 
-2.5045 -1.4985 -3.8275 -1.4985 -3.1385 -2.4945 -4.0655 -1.7695 -4.299 -1.934 -3.9175 
-3.1915 -4.726 -5.4605 -4.2575 -4.588 -5.2585 -4.4155 -5.4975 -5.88 -4.681 
-7.0135 -6.2615 -8.036 -6.0575 -7.304 -5.4265 -7.4545 -7.509501 -8.58 
-9.236501 -8.7395 -9.375 -8.4445 -7.503 -8.626 -9.2635 -9.771501 
-11.9857 -9.9455 -12.0016 -8.801001 -10.702 -10.733 -11.6773 
-4.9135 -1.934 -1.4985 -4.1355 0 
-6.3675 -2.6125 -5.2415 -4.1355 
-6.797 -6.703001 -5.2415 
-10.3345 -6.703001 
-10.3345 
