-4.759 
n/a 
n/a 
n/a 
n/a 
-4.759 
n/a 
n/a 
n/a 
n/a 
-4.759 
n/a 
n/a 
n/a 
n/a 
-4.759 
n/a 
n/a 
n/a 
n/a 
-2.5045 -1.4985 -4.031 -1.7565 -3.919 -5.891 -3.1385 -4.61 -5.113 0 -1.756 -1.4985 -4.031 -1.7565 -5.7505 -1.4985 -5.891 -3.7575 -5.123 -2.985 -3.519 0 
-3.583 -4.771 -5.571 -5.688 -7.503 -8.070001 -8.3295 -10.068 -5.113 -1.756 -3.0405 -4.771 -5.571 -7.951001 -8.0225 -6.9925 -9.649 -8.651501 -7.269 -5.976501 -3.519 
-6.7105 -6.571 -10.016 -9.555 -10.354 -13.4272 -14.3415 -10.068 -6.711 -3.0405 -6.1405 -6.571 -12.8323 -9.573001 -13.9071 -11.4337 -14.7942 -11.5059 -10.078 -5.976501 
-8.558001 -11.2496 -14.2696 -12.578 -15.7112 -19.4392 -14.3415 -11.666 -8.018001 -6.1405 -8.0255 -14.0659 -14.4543 -15.4992 -18.3483 -16.5789 -17.6486 -14.3149 -10.078 
-13.3718 -15.5032 -17.2926 -17.9352 -21.7232 -19.4392 -15.9395 -12.973 -11.245 -8.0255 -15.852 -15.6879 -20.3805 -19.9404 -23.4935 -19.4333 -20.4576 -14.3149 
-1.4985 -5.891 -3.2 -6.53 -3.1435 -4.4095 0 -3.433 -1.7565 -1.4985 -7.4995 -1.7565 -1.4985 -6.7475 -3.288 -1.756 -6.899 -5.9545 0 
-6.9925 -6.864 -9.111501 -7.595 -6.493 -4.4095 -3.433 -4.1845 -2.4195 -8.347 -8.302 -2.4195 -7.128 -9.617001 -4.834 -8.814001 -13.8639 -5.9545 
-7.262001 -13.3015 -9.8345 -9.726 -6.493 -7.4975 -4.1845 -4.6515 -9.4005 -8.6575 -8.690001 -7.801001 -10.3605 -11.2064 -13.0354 -15.8599 -13.8639 
-13.8657 -14.0245 -12.0309 -9.726 -9.228001 -8.1145 -4.6515 -12.2445 -9.912001 -9.0655 -14.3791 -11.1941 -11.9499 -19.4078 -20.0813 -15.8599 
-14.5887 -16.2209 -12.0309 -12.4924 -9.904 -8.58 -12.2445 -12.756 -10.2535 -14.8484 -17.7722 -12.7835 -20.1513 -26.4537 -20.0813 
-3.851 -1.7695 -1.4985 -4.8565 -2.3345 -7.713 -3.1385 -1.756 -6.262 -4.3685 0 -5.891 -4.7365 -3.7575 -3.966 -3.1435 -4.4095 
-4.0015 -2.7955 -5.561 -6.974 -11.1355 -11.6247 -4.6325 -8.0415 -11.3529 -4.3685 -5.891 -8.554501 -9.3615 -7.8235 -6.0375 -6.493 
-4.5775 -7.0185 -7.813 -16.169 -15.0472 -13.1187 -11.9812 -13.5964 -11.3529 -11.3847 -8.554501 -13.8611 -13.5367 -9.663 -8.805 
-8.4995 -8.9595 -17.1362 -20.0807 -16.5412 -20.4674 -17.5361 -13.5964 -18.3691 -14.0482 -13.8611 -18.0363 -15.3762 -12.5115 
-9.9125 -18.4089 -21.0479 -21.5747 -23.8899 -26.0223 -17.5361 -20.6126 -21.0326 -19.3548 -18.0363 -19.8758 -18.2247 
-3.851 -1.7695 -4.6165 -4.319 -2.3345 -1.4985 -3.644 -5.891 -3.8475 -1.756 -7.383 -3.8275 0 -5.891 -3.4635 -4.0805 -3.152 -3.962 -3.383 -4.761 0 
-4.0015 -6.473001 -8.566501 -6.7795 -3.233 -4.9855 -7.533501 -8.357 -5.133 -9.557001 -11.9527 -3.8275 -5.891 -8.966001 -6.332001 -6.66 -5.9475 -7.026 -6.244 -4.761 
-7.617 -10.8556 -10.6345 -7.976 -6.8435 -8.521 -10.4157 -9.238501 -13.906 -14.3323 -11.9527 -10.051 -8.966001 -12.0565 -9.122001 -9.5495 -9.1525 -9.913 -6.244 
-12.2054 -12.9236 -11.831 -11.8855 -10.074 -11.4362 -11.2972 -18.5057 -18.6813 -14.3323 -18.1762 -13.126 -12.0565 -14.8465 -12.3411 -13.4039 -12.4003 -9.913 
-14.2734 -14.1201 -15.7405 -15.116 -12.9892 -12.3177 -20.5644 -23.281 -18.6813 -20.5558 -21.2512 -16.2165 -14.8465 -18.0656 -16.1955 -16.6517 -12.4003 
