-4.759 
n/a 
n/a 
n/a 
n/a 
-4.759 
n/a 
n/a 
n/a 
n/a 
-4.759 
n/a 
n/a 
n/a 
n/a 
-4.759 
n/a 
n/a 
n/a 
n/a 
-5.2545 -2.7415 -4.5855 -6.4655 -2.3615 -3.0415 0 -2.9805 -2.7415 -2.6165 -3.918 -1.934 -1.4985 -4.6165 -4.5165 0 
-6.742001 -7.452001 -12.4422 -8.4655 -5.6065 -3.0415 -2.9805 -4.004 -4.266 -6.984 -6.013 -2.6125 -5.7985 -8.803501 -4.5165 
-12.0605 -16.3953 -14.4422 -11.9279 -5.6065 -5.0885 -4.004 -5.5745 -8.771 -8.265 -6.572001 -6.988501 -9.537001 -8.803501 
-21.0038 -18.3953 -17.9046 -11.9279 -7.6715 -6.494 -5.5745 -9.865001 -9.727501 -8.589001 -11.3688 -10.4765 -9.537001 
-23.0038 -21.8577 -17.9046 -13.9929 -9.367001 -7.8545 -9.865001 -11.0983 -10.0275 -13.6044 -14.8568 -10.4765 
-3.851 -1.7695 -2.3615 0 -5.2545 -2.7415 -8.58 0 -2.9805 -3.5745 -2.6165 -3.429 -3.355 -1.934 -1.4985 -4.5165 -3.2615 -2.3335 
-4.0015 -3.736 -2.3615 -5.2545 -6.742001 -9.752501 -8.4445 -2.9805 -4.8665 -4.114 -5.155 -5.2945 -4.8475 -2.6125 -6.118 -7.8155 -5.0495 
-6.14 -3.736 -8.3915 -6.742001 -13.2705 -9.658501 -10.281 -4.8665 -5.333 -6.0775 -6.9205 -5.3915 -5.376 -7.2095 -9.011001 -9.5535 
-6.14 -9.694 -9.578 -14.5515 -14.5515 -11.7748 -12.189 -5.333 -7.3215 -7.458 -6.982 -5.8855 -8.919001 -9.938001 -10.564 
-12.2036 -10.9179 -17.4199 -14.5515 -16.6678 -13.6828 -12.801 -7.3215 -8.6695 -7.518 -7.296 -10.0125 -11.9979 -11.5692 
-2.5195 -2.3335 -5.2545 -4.3195 -3.383 -4.4695 0 -3.0415 -2.9805 -2.6165 -4.077 -1.934 -2.9995 -4.2925 -4.5165 0 
-4.9535 -6.9215 -8.144501 -6.281 -6.6995 -4.4695 -3.0415 -5.0885 -5.981 -5.9945 -4.43 -4.2175 -6.821 -8.453 -4.5165 
-10.4425 -9.738501 -10.4105 -8.3415 -6.6995 -7.6855 -5.0885 -8.5445 -9.742001 -6.147 -6.424 -8.361501 -11.5775 -8.453 
-13.2595 -11.8955 -12.471 -8.3415 -9.428 -9.1665 -8.5445 -12.9121 -10.149 -7.304 -9.986501 -13.013 -11.5775 
-15.4165 -13.956 -12.471 -11.592 -11.0182 -12.7329 -12.9121 -13.3191 -11.2308 -11.0785 -14.9324 -13.013 
-2.9805 -3.423 -2.6165 -3.429 -3.355 -1.934 -1.4985 -3.291 -4.5165 
-4.896501 -4.4935 -5.155 -5.2945 -4.8475 -2.6125 -3.9665 -8.712001 
-5.744 -6.784 -6.9205 -5.3915 -5.376 -4.871 -9.170501 
-7.79 -8.399 -6.982 -5.8855 -7.7905 -10.4505 
-9.352501 -8.523001 -7.296 -7.976 -13.7224 
