-4.759 
n/a 
n/a 
n/a 
n/a 
-4.759 
n/a 
n/a 
n/a 
n/a 
-4.759 
n/a 
n/a 
n/a 
n/a 
-4.759 
n/a 
n/a 
n/a 
n/a 
-3.135 -5.515 -4.1065 -3.45 -3.0695 -3.152 -5.121 -1.7695 -4.676 -2.3335 -5.2145 -1.934 -3.8735 -4.331 -3.098 -2.356 -1.4985 -5.3685 -1.7565 -1.4985 -6.9675 -3.152 -4.896 -1.7695 -2.3615 
-7.121 -8.607 -5.656 -4.273 -4.8015 -6.9255 -5.704 -5.0665 -5.4235 -7.493 -6.732501 -4.885 -7.955501 -7.6175 -5.295 -3.1615 -5.745 -5.7705 -2.4195 -7.441 -8.3925 -6.884 -5.0385 -3.736 
-10.4345 -9.364501 -6.434 -5.832 -8.1085 -7.0325 -8.406 -5.734 -10.304 -9.296 -8.835001 -8.6785 -10.513 -9.102 -5.9435 -6.227 -5.7935 -6.353 -8.0305 -8.7925 -12.3543 -7.042 -7.038001 
-11.192 -9.8935 -7.9675 -9.407001 -8.2145 -9.819501 -9.096001 -10.609 -12.107 -11.4933 -12.9237 -11.4458 -11.9975 -9.382501 -8.441501 -6.238 -6.3745 -9.887 -9.989 -12.7941 -12.5123 -8.4995 
-11.721 -11.4184 -11.6347 -9.594001 -11.0797 -10.3915 -14.109 -12.412 -14.3043 -15.582 -15.691 -12.9303 -12.278 -11.9045 -8.447001 -6.8195 -10.0635 -12.0295 -14.0978 -12.9521 -13.9698 
-5.1845 -3.1385 -1.7565 -12.16972 0 -5.4925 0 -4.365 0 -12.16972 -3.59 -3.8275 -3.288 -5.743001 0 
-7.4095 -4.861 -14.87542 -12.16972 -5.4925 -5.4925 -4.365 -4.365 -12.16972 -15.75972 -8.274 -7.4455 -10.1 -5.743001 
-8.8085 -18.85052 -14.87542 -17.66222 -5.4925 -9.8015 -4.365 -18.01492 -15.75972 -20.44372 -12.1752 -15.1277 -10.1 
-23.43902 -18.85052 -20.36792 -17.66222 -9.8015 -9.8015 -18.01492 -21.60492 -20.44372 -24.34492 -19.8574 -15.1277 
-23.43902 -24.34302 -20.36792 -21.97122 -9.8015 -23.94822 -21.60492 -26.28892 -24.34492 -32.02712 -19.8574 
-3.766 -3.913 -1.7565 -8.27 -3.837 -4.394 -1.4985 -4.6075 -3.766 -7.2545 0 -4.8975 0 -1.756 -1.4985 -6.673 -1.7565 -1.4985 -8.171 0 -7.2555 0 -7.4885 -1.756 -1.4985 -9.761001 0 -5.645 -4.5165 0 
-6.744 -4.904 -9.440001 -12.5338 -7.1175 -5.721 -6.0655 -8.428 -9.0835 -7.2545 -4.8975 -4.8975 -1.756 -3.0405 -7.512501 -7.563 -2.4195 -8.410001 -8.171 -7.2555 -7.2555 -7.4885 -8.7505 -3.0405 -10.115 -9.761001 -5.645 -9.3955 -4.5165 
-8.387501 -13.7385 -13.7624 -15.8143 -7.884501 -10.368 -10.456 -14.7123 -9.0835 -12.9806 -4.8975 -5.886 -3.0405 -8.7395 -7.7145 -8.071501 -8.897 -8.410001 -10.4945 -7.2555 -9.910501 -8.7505 -9.2915 -11.8668 -10.115 -15.6582 -9.3955 -9.3955 
-17.6162 -18.0609 -17.0429 -16.5813 -12.7769 -14.7585 -16.7403 -14.7123 -14.8546 -12.9806 -5.886 -7.224 -8.7395 -8.845 -8.175 -14.7444 -8.897 -10.634 -10.4945 -9.910501 -10.13 -9.2915 -18.369 -11.8668 -16.4238 -19.4087 -9.3955 
-21.9386 -21.3414 -17.8099 -21.4737 -17.1674 -21.0428 -16.7403 -20.4834 -14.8546 -13.9691 -7.224 -13.5386 -8.845 -9.061001 -14.8785 -14.7444 -11.2206 -10.634 -13.5225 -10.13 -11.0798 -18.369 -18.369 -18.1756 -20.1743 -19.4087 
-7.680501 0 -7.462 0 -6.864 0 -8.2205 -5.709 -5.6515 -1.4985 -3.594 -1.7565 -4.563 0 -5.245 -3.843 0 
-7.680501 -7.462 -7.462 -6.864 -6.864 -8.2205 -11.117 -10.9315 -6.1265 -4.568 -4.857 -5.954 -4.563 -5.245 -9.539501 -3.843 
-10.884 -7.462 -9.424001 -6.864 -10.5035 -11.117 -16.3395 -11.4065 -9.6555 -5.042 -7.3905 -5.954 -9.3485 -9.539501 -9.539501 
-10.884 -9.424001 -9.424001 -10.5035 -13.4 -16.3395 -16.8145 -14.9355 -10.0275 -8.070001 -7.3905 -11.2929 -13.9202 -9.539501 
-12.846 -9.424001 -13.8227 -13.4 -18.6225 -16.8145 -20.3435 -15.3075 -13.1425 -8.070001 -13.134 -15.8646 -13.9202 
