-4.759 
n/a 
n/a 
n/a 
n/a 
-4.759 
n/a 
n/a 
n/a 
n/a 
-4.759 
n/a 
n/a 
n/a 
n/a 
-4.759 
n/a 
n/a 
n/a 
n/a 
-3.676 -2.8645 -3.304 -3.468 -3.4225 -3.892 0 
-5.929501 -6.786 -5.782001 -5.4415 -9.130001 -3.892 
-9.5635 -9.1495 -9.413501 -12.6226 -9.130001 
-9.8915 -12.912 -16.46 -12.6226 
-13.7054 -19.9585 -16.46 
-3.676 -2.186 -1.8085 -3.4225 -3.892 -1.7565 -3.304 -3.468 
-5.5015 -3.164 -5.6045 -9.130001 -5.131001 -5.1575 -5.782001 
-6.3355 -6.612 -9.6635 -10.761 -8.2325 -7.465001 
-9.767 -11.723 -11.3203 -13.8625 -10.8446 
-14.815 -13.3798 -14.4218 -16.4746 
-3.676 -2.186 -1.8085 -4.0375 -1.7565 -3.304 -3.468 0 
-5.5015 -3.164 -5.789001 -5.415501 -5.1575 -5.782001 -3.468 
-6.3355 -7.1165 -6.765 -9.249001 -7.465001 -5.782001 
-9.873501 -7.5235 -9.652 -9.491 -7.465001 
-10.567 -10.389 -9.877501 -9.491 
-3.676 -2.186 -1.8085 -4.0375 -1.7565 -4.994 -3.468 0 
-5.5015 -3.164 -5.789001 -5.415501 -6.2935 -6.4315 -3.468 
-6.3355 -7.1165 -6.765 -9.715501 -8.697001 -6.4315 
-9.873501 -7.5235 -10.286 -9.943001 -8.697001 
-10.567 -10.4265 -10.7439 -9.943001 
