-4.759 
n/a 
n/a 
n/a 
n/a 
-4.759 
n/a 
n/a 
n/a 
n/a 
-4.759 
n/a 
n/a 
n/a 
n/a 
-4.759 
n/a 
n/a 
n/a 
n/a 
-7.2935 -1.934 -3.091 -3.284 -3.4795 -2.9805 -2.7415 -3.383 -3.4915 -4.175 -1.934 -4.6035 0 -4.3155 0 -4.245 0 
-9.0395 -4.2105 -6.365 -6.124001 -6.1615 -4.004 -4.8365 -4.8075 -6.802 -4.3135 -6.647 -4.6035 -4.3155 -4.3155 -4.245 -4.245 
-10.2645 -7.359001 -7.885 -8.299001 -7.094 -6.017 -6.383 -7.175 -6.9625 -8.555 -6.647 -8.706501 -4.3155 -9.403501 -4.245 
-13.5948 -8.771501 -8.8345 -9.007501 -9.015 -7.438001 -8.087 -7.3085 -11.4052 -8.555 -10.634 -8.706501 -9.403501 -9.403501 
-15.0073 -9.4005 -9.492001 -10.634 -10.4035 -8.793 -8.241 -11.854 -11.4052 -12.785 -10.634 -13.8871 -9.403501 
-7.2935 -2.7415 -2.645 -4.175 -1.934 -4.6035 0 -4.245 0 -1.756 -5.3255 -2.5195 -3.091 -4.6655 -3.4795 -4.179 0 
-9.242001 -5.1905 -5.8995 -4.3135 -6.647 -4.6035 -4.245 -4.245 -1.756 -6.7145 -7.255501 -4.8225 -6.248 -7.383 -8.9725 -4.179 
-11.7206 -7.015 -5.943 -8.555 -6.647 -7.968501 -4.245 -5.425 -6.7145 -8.4145 -9.2615 -7.282001 -8.229 -13.3804 -8.9725 
-13.5451 -7.0335 -9.863001 -8.555 -9.5635 -7.968501 -5.425 -9.799001 -8.4145 -10.7093 -12.1604 -8.8605 -14.3912 -13.3804 
-13.5636 -10.503 -9.863001 -11.7145 -9.5635 -8.611001 -9.799001 -11.8954 -10.7093 -13.6082 -13.7389 -15.1973 -14.3912 
-7.2935 -2.7415 -2.645 -4.175 -1.934 -5.8205 0 -4.9405 -1.756 -4.692 -3.034 -2.9805 -2.7415 -1.934 -3.091 -3.284 -3.7515 
-9.242001 -5.1905 -5.8995 -4.3135 -8.063001 -5.8205 -4.9405 -6.1115 -6.0545 -8.189001 -4.4605 -4.004 -4.5155 -4.2105 -6.365 -5.7885 
-11.7206 -7.015 -5.943 -10.275 -8.063001 -9.382501 -6.1115 -11.3848 -9.396501 -10.068 -5.2415 -5.5885 -6.285 -7.359001 -9.102501 
-13.5451 -7.0335 -12.1043 -10.275 -11.9364 -9.791501 -11.3848 -14.7268 -11.3285 -10.849 -6.518001 -6.863501 -9.6155 -10.3411 
-13.5636 -13.4028 -12.1043 -14.1484 -12.3454 -15.199 -14.7268 -16.6588 -12.1095 -12.1255 -7.4805 -10.118 -12.7668 
-3.5455 -3.091 -3.284 -3.4795 0 -7.2935 -4.5445 -1.8085 -3.845 -1.7565 -3.7895 -1.934 -4.6035 0 -4.6065 -1.756 -4.245 0 
-5.242001 -6.365 -6.124001 -3.4795 -7.2935 -12.5004 -5.5955 -3.9645 -4.13 -4.5105 -4.5695 -6.647 -4.6035 -4.6065 -5.8035 -5.618 -4.245 
-8.0965 -7.885 -6.124001 -10.9315 -12.5004 -13.5514 -7.231 -4.156 -6.679501 -5.746 -8.538501 -6.647 -7.556001 -5.8035 -7.587 -5.618 
-8.601501 -7.885 -13.876 -16.1384 -13.5514 -15.1869 -7.271501 -6.689001 -7.063001 -10.218 -8.538501 -9.3465 -8.193501 -7.587 -7.587 
-8.601501 -16.0368 -19.0829 -17.1894 -15.1869 -15.2274 -8.694501 -7.073 -11.7604 -10.218 -11.5448 -9.764501 -10.151 -7.587 
