-4.759 
n/a 
n/a 
n/a 
n/a 
-4.759 
n/a 
n/a 
n/a 
n/a 
-4.759 
n/a 
n/a 
n/a 
n/a 
-4.759 
n/a 
n/a 
n/a 
n/a 
-1.4985 -3.228 -3.452 -2.186 -3.7875 -4.221 -3.9035 -2.356 -5.332 -10.0265 -1.7565 -4.1125 -4.1395 
-3.9575 -6.598001 -5.049 -5.4905 -8.33 -7.844 -6.35 -7.8925 -15.041 -10.1905 -5.5715 -8.234 
-6.898 -8.373501 -8.929001 -10.3745 -12.2366 -10.485 -12.2355 -18.8345 -15.719 -14.0055 -9.586501 
-8.723001 -12.3765 -13.946 -14.2811 -14.8776 -16.3705 -23.4998 -19.4513 -19.534 -18.0205 
-12.7778 -17.3935 -17.8526 -16.9221 -20.7631 -27.6348 -23.6638 -23.2663 -23.549 
-3.9225 -3.1495 0 -1.4985 -3.228 -3.452 -2.5045 -4.221 -4.7875 -4.367 -5.332 -3.748 -4.1125 -4.1395 0 
-5.806 -3.1495 -1.4985 -3.9575 -6.598001 -5.956 -7.279 -9.552 -8.443501 -9.6825 -7.3245 -7.271 -8.234 -4.1395 
-5.806 -5.949 -3.9575 -6.898 -9.1075 -11.3379 -12.9276 -13.3418 -14.2122 -12.2685 -11.133 -12.1451 -8.234 
-7.4595 -8.1315 -6.898 -9.376 -14.5972 -16.9865 -16.7174 -19.1105 -14.9902 -14.373 -15.5701 -12.1451 
-10.1145 -11.4676 -9.376 -14.8823 -20.2458 -20.7763 -22.4861 -19.8885 -18.5987 -19.9561 -16.2171 
-3.228 -3.452 -4.221 -3.64 -1.756 -5.332 -3.748 -3.8005 -3.594 
-6.598001 -8.1555 -7.2805 -5.2805 -7.291 -7.3245 -7.8425 -7.653 
-11.9189 -9.9455 -8.6035 -11.146 -9.5515 -11.3435 -12.0624 
-13.7089 -11.2685 -14.8998 -12.4969 -13.112 -15.9884 
-15.0319 -17.5648 -16.0793 -17.6273 -17.8793 
-3.1495 -3.228 -3.452 -4.221 -3.355 -1.756 -5.332 -3.748 -4.2915 -4.1395 0 
-6.1615 -6.598001 -8.1555 -7.9965 -5.5415 -7.291 -7.3245 -8.7185 -9.0935 -4.1395 
-10.3383 -11.9189 -12.4838 -9.1125 -11.496 -9.5515 -11.688 -13.7685 -9.0935 
-15.6592 -16.2472 -13.5998 -16.94 -12.7649 -13.4565 -17.1802 -13.7685 
-19.9875 -17.3632 -21.4273 -18.1195 -18.2398 -19.0711 -17.1802 
