-4.759 
n/a 
n/a 
n/a 
n/a 
-4.759 
n/a 
n/a 
n/a 
n/a 
-4.759 
n/a 
n/a 
n/a 
n/a 
-4.759 
n/a 
n/a 
n/a 
n/a 
-3.5485 -3.0695 -3.685 -3.115 -3.711 0 
-5.131 -6.686501 -5.7615 -6.694 -3.711 
-8.564 -7.6325 -8.134501 -6.694 
-9.1415 -9.4565 -8.134501 
-9.771 -9.4565 
-9.708501 -12.16972 -12.16972 0 -4.1285 -4.4275 -3.115 -4.1455 
-22.00942 -24.33944 -12.16972 -4.1285 -8.538 -6.1405 -7.826001 
-34.17914 -24.33944 -16.29822 -8.538 -9.89 -11.4063 
-34.17914 -28.46794 -20.70772 -9.89 -15.4636 
-38.30764 -32.87744 -22.05972 -15.4636 
-9.316501 -12.16972 -12.16972 -6.041 -3.772 -2.0935 -4.574 
-21.67322 -24.33944 -18.21072 -10.4595 -5.2215 -6.342 
-33.84294 -30.38044 -22.62922 -12.2958 -9.9405 
-39.88394 -34.79894 -24.46552 -17.0148 
-44.30244 -36.63524 -29.18452 
-9.708501 -12.16972 -12.16972 0 -4.1285 -3.685 -2.5045 -3.6385 
-22.00942 -24.33944 -12.16972 -4.1285 -8.3755 -5.0275 -6.4515 
-34.17914 -24.33944 -16.29822 -8.3755 -10.348 -9.495501 
-34.17914 -28.46794 -20.54522 -10.348 -14.816 
-38.30764 -32.71494 -22.51772 -14.816 
