-4.759 
n/a 
n/a 
n/a 
n/a 
-4.759 
n/a 
n/a 
n/a 
n/a 
-4.759 
n/a 
n/a 
n/a 
n/a 
-4.759 
n/a 
n/a 
n/a 
n/a 
-3.147 -2.7455 -5.096 -3.9755 -1.7565 -5.541 -2.4945 -3.962 0 
-5.389 -8.841001 -10.287 -4.312 -6.9525 -7.4335 -5.752 -3.962 
-12.3181 -14.3612 -10.6075 -8.589001 -8.888 -10.5035 -5.752 
-17.8383 -14.6817 -14.8845 -10.6995 -11.9902 -10.5035 
-18.1588 -18.9587 -16.995 -13.8017 -11.9902 
-2.7455 -5.096 -4.187 -1.7565 -5.541 
-8.841001 -9.853601 -4.2795 -6.9525 
-13.9278 -9.9461 -8.497001 
-14.0203 -14.1636 
-18.2378 
-3.147 -3.0365 -2.4945 -3.6215 -3.7925 0 -6.2835 -4.187 
-5.7475 -3.688 -6.150001 -6.917 -3.7925 -6.2835 -10.6885 
-6.2635 -6.877501 -8.790001 -6.917 -10.932 -10.6885 
-9.623 -9.386001 -8.790001 -14.6629 -15.337 
-12.1315 -9.386001 -16.5763 -19.0679 
-3.147 -2.7455 -5.096 -3.9755 -1.7565 -5.541 -2.4945 -3.0365 
-5.389 -8.841001 -10.287 -4.312 -6.9525 -7.4335 -4.952001 
-12.3181 -14.3612 -10.6075 -8.589001 -8.888 -10.111 
-17.8383 -14.6817 -14.8845 -10.6995 -10.688 
-18.1588 -18.9587 -16.995 -12.4995 
