-4.759 
n/a 
n/a 
n/a 
n/a 
-4.759 
n/a 
n/a 
n/a 
n/a 
-4.759 
n/a 
n/a 
n/a 
n/a 
-4.759 
n/a 
n/a 
n/a 
n/a 
-3.948 -4.017 -1.7565 -6.341 0 -6.298 -1.756 -2.8965 -5.0715 -5.521 -2.5195 -2.3615 -3.8405 -2.4945 -3.962 -1.934 -3.502 -4.1865 -5.585 -1.756 -3.3715 -3.959 -4.797 0 
-5.906 -4.8305 -7.6105 -6.341 -6.298 -7.482501 -3.751 -6.735001 -9.085001 -7.633 -4.4095 -5.371 -6.3855 -5.752 -4.8165 -4.8155 -6.301 -7.9735 -6.4485 -4.6545 -5.699 -8.9895 -4.797 
-6.095 -9.575001 -7.6105 -8.772 -7.482501 -9.493501 -8.344501 -11.3991 -11.4374 -9.838 -6.9485 -7.3585 -9.594 -6.640501 -8.1595 -7.711501 -8.796 -9.1045 -9.05 -7.391 -11.1921 -8.9895 
-10.9397 -9.575001 -9.972 -9.649 -9.493501 -9.993001 -13.115 -13.7515 -13.6424 -10.5895 -8.1335 -10.485 -10.0565 -9.9455 -11.2763 -9.481001 -10.233 -11.9516 -11.7353 -13.2763 -11.1921 
-10.9397 -12.0041 -10.32 -11.905 -9.993001 -14.9281 -15.4674 -15.9565 -14.3939 -11.7745 -11.4536 -10.748 -13.3737 -13.0737 -13.0458 -10.759 -13.0801 -14.6369 -17.6206 -13.2763 
-1.4985 -3.6065 -4.008 -1.7565 -4.3055 -6.341 0 -6.298 -1.756 -2.8965 -5.0715 -5.2115 -1.7695 -2.985 -3.8405 -2.4945 -1.934 -3.502 -4.1865 -5.585 -1.756 -2.5045 -1.4985 -4.797 -1.7565 -3.948 -3.959 0 
-4.8665 -6.296 -5.25 -6.1225 -7.64 -6.341 -6.298 -7.482501 -3.751 -6.735001 -9.66 -5.282 -4.281 -7.0805 -6.3855 -4.2645 -4.8155 -6.301 -7.9735 -6.4485 -4.604 -3.1915 -6.4855 -6.5035 -5.05 -6.288 -3.959 
-7.272 -6.903 -10.4345 -8.248 -7.64 -8.772 -7.482501 -9.493501 -8.344501 -11.9741 -9.673 -7.369 -8.551001 -9.717 -8.454 -7.514501 -7.711501 -8.796 -9.1045 -9.0425 -5.134 -7.7765 -7.403001 -9.598001 -7.341001 -6.288 
-7.982 -12.2673 -13.0566 -8.248 -10.522 -9.649 -9.493501 -9.993001 -13.69 -11.9871 -11.8546 -12.4032 -11.3067 -11.8421 -11.891 -10.7567 -9.481001 -10.233 -11.9441 -9.499001 -10.243 -8.9095 -10.7115 -12.2796 -7.341001 
-13.4653 -14.8894 -13.0566 -11.2792 -11.399 -11.905 -9.993001 -15.5031 -13.703 -14.1687 -16.8888 -15.1589 -13.4318 -15.2791 -15.1332 -12.5262 -10.759 -13.0726 -12.4006 -14.8092 -11.376 -12.5572 -13.3931 -12.2796 
-4.3055 -6.341 -2.229 -5.822001 -1.7565 -3.6065 -4.503 -1.756 -6.298 -5.822001 -1.7565 -3.6065 -4.503 -3.152 -3.557 -1.934 -1.4985 -7.375 -4.1865 -5.585 -1.756 -4.797 0 
-7.64 -7.896 -7.971 -7.106 -4.8305 -6.101501 -5.585 -7.8855 -10.3745 -7.106 -4.8305 -6.101501 -7.359 -5.1785 -4.4175 -2.6125 -8.1085 -10.985 -7.9735 -6.4485 -6.1425 -4.797 
-9.095 -13.9052 -9.302 -10.068 -7.046 -6.898 -12.6849 -12.1778 -11.8807 -10.068 -7.046 -9.0345 -9.390501 -5.9905 -4.9675 -8.658501 -12.2139 -14.772 -9.1045 -8.9375 -6.1425 
-15.1818 -15.2362 -12.8426 -12.2835 -7.7545 -14.5089 -16.9772 -13.684 -14.8427 -12.2835 -10.1025 -11.191 -10.2495 -6.4825 -11.0191 -13.0471 -16.0009 -15.903 -11.8391 -8.9375 
-16.5128 -18.7768 -15.0581 -12.992 -15.4944 -18.8012 -18.4834 -16.646 -17.0582 -15.34 -12.259 -12.05 -10.7695 -12.7335 -15.4077 -16.8341 -17.1319 -18.6376 -11.8391 
-1.934 -2.3615 -2.95 -5.822001 -1.7565 -6.341 0 -6.298 -1.756 -2.8965 -5.2915 -2.4945 -4.25 -1.934 -4.1225 -5.585 -1.756 -4.797 
-3.539 -4.4645 -9.199 -7.106 -7.6105 -6.341 -6.298 -7.482501 -3.751 -8.5465 -8.2675 -6.028 -6.2315 -5.261 -9.544001 -6.4485 -6.1425 
-6.3285 -10.9927 -10.734 -13.7084 -7.6105 -8.772 -7.482501 -9.493501 -9.296 -11.6355 -11.9442 -7.803 -9.5015 -11.7435 -10.4833 -8.9375 
-13.4311 -12.5277 -17.3364 -13.7084 -9.972 -9.649 -9.493501 -15.3783 -13.1604 -15.3122 -13.7192 -11.3788 -16.532 -12.6828 -12.9723 
-14.9661 -19.1301 -17.3364 -16.0699 -10.32 -11.905 -15.3783 -19.2427 -16.8371 -17.0872 -17.295 -18.4093 -17.4713 -15.1718 
