-4.759 
n/a 
n/a 
n/a 
n/a 
-4.759 
n/a 
n/a 
n/a 
n/a 
-4.759 
n/a 
n/a 
n/a 
n/a 
-4.759 
n/a 
n/a 
n/a 
n/a 
-3.1495 -3.2495 -4.86 -2.4945 -3.4635 -1.7695 -4.278 
-4.8975 -7.2755 -6.2955 -5.5165 -4.2045 -5.35 
-8.238 -8.311 -9.366 -5.7235 -8.982501 
-9.033501 -10.609 -9.5115 -10.8781 
-11.3941 -10.7545 -14.7425 
-3.1495 -3.2495 -3.9115 -2.7455 -4.278 -2.229 -3.074 0 
-4.8975 -7.184 -6.882501 -5.083 -6.414001 -5.0265 -3.074 
-8.307 -10.688 -9.7852 -8.7465 -10.434 -5.0265 
-11.9048 -13.5907 -13.4487 -12.9291 -10.434 
-14.8075 -17.2542 -17.6313 -12.9291 
-2.3615 -3.2495 -3.9115 -2.4945 -3.9285 -4.278 
-5.9175 -7.184 -5.5915 -5.071 -9.469 
-10.6875 -8.343 -8.0185 -11.2935 
-11.8465 -10.9552 -14.3804 
-14.4587 -17.3171 
-3.1495 -3.074 -1.934 -1.4985 -4.1145 -8.9595 
-6.687 -4.93 -2.6125 -5.3525 -13.5938 
-8.3105 -5.5645 -6.54 -16.0698 
-9.1435 -9.453501 -17.4391 
-13.2909 -20.4842 
