-4.759 
n/a 
n/a 
n/a 
n/a 
-4.759 
n/a 
n/a 
n/a 
n/a 
-4.759 
n/a 
n/a 
n/a 
n/a 
-4.759 
n/a 
n/a 
n/a 
n/a 
-1.4985 -2.9905 -4.8515 -2.742 -2.489 -5.613 -2.5195 -1.4985 -3.7075 -2.229 -4.4195 -3.7075 -2.186 -3.849 -3.6135 -3.704 -4.055 
-5.7155 -8.466001 -7.39 -3.301 -9.057 -8.1355 -3.1695 -4.6235 -5.5255 -6.5965 -8.9525 -5.825 -4.8565 -7.1085 -5.828 -8.2215 
-10.0505 -10.7495 -7.8505 -9.9275 -11.8337 -8.639001 -5.905 -5.9985 -9.880501 -11.7971 -11.278 -8.5535 -8.4025 -9.199501 -11.0637 
-12.4664 -11.21 -14.727 -12.953 -12.3372 -11.7831 -7.155 -9.974501 -15.0461 -14.1226 -14.0065 -12.4465 -10.27 -14.5466 
-12.9269 -18.0865 -17.7525 -13.4565 -15.4813 -13.0331 -11.8518 -15.1709 -17.3716 -16.8511 -17.8995 -14.314 -15.7341 
-3.2615 -3.704 -4.6645 -4.126 -4.7885 -4.8155 -1.7565 -3.7075 -2.742 -2.489 -5.243 -2.9905 
-7.51 -6.6045 -8.431001 -9.581501 -8.436501 -6.48 -5.7275 -6.513 -3.301 -8.79 -6.5495 
-10.733 -8.970501 -14.1201 -13.2667 -9.502001 -10.553 -8.627001 -7.338 -10.292 -10.4425 
-13.099 -14.807 -17.8053 -14.3322 -13.915 -14.1449 -9.3575 -14.8236 -11.9445 
-18.9355 -18.4922 -18.8708 -18.7452 -17.5069 -14.8754 -17.1607 -16.4761 
-4.3895 -2.3345 -1.4985 -3.704 -4.243 -4.126 0 -3.7075 -2.229 -4.7885 -4.763 -2.742 -2.489 -5.036 -2.9905 0 
-4.6785 -3.233 -4.735001 -6.771 -7.8795 -4.126 -3.7075 -5.5255 -6.6485 -9.785 -7.3745 -3.301 -6.063 -6.0125 -2.9905 
-5.48 -6.5845 -7.707001 -10.634 -7.8795 -8.227001 -5.5255 -8.5205 -12.3526 -12.3167 -7.8375 -6.7355 -6.795 -6.0125 
-8.696 -9.7545 -11.7202 -10.634 -12.4179 -10.3545 -8.5205 -15.3248 -14.8843 -12.7797 -11.4172 -7.47 -6.795 
-11.8938 -13.8601 -11.7202 -15.1724 -14.5454 -13.3495 -15.3248 -17.8565 -15.3473 -16.3594 -12.1517 -7.47 
-3.704 -5.3955 -3.7075 -4.983 -2.742 -4.0135 -2.4265 
-9.064 -9.3055 -7.178 -7.34 -5.84 -5.2095 
-13.0578 -13.0784 -9.559 -10.87 -6.909 
-16.8307 -15.4594 -13.0874 -11.939 
-19.2117 -18.9878 -14.1564 
