-4.759 
n/a 
n/a 
n/a 
n/a 
-4.759 
n/a 
n/a 
n/a 
n/a 
-4.759 
n/a 
n/a 
n/a 
n/a 
-4.759 
n/a 
n/a 
n/a 
n/a 
-4.481 0 0 -3.2495 -2.186 -1.934 -3.7515 -1.4985 -7.297 
-4.481 0 -3.2495 -6.0445 -4.0835 -6.292 -4.6795 -8.462501 
-4.481 -3.2495 -6.0445 -7.97 -8.991 -7.627 -12.0389 
-7.804001 -6.0445 -7.97 -13.1959 -10.361 -15.262 
-11.1622 -7.97 -13.1959 -14.5659 -17.996 
-4.481 0 -3.2495 -1.7565 -3.277 -2.4945 -3.7515 -5.0475 -12.16972 0 
-4.481 -3.2495 -4.822 -4.25 -5.237 -6.263 -9.5775 -18.58102 -12.16972 
-7.804001 -4.822 -5.8315 -5.3725 -8.847 -12.889 -23.37322 -18.58102 
-8.940001 -5.8315 -6.937 -8.9025 -15.4718 -26.68472 -23.37322 
-10.5755 -6.937 -10.4505 -15.5315 -29.26752 -26.68472 
-4.481 0 -3.0365 -2.4945 -3.2495 -4.543 -1.934 -1.4985 -4.31 
-4.481 -3.0365 -3.688 -4.891 -7.833 -6.2395 -2.6125 -5.569 
-7.508 -3.688 -5.0435 -10.013 -10.238 -6.876 -6.271501 
-8.370001 -5.0435 -10.146 -12.418 -10.8745 -10.2695 
-9.969501 -10.146 -12.551 -13.0545 -14.268 
-4.481 0 0 -3.2495 -4.546 -2.925 -2.264 -4.4205 0 
-4.481 0 -3.2495 -7.2065 -7.355 -4.6105 -7.122001 -4.4205 
-4.481 -3.2495 -7.2065 -10.564 -9.2965 -9.2985 -7.122001 
-7.804001 -7.2065 -10.564 -12.8597 -14.1871 -9.2985 
-12.3242 -10.564 -12.8597 -17.7503 -14.1871 
