-4.759 
n/a 
n/a 
n/a 
n/a 
-4.759 
n/a 
n/a 
n/a 
n/a 
-4.759 
n/a 
n/a 
n/a 
n/a 
-4.759 
n/a 
n/a 
n/a 
n/a 
-5.0445 -4.8 -6.377 0 -3.859 -3.188 -3.5165 -4.712 -3.158 -5.943 -3.3635 0 -4.9455 -3.5015 0 -1.934 -4.6835 -3.959 
-7.302501 -6.431 -6.377 -3.859 -5.66 -6.3625 -8.925 -8.9615 -8.912001 -9.022 -3.3635 -4.9455 -8.067 -3.5015 -1.934 -7.5615 -8.306001 
-7.33 -6.431 -10.533 -5.66 -8.226501 -12.6958 -13.3905 -14.8973 -12.1034 -9.022 -8.4655 -8.067 -8.067 -4.704 -7.5615 -8.7015 
-7.33 -10.5325 -12.334 -8.226501 -14.9896 -17.1613 -19.3263 -18.0887 -12.1034 -14.696 -12.2324 -8.067 -9.236501 -10.5855 -8.7015 
-12.2131 -12.3335 -14.9005 -14.9896 -19.4551 -23.0971 -22.5177 -18.0887 -17.7774 -18.4629 -12.2324 -9.236501 -15.285 -11.7255 
-5.0445 -4.8 -5.473 0 -5.0445 -4.8 -5.473 0 -6.922 -3.158 -3.188 -3.852 -4.248 -3.473 -3.3635 0 -3.279 -4.184 -3.5015 -1.934 -4.6835 -3.959 
-7.302501 -7.8675 -5.473 -5.0445 -7.302501 -7.8675 -5.473 -6.922 -10.2185 -7.0325 -6.2045 -8.535 -6.8225 -7.154 -3.3635 -3.279 -6.2165 -6.701 -4.704 -7.5615 -8.306001 
-8.718 -7.8675 -9.6815 -7.302501 -8.718 -7.8675 -13.5854 -10.2185 -14.093 -10.341 -11.5847 -11.4759 -9.3105 -7.154 -6.5605 -6.2165 -9.0635 -7.834 -10.5855 -8.7015 
-8.718 -9.8655 -10.7515 -8.718 -8.718 -16.1435 -16.8819 -14.093 -17.4015 -15.7212 -14.5256 -13.9639 -9.3105 -11.0316 -9.564501 -9.0635 -10.2645 -14.0143 -11.7255 
-9.978001 -11.2097 -12.167 -8.718 -17.2198 -19.44 -20.7564 -17.4015 -22.7817 -18.6621 -17.0136 -13.9639 -13.5621 -14.0356 -12.5301 -10.2645 -16.3518 -15.1543 
-5.0445 -4.8 -5.473 0 -3.859 -3.158 -4.1865 -3.5165 -4.248 -3.473 -3.3635 0 -3.279 -4.184 -3.5015 0 -4.6835 -3.959 0 
-7.302501 -7.8675 -5.473 -3.859 -5.7395 -7.245001 -7.225 -6.0225 -6.8225 -7.154 -3.3635 -3.279 -6.2165 -6.701 -3.5015 -4.6835 -8.306001 -3.959 
-8.718 -7.8675 -10.068 -5.7395 -10.3217 -10.8729 -8.2725 -7.698 -9.3105 -7.154 -6.5605 -6.2165 -9.0635 -6.701 -8.898001 -8.306001 -8.306001 
-8.718 -12.6261 -11.9485 -10.3217 -13.9496 -11.9204 -8.388 -9.932501 -9.3105 -11.0316 -9.564501 -9.0635 -9.0635 -12.2577 -12.6677 -8.306001 
-13.7024 -14.5066 -16.5307 -13.9496 -14.9971 -12.0359 -10.078 -9.932501 -13.5621 -14.0356 -12.5301 -9.0635 -14.7256 -16.0274 -12.6677 
-5.0445 -4.8 -6.377 0 -7.456501 -3.158 -3.38 -3.5165 -4.248 -3.473 -3.3635 0 -4.9455 -3.5015 -1.934 -4.6835 -3.959 0 
-7.302501 -6.431 -6.377 -7.456501 -9.001 -6.867001 -6.3205 -6.0225 -6.8225 -7.154 -3.3635 -4.9455 -8.067 -4.704 -7.5615 -8.306001 -3.959 
-7.33 -6.431 -14.7311 -9.001 -12.9046 -10.163 -8.1045 -7.698 -9.3105 -7.154 -8.4655 -8.067 -9.236501 -10.5855 -8.7015 -8.306001 
-7.33 -14.9907 -16.2756 -12.9046 -16.2006 -12.1934 -9.896501 -9.932501 -9.3105 -12.9366 -12.2324 -9.236501 -15.285 -11.7255 -8.7015 
-16.6713 -16.5352 -20.1792 -16.2006 -18.231 -13.9854 -12.479 -9.932501 -15.4671 -16.7035 -13.4019 -15.285 -16.425 -11.7255 
