-4.759 
n/a 
n/a 
n/a 
n/a 
-4.759 
n/a 
n/a 
n/a 
n/a 
-4.759 
n/a 
n/a 
n/a 
n/a 
-4.759 
n/a 
n/a 
n/a 
n/a 
-3.06 -4.424 -1.756 -3.304 -5.228 
-8.1995 -5.9015 -5.554501 -8.031501 
-10.1855 -9.197001 -8.842001 
-13.481 -12.9525 
-17.2365 
-3.5715 -5.067 -3.6065 -4.889 -4.8115 -1.934 -3.8735 -1.756 -5.4995 0 -3.06 -3.152 -4.19 -1.756 -3.304 -4.874 
-7.983 -8.639501 -9.130001 -6.759501 -6.611 -4.885 -5.3865 -7.4845 -5.4995 -3.06 -7.009501 -6.435 -5.6195 -5.554501 -7.812 
-12.396 -15.8276 -11.1003 -7.510001 -9.17 -6.0505 -9.743501 -7.4845 -8.98 -7.009501 -10.2085 -7.441501 -8.772 -8.529501 
-18.9015 -17.8253 -11.8508 -9.5305 -10.6413 -10.702 -9.743501 -11.3282 -13.0433 -10.2085 -11.215 -10.4765 -9.618501 
-20.8718 -18.5758 -13.8713 -11.1812 -15.2928 -10.702 -13.6376 -15.3915 -16.2423 -11.215 -14.25 -11.323 
-3.5715 -3.133 0 -1.934 -3.2495 -3.6065 -4.889 -4.8115 -1.934 -5.4995 0 -3.8735 0 -3.06 -4.269 -2.4945 -4.493 -1.756 -2.645 -3.1575 -3.759 -3.6765 -2.4945 -4.874 0 
-5.518 -3.133 -1.934 -4.821 -5.228 -9.130001 -6.759501 -6.611 -6.494 -5.4995 -3.8735 -3.8735 -3.06 -7.363501 -6.0385 -6.256001 -5.8585 -3.898 -3.72 -7.2145 -8.5365 -6.66 -6.554 -4.874 
-5.518 -5.598001 -4.821 -6.2065 -10.223 -11.1003 -7.510001 -9.684501 -6.494 -6.456 -3.8735 -7.5465 -7.363501 -9.446501 -8.807 -7.33 -7.42 -5.4925 -7.6 -12.5406 -11.682 -10.757 -6.554 
-8.429501 -8.646501 -6.2065 -11.7427 -12.1933 -11.8508 -10.1345 -9.684501 -7.409 -6.456 -7.5465 -12.2566 -9.446501 -12.2264 -9.3255 -8.73 -7.4515 -8.229 -13.4783 -15.6861 -15.779 -10.757 
-11.693 -10.4675 -11.7427 -13.713 -12.9438 -14.4753 -10.1345 -10.7569 -7.409 -10.1545 -12.2566 -14.3396 -12.2264 -12.7449 -10.8227 -8.7535 -10.9138 -15.2143 -16.6238 -19.7831 -15.779 
-3.5715 -3.133 -3.8735 0 -5.4995 -3.1715 -3.2495 -3.6065 -4.889 -4.8115 -4.4825 -2.645 -3.1575 -3.06 -3.6765 -4.493 -1.756 -3.304 -3.6765 -3.7555 -5.228 
-5.518 -7.762501 -3.8735 -5.4995 -8.111 -7.051001 -5.228 -9.130001 -6.759501 -8.275001 -7.185 -3.72 -5.2445 -7.4235 -7.35 -5.8585 -5.554501 -7.2675 -7.3865 -8.321 
-10.5225 -7.762501 -7.0905 -8.111 -12.4571 -9.212 -10.223 -11.1003 -9.785001 -11.3899 -7.585 -5.443 -9.697001 -11.284 -8.906 -8.2685 -9.446001 -11.1693 -12.2728 
-10.5225 -9.84 -9.972 -12.4571 -14.6181 -14.3996 -12.1933 -14.1258 -13.2569 -11.7899 -9.4545 -9.9505 -13.7039 -12.84 -11.4626 -13.2408 -13.4926 -16.0556 
-12.6 -13.4035 -14.4153 -14.6181 -19.8057 -16.3699 -15.2188 -17.5977 -13.6569 -13.6594 -14.6482 -14.042 -15.2599 -15.3966 -16.4349 -17.2874 -18.3789 
