-4.759 
n/a 
n/a 
n/a 
n/a 
-4.759 
n/a 
n/a 
n/a 
n/a 
-4.759 
n/a 
n/a 
n/a 
n/a 
-4.759 
n/a 
n/a 
n/a 
n/a 
-2.9805 -3.989 -1.7695 -3.4985 -1.4985 -7.982501 -1.934 -1.4985 -4.142 -3.892 
-5.908501 -4.551 -4.8425 -4.9685 -8.73 -10.459 -2.6125 -5.0295 -6.371 
-6.283501 -7.1975 -5.436 -12.6494 -11.5273 -11.1375 -5.665 -6.926001 
-9.318001 -7.7705 -13.4251 -15.4467 -12.2058 -14.19 -7.224 
-9.830501 -15.8968 -16.2224 -16.1252 -15.2583 -15.749 
-2.4265 -2.7415 -3.6005 -1.7695 -3.7085 -1.4985 -12.16972 -1.934 -1.4985 -3.5455 -3.325 -3.4985 0 
-3.681 -5.7335 -4.2855 -4.19 -4.704 -14.76202 -14.10372 -2.6125 -4.554 -7.818501 -5.6905 -3.4985 
-7.1235 -6.0415 -6.5265 -5.0195 -18.48572 -16.69602 -14.78222 -5.298 -8.314501 -10.31 -5.6905 
-7.4655 -8.179 -7.1895 -18.87742 -20.41972 -17.37452 -17.46772 -8.773001 -10.476 -10.31 
-9.681001 -8.688001 -21.31262 -20.81142 -21.09822 -20.06002 -20.94272 -10.9825 -10.476 
-3.4765 -1.934 -3.5455 -4.1355 0 -2.9805 -2.674 -1.7695 -3.935 -8.342 -3.1385 0 
-4.9925 -4.8495 -7.652 -4.1355 -2.9805 -5.96 -3.787 -4.6555 -13.2524 -11.8251 -3.1385 
-8.331 -10.298 -7.652 -7.423 -5.96 -6.854 -6.2665 -14.5465 -16.7355 -11.8251 
-14.1859 -10.298 -11.5829 -10.6643 -6.854 -9.580501 -16.7311 -18.0296 -16.7355 
-14.1859 -14.2289 -14.8242 -11.5583 -9.580501 -20.0839 -20.2142 -18.0296 
-1.934 -1.4985 -3.5455 -4.1355 0 -2.9805 -3.251 -1.7695 -3.4985 -1.4985 -7.982501 -4.6805 
-2.6125 -4.554 -7.652 -4.1355 -2.9805 -4.429 -4.3285 -4.8425 -4.9685 -8.73 -9.642501 
-5.298 -8.3905 -7.652 -7.423 -4.429 -5.6435 -7.9945 -5.436 -12.6494 -10.004 
-9.634501 -8.3905 -11.5829 -9.054001 -5.6435 -9.087001 -8.5565 -13.4251 -13.9234 
-9.634501 -12.8246 -13.2139 -10.111 -9.087001 -9.742001 -16.697 -14.6991 
