-4.759 
n/a 
n/a 
n/a 
n/a 
-4.759 
n/a 
n/a 
n/a 
n/a 
-4.759 
n/a 
n/a 
n/a 
n/a 
-4.759 
n/a 
n/a 
n/a 
n/a 
-12.16972 -8.032001 -8.110001 0 -13.8625 0 0 -2.998 -3.531 -7.634001 -3.508 -4.652 0 0 -2.7415 -6.557 -2.229 -4.8835 -4.156 -4.328 0 
-20.20172 -16.7266 -8.110001 -10.7895 -10.7895 0 -2.998 -5.8245 -10.3015 -10.8495 -7.320001 -4.652 0 -2.7415 -10.6643 -9.0895 -6.366 -9.095 -6.2095 -4.328 
-28.89632 -16.7266 -13.972 -8.8555 -8.8555 -2.998 -5.8245 -11.574 -13.9036 -14.5781 -7.320001 -4.652 -2.7415 -10.6643 -13.1968 -13.4341 -9.9805 -10.5235 -6.2095 
-28.89632 -23.0832 -14.4666 -8.8555 -11.8259 -5.8245 -12.385 -15.7661 -17.4676 -14.5781 -7.320001 -7.3885 -10.6643 -13.1968 -17.5414 -17.0486 -11.6186 -10.5235 
-35.25292 -23.0832 -14.4666 -11.8259 -14.6524 -12.385 -15.7661 -19.3301 -17.4676 -14.5781 -9.824 -15.6723 -13.1968 -17.5414 -21.1559 -18.6867 -11.6186 
-7.5135 -6.4925 -9.634001 0 -15.3865 0 0 -2.998 -13.5515 -3.508 -4.652 0 -2.7415 -1.4985 -4.642 -4.156 -4.328 -1.7565 -6.557 0 
-14.6008 -17.0671 -9.634001 -12.3985 -12.3985 0 -2.998 -17.1067 -16.768 -7.320001 -4.652 -2.7415 -4.063 -5.695001 -9.346001 -6.2095 -5.0935 -7.653501 -6.557 
-25.1754 -17.0671 -16.2075 -10.4505 -10.4505 -2.998 -17.1067 -20.3232 -20.332 -7.320001 -7.3885 -4.063 -7.9535 -10.0925 -11.7679 -7.0935 -9.074 -7.653501 
-25.1754 -18.1091 -10.676 -10.4505 -14.0973 -17.1067 -20.3232 -23.8872 -20.332 -9.824 -8.304501 -7.9535 -12.5154 -12.6112 -12.6519 -9.129001 -9.074 
-26.2174 -18.1091 -10.676 -14.0973 -28.206 -20.3232 -23.8872 -23.8872 -22.916 -10.9196 -12.4766 -12.5154 -15.0341 -13.4952 -14.6874 -9.129001 
-8.718 -6.4925 -8.110001 0 -13.8625 0 0 -2.998 -3.531 -5.133 0 -2.461 -3.508 -4.652 0 -4.642 -4.156 -4.328 -1.7565 -6.557 
-10.368 -10.382 -8.110001 -10.7895 -10.7895 0 -2.998 -5.8245 -7.6295 -5.133 -2.461 -5.6775 -7.320001 -4.652 -4.642 -9.346001 -6.2095 -5.0935 -7.653501 
-10.446 -10.382 -13.972 -8.8555 -8.8555 -2.998 -5.8245 -9.5425 -7.6295 -7.539001 -5.6775 -9.241501 -7.320001 -9.500501 -9.346001 -11.7679 -7.0935 -9.074 
-10.446 -16.7386 -14.4666 -8.8555 -11.8259 -5.8245 -9.5425 -9.5425 -10.1465 -10.5325 -9.241501 -9.241501 -10.674 -14.2565 -11.7679 -12.6519 -9.129001 
-16.8026 -16.7386 -14.4666 -11.8259 -14.6524 -9.5425 -9.5425 -10.7615 -13.14 -14.0965 -9.241501 -12.6755 -15.43 -16.6784 -12.6519 -14.6874 
-7.5135 -7.0885 -8.110001 0 -13.8625 0 0 -2.998 -3.531 -7.594001 -3.508 -4.652 0 0 -4.8835 -4.156 -4.328 -1.7565 -5.1845 -5.74 
-15.1968 -16.5763 -8.110001 -10.7895 -10.7895 0 -2.998 -5.8245 -10.0355 -10.7555 -7.320001 -4.652 0 -4.8835 -9.095 -6.2095 -5.0935 -6.580501 -5.7465 
-24.6846 -16.5763 -13.972 -8.8555 -8.8555 -2.998 -5.8245 -12.0595 -13.14 -14.0965 -7.320001 -4.652 -4.8835 -9.095 -10.5235 -7.0935 -8.5175 -6.961501 
-24.6846 -22.9329 -14.4666 -8.8555 -11.8259 -5.8245 -10.7615 -13.755 -16.704 -14.0965 -7.320001 -9.967001 -9.095 -10.5235 -10.651 -8.547501 -8.524 
-31.0412 -22.9329 -14.4666 -11.8259 -14.6524 -10.7615 -13.755 -17.319 -16.704 -14.0965 -12.9418 -14.1785 -10.5235 -10.651 -12.105 -8.55 
