-4.759 
n/a 
n/a 
n/a 
n/a 
-4.759 
n/a 
n/a 
n/a 
n/a 
-4.759 
n/a 
n/a 
n/a 
n/a 
-4.759 
n/a 
n/a 
n/a 
n/a 
-8.200001 -3.1385 -2.264 -5.408 -2.3615 -3.59 
-9.140501 -5.179501 -8.969001 -8.222501 -5.0215 
-12.3355 -12.7591 -12.1279 -11.0369 
-19.2311 -15.918 -14.9423 
-22.4774 -18.7324 
-1.934 -5.408 -4.347 -6.599 -4.9225 -3.8245 -1.934 -2.3615 -3.8375 
-6.5925 -10.348 -7.436 -10.005 -7.585 -4.7245 -3.539 -6.362 
-12.1711 -12.9925 -12.104 -12.5383 -7.8545 -6.682 -7.635 
-14.8156 -18.4472 -15.3089 -12.8992 -9.601501 -9.837501 
-20.2703 -21.3099 -15.5784 -14.6462 -13.1014 
-1.934 -5.408 -6.2165 -3.1385 -3.511 -1.4985 -3.8375 0 
-6.5925 -10.702 -9.2295 -5.979 -5.473001 -5.0225 -3.8375 
-12.2581 -14.461 -12.018 -7.733 -8.791 -5.0225 
-16.2841 -17.6589 -13.9558 -11.3418 -8.791 
-19.482 -19.4683 -17.5646 -11.3418 
-3.6215 -5.408 0 -2.7455 -8.200001 -3.1385 -4.657 -1.934 -2.3615 -3.8375 
-8.925 -5.408 -2.7455 -9.868 -9.140501 -6.756001 -5.156 -3.539 -6.362 
-8.925 -9.039001 -10.364 -13.5065 -13.339 -7.137 -6.843 -7.635 
-12.7184 -15.7874 -11.425 -14.5286 -12.5961 -8.828501 -10.1635 
-19.4668 -17.1664 -13.9095 -14.115 -14.043 -12.312 
