-4.759 
n/a 
n/a 
n/a 
n/a 
-4.759 
n/a 
n/a 
n/a 
n/a 
-4.759 
n/a 
n/a 
n/a 
n/a 
-4.759 
n/a 
n/a 
n/a 
n/a 
-7.4885 -4.3075 -6.0645 -2.4945 -1.934 -5.1845 
-12.4232 -7.394001 -7.741 -4.2645 -6.564 
-15.5097 -9.149501 -9.468 -9.260501 
-17.2652 -11.0041 -14.508 
-19.1198 -16.0441 
-3.3715 -1.7565 -7.4885 0 -5.387 -1.756 -4.732 -4.8155 -3.152 -3.557 -1.7695 -2.489 -1.934 -5.1845 -3.098 
-4.3215 -9.320001 -7.4885 -5.387 -6.433 -6.161 -7.529 -6.615 -5.1785 -5.0365 -3.1405 -4.348 -6.564 -9.205 
-13.3934 -9.320001 -13.5027 -6.433 -11.7414 -8.904501 -9.198501 -8.966001 -5.7225 -5.325 -4.8625 -8.9285 -10.031 
-13.3934 -15.488 -14.5487 -11.7414 -14.4849 -10.354 -10.6885 -9.7185 -6.164 -6.653 -10.2805 -12.8903 
-19.5614 -16.534 -19.8571 -14.4849 -15.9344 -11.844 -11.441 -9.992001 -7.5425 -12.8096 -14.2423 
-6.864 -2.229 -4.3075 -5.9885 -1.756 -3.886 -3.152 -1.934 -5.1845 -3.098 
-8.205501 -6.2575 -8.192 -7.201 -5.5045 -6.2305 -4.9115 -6.564 -9.205 
-13.1162 -10.6605 -9.3225 -9.630501 -8.1045 -8.238001 -9.762 -10.031 
-17.5192 -11.791 -11.7734 -12.4615 -9.637501 -13.3069 -13.1562 
-18.6497 -14.2419 -14.6044 -13.9945 -14.8292 -16.7011 
-2.5685 -1.4985 -6.5105 -3.881 -3.9355 -2.4945 -3.2955 -2.3345 -1.4985 -5.1845 -3.6885 -3.098 -1.934 -6.864 -3.8405 0 
-3.7015 -7.134001 -11.3191 -7.045501 -5.6745 -4.6305 -4.534 -3.233 -6.5205 -7.323501 -6.803 -4.746 -9.2825 -8.532001 -3.8405 
-10.304 -12.7918 -14.4836 -8.359501 -7.123 -5.836 -5.117 -7.917 -8.096001 -10.4945 -8.219501 -12.3765 -11.1387 -8.532001 
-15.9618 -15.9563 -15.7976 -9.786501 -8.787001 -6.481 -9.693501 -10.354 -11.5508 -11.911 -16.436 -14.2327 -11.1387 
-19.1263 -17.2703 -17.2246 -11.4505 -9.317 -11.3307 -12.1921 -13.8088 -12.9673 -20.1275 -18.2922 -14.2327 
