-4.759 
n/a 
n/a 
n/a 
n/a 
-4.759 
n/a 
n/a 
n/a 
n/a 
-4.759 
n/a 
n/a 
n/a 
n/a 
-4.759 
n/a 
n/a 
n/a 
n/a 
-4.094 -4.072 -3.2055 -8.27 -4.221 -1.934 -3.691 -3.264 -3.237 -7.5185 -2.872 0 -4.567 -3.0465 -4.215 -6.3905 0 
-8.724501 -5.064 -10.9315 -12.9178 -5.1325 -4.8225 -7.0135 -6.8815 -11.9331 -10.718 -2.872 -4.567 -6.047 -6.3285 -10.051 -6.3905 
-9.556001 -13.2968 -15.5793 -13.8293 -7.699 -7.809501 -10.9794 -16.4496 -15.1326 -10.718 -6.459001 -6.047 -10.0232 -13.3883 -10.051 
-17.885 -17.9446 -16.4908 -16.3958 -10.2035 -11.705 -20.5475 -19.6491 -15.1326 -14.305 -7.9055 -10.0232 -17.083 -13.3883 
-22.5328 -18.8561 -19.0573 -18.9003 -14.2294 -21.2731 -23.747 -19.6491 -18.7196 -15.7515 -12.1749 -17.083 -17.083 
-4.347 -6.304 -5.1845 -3.1385 -3.511 -1.934 -3.691 -2.5045 -4.099 -2.3345 -3.237 -2.9195 -4.2485 -2.872 -3.5725 -2.7295 -2.674 -2.6165 -3.7555 -2.9995 -3.602 -3.509 0 
-9.5935 -10.6215 -7.4095 -5.979 -4.582 -4.8225 -6.273 -5.6225 -5.226 -5.602 -6.625 -6.819 -6.9005 -5.087501 -6.397 -3.8 -4.447 -6.504001 -6.06 -5.787 -7.946001 -3.509 
-13.911 -12.8465 -9.967001 -6.5055 -6.922501 -6.8885 -8.979 -6.043 -7.783 -9.578501 -11.5697 -9.887501 -9.511001 -7.2355 -7.479 -5.222 -6.9035 -7.711 -10.31 -11.0998 -7.946001 
-16.136 -15.404 -10.4155 -9.3395 -9.147501 -9.340501 -9.234 -9.047501 -12.6503 -14.77 -14.6382 -12.5644 -11.7884 -8.205 -8.741501 -7.851501 -8.057 -12.084 -15.6228 -11.0998 
-18.6935 -15.8525 -13.2495 -11.7307 -11.8839 -9.497001 -12.5327 -14.5272 -17.8418 -17.8385 -17.3151 -14.8418 -12.7579 -9.5415 -10.553 -8.964001 -12.54 -17.3968 -15.6228 
-4.3435 -6.304 -9.6365 -2.4945 -3.8245 -1.934 -3.691 -3.9345 -1.7695 -1.4985 -3.237 -3.36 0 -4.013 -3.0365 -2.186 -2.847 -4.5725 -4.889 -2.7455 -1.4985 -4.02 0 
-9.872 -16.6481 -10.9575 -5.751 -4.7245 -4.8225 -7.497001 -3.94 -2.7955 -4.1875 -5.9455 -3.36 -4.013 -5.438 -3.66 -4.1045 -6.9095 -7.7445 -8.224501 -3.637 -4.914001 -4.02 
-20.2161 -17.9691 -14.214 -6.158 -7.141 -7.901501 -7.500501 -4.4455 -4.88 -7.3475 -5.9455 -7.5695 -5.438 -5.9335 -4.256001 -7.5755 -10.0375 -11.5194 -8.902501 -7.449 -4.914001 
-21.5371 -21.2256 -14.621 -9.0605 -10.3745 -7.905001 -7.9645 -7.7025 -8.195001 -7.3475 -10.1305 -8.953501 -5.9335 -6.389 -7.5885 -10.468 -13.8748 -12.1974 -12.8347 -7.449 
-24.7936 -21.6326 -17.5235 -12.4502 -10.386 -8.370001 -10.3605 -10.597 -8.195001 -10.4585 -11.5145 -9.557501 -6.389 -9.0725 -10.4755 -14.5143 -14.5528 -16.1296 -12.8347 
-3.3785 -3.6645 -4.8985 -4.3435 -6.304 -11.0555 -2.4945 -3.8245 -1.934 -3.691 -2.872 -3.0365 -2.186 -2.847 -3.915 -6.318 -3.127 -2.0935 -2.3615 0 
-7.175 -6.519 -8.672501 -9.872 -18.0671 -13.55 -5.751 -4.7245 -4.8225 -6.5825 -4.651 -3.66 -4.1045 -6.18 -11.3858 -10.281 -4.761 -3.854 -2.3615 
-9.7465 -9.691501 -14.6018 -21.6351 -20.5616 -16.8065 -6.158 -7.141 -7.009501 -7.58 -5.2045 -4.256001 -6.986001 -14.2814 -15.3488 -11.915 -5.9875 -3.854 
-14.3554 -16.0744 -26.3649 -24.1296 -23.8181 -17.2135 -9.0605 -9.1235 -8.7115 -8.93 -5.811 -6.997001 -15.288 -18.2444 -16.9828 -13.1415 -5.9875 
-20.7383 -27.8375 -28.8594 -27.3861 -24.2251 -20.116 -11.1992 -10.8713 -9.2915 -9.533001 -8.543 -15.3046 -19.251 -19.8784 -18.2093 -13.1415 
