-4.759 
n/a 
n/a 
n/a 
n/a 
-4.759 
n/a 
n/a 
n/a 
n/a 
-4.759 
n/a 
n/a 
n/a 
n/a 
-4.759 
n/a 
n/a 
n/a 
n/a 
-1.8085 -4.2055 -2.8645 -3.1125 -3.7855 -1.934 -1.4985 -8.974 -5.1845 -3.8195 -2.264 -5.715 0 
-4.713 -7.412 -3.5345 -5.356501 -5.059 -2.6125 -10.0285 -11.08 -6.896501 -6.0815 -7.814 -5.715 
-8.7805 -8.2605 -5.792 -6.9125 -5.6785 -11.5367 -12.3843 -12.792 -10.4345 -12.1431 -7.814 
-9.533001 -9.913 -7.257 -7.4775 -15.0651 -13.8925 -14.0963 -16.33 -16.4961 -12.1431 
-10.623 -11.5172 -7.851501 -17.1583 -17.4209 -15.6045 -17.6343 -22.3916 -16.4961 
-3.2615 -2.3335 -4.2055 -2.0935 -4.609 -1.934 -8.974 -5.1845 -3.7955 0 
-5.0495 -6.740001 -5.6535 -6.582 -5.7275 -10.335 -11.08 -6.83 -3.7955 
-9.489 -8.5825 -10.3165 -7.626 -15.2037 -12.441 -12.7255 -6.83 
-11.6343 -13.3783 -11.3605 -17.2932 -17.3097 -14.0865 -12.7255 
-16.4301 -14.4223 -21.0277 -19.3992 -18.9552 -14.0865 
-3.2615 -2.3335 -3.098 -2.9805 -3.7555 -1.4985 -4.2055 -1.7695 -3.685 -1.934 -1.4985 -5.1845 -3.7955 0 -8.212501 0 
-5.0495 -5.0465 -6.343 -5.3095 -4.843 -5.0445 -4.621 -4.9795 -5.3835 -2.6125 -6.5205 -6.83 -3.7955 -8.212501 -8.212501 
-7.9095 -7.3945 -8.839001 -6.3935 -6.6915 -5.2415 -7.811501 -5.9975 -6.16 -7.672 -8.7895 -6.83 -10.4765 -8.212501 
-10.4915 -10.5225 -9.6875 -8.0395 -6.785 -8.425501 -8.843 -6.7125 -10.418 -9.474001 -8.7895 -14.3392 -10.4765 
-13.6195 -11.371 -11.4373 -8.289001 -9.8395 -9.442501 -9.609501 -10.597 -12.523 -9.474001 -16.4341 -14.3392 
-3.321 0 -2.9805 -3.7555 -1.8085 -3.4625 -1.7695 -3.685 -5.1845 -3.8195 -8.212501 
-3.321 -2.9805 -5.3095 -4.597 -4.803 -5.0775 -4.9795 -9.479501 -6.896501 -10.703 
-5.175 -5.3095 -6.3225 -8.34 -5.939 -8.790501 -11.8378 -11.6247 -14.7968 
-7.106 -6.3225 -9.6455 -8.994 -10.2865 -15.8746 -13.983 -19.525 
-8.0325 -9.6455 -10.8585 -13.5519 -17.3706 -18.0198 -21.8833 
