-4.759 
n/a 
n/a 
n/a 
n/a 
-4.759 
n/a 
n/a 
n/a 
n/a 
-4.759 
n/a 
n/a 
n/a 
n/a 
-4.759 
n/a 
n/a 
n/a 
n/a 
-4.5925 -3.047 -3.8275 
-7.272 -7.48 
-12.2136 
n/a 
n/a 
-4.5925 -3.4985 -4.4525 -5.011 -3.0365 -2.7415 -4.8735 -12.16972 
-8.849001 -7.3675 -9.7325 -8.3535 -4.2225 -6.467 -18.32702 
-12.931 -12.8239 -14.0228 -9.5755 -8.9655 -20.34732 
-18.3874 -17.1142 -15.2448 -14.2941 -23.11722 
-22.6777 -18.3362 -19.9634 -28.44582 
-3.4985 -3.7345 -2.5045 -3.962 0 -3.5155 -4.299 -1.756 -4.6395 0 -3.264 -1.7565 -4.735 -2.186 -3.757 -1.934 -3.957 0 
-6.318501 -6.606501 -6.649 -3.962 -3.5155 -8.027 -5.769 -5.849 -4.6395 -3.264 -3.6125 -6.03 -7.0795 -4.779 -5.7075 -5.525 -3.957 
-9.158001 -11.3172 -6.649 -7.873 -8.027 -8.281501 -10.513 -5.849 -8.6175 -3.6125 -6.388 -7.925 -10.1185 -6.437 -10.4035 -5.525 
-13.9777 -11.3172 -10.1075 -12.5707 -8.281501 -13.8367 -10.513 -9.3935 -8.789001 -6.388 -8.123501 -11.1278 -11.7765 -11.412 -10.4035 
-13.9777 -14.7757 -14.8052 -12.8252 -13.8367 -13.8367 -14.0575 -10.1775 -11.8453 -8.123501 -11.4833 -12.7858 -16.7515 -11.412 
-4.0865 0 -3.2495 -4.6525 -3.074 -3.3715 -3.8035 
-4.0865 -3.2495 -5.752 -7.5105 -6.0315 -6.0565 
-7.915 -5.752 -8.069 -10.329 -8.8415 
-10.7897 -8.069 -11.2891 -13.139 
-13.1067 -11.2891 -14.0991 
