-4.759 
n/a 
n/a 
n/a 
n/a 
-4.759 
n/a 
n/a 
n/a 
n/a 
-4.759 
n/a 
n/a 
n/a 
n/a 
-4.759 
n/a 
n/a 
n/a 
n/a 
-3.535 -4.386 -3.8195 -1.7565 -4.167 -3.115 -5.3885 0 -6.3215 -2.4945 -4.281 -2.5045 -4.649 -5.907 
-8.044001 -6.279 -4.542 -5.876501 -6.488501 -8.666 -5.3885 -6.3215 -9.294001 -6.134 -5.893 -7.328501 -7.7805 
-9.107 -7.506001 -8.233001 -8.002001 -9.1625 -8.666 -8.3785 -9.294001 -13.1361 -7.326 -10.199 -10.7575 
-9.696 -9.684001 -9.928 -10.798 -9.1625 -10.5425 -11.829 -13.1361 -14.3281 -11.8088 -13.849 
-12.0322 -11.6642 -12.724 -10.798 -10.7495 -13.993 -15.6711 -14.3281 -18.8109 -15.4588 
-1.4985 -4.386 -3.4425 -1.7565 -3.699 -4.167 -1.7565 -5.3885 -1.756 -6.3215 0 -2.7415 -4.281 -2.5045 -4.649 -5.907 
-5.768001 -6.306 -4.5535 -5.662 -7.2945 -5.5915 -7.235001 -7.176001 -8.437 -6.3215 -2.7415 -5.383 -5.893 -7.328501 -7.7805 
-7.271501 -7.1685 -8.815001 -8.962001 -8.064 -9.3275 -8.528501 -9.4585 -8.437 -9.058001 -5.383 -6.785501 -10.199 -10.7575 
-7.705 -11.7258 -12.296 -10.0545 -12.2656 -9.843 -10.9008 -9.4585 -11.3777 -11.8901 -6.785501 -11.5855 -13.849 
-12.5317 -15.2068 -13.3885 -14.3009 -12.7811 -12.5351 -10.9008 -12.4302 -14.2098 -13.2926 -11.5855 -15.2355 
-1.4985 -3.699 -4.386 -3.4425 -1.934 -1.4985 -4.167 -3.115 -6.3215 -1.756 -5.3885 -3.152 -4.281 -2.5045 -4.649 -5.907 0 
-5.264 -8.618501 -6.306 -5.188 -2.6125 -5.5465 -6.488501 -9.601501 -8.1995 -7.377 -8.816 -6.318501 -5.893 -7.328501 -7.7805 -5.907 
-10.025 -9.822001 -7.5415 -5.799 -6.271 -8.536501 -10.243 -10.478 -9.855 -9.290001 -12.1093 -7.3535 -10.199 -10.7575 -7.7805 
-11.2285 -10.7055 -8.058001 -9.674001 -9.019001 -12.3488 -11.1195 -12.1335 -11.768 -12.9385 -13.1443 -11.9011 -13.849 -10.7575 
-12.112 -11.222 -12.3494 -12.6612 -12.8823 -13.2253 -12.775 -14.0465 -15.4165 -13.9735 -17.6919 -15.5511 -13.849 
-1.934 -5.3885 -1.756 -6.3215 -3.699 -4.088 -3.152 -4.281 -2.5045 -4.649 -5.907 0 
-6.4035 -7.176001 -8.437 -10.9075 -7.144 -6.9045 -6.318501 -5.893 -7.328501 -7.7805 -5.907 
-7.7845 -9.4585 -13.2272 -14.3525 -9.6645 -9.1415 -7.3535 -10.199 -10.7575 -7.7805 
-9.910501 -14.2797 -16.6722 -16.873 -12.0579 -10.6745 -11.9011 -13.849 -10.7575 
-14.7901 -17.7247 -19.1927 -19.2664 -13.5909 -15.2221 -15.5511 -13.849 
