-4.759 
n/a 
n/a 
n/a 
n/a 
-4.759 
n/a 
n/a 
n/a 
n/a 
-4.759 
n/a 
n/a 
n/a 
n/a 
-4.759 
n/a 
n/a 
n/a 
n/a 
-3.6055 -3.158 -3.5585 -1.7565 -5.3885 -3.8135 -3.6955 -2.9905 -3.2825 -1.934 -1.4985 -3.819 -5.2355 0 
-5.061 -5.949 -5.4275 -7.235001 -9.17 -7.743501 -5.013 -6.785 -5.0275 -2.6125 -4.796 -7.9805 -5.2355 
-8.02 -7.8625 -10.1425 -11.3795 -13.41 -9.346001 -8.6715 -8.182 -5.7285 -5.98 -8.8 -7.9805 
-9.818001 -12.6989 -14.287 -15.6195 -15.0125 -13.1521 -9.519501 -9.0165 -9.661501 -9.687 -8.8 
-14.747 -16.8434 -18.527 -17.222 -18.8186 -14.0001 -10.0265 -13.2137 -13.4749 -9.687 
-3.6055 -3.158 -1.4985 -5.3885 -3.5585 -3.098 -3.6845 -1.4985 -3.17 -4.6505 -4.4345 -1.934 -3.8735 0 
-5.061 -4.725 -7.283501 -9.265 -6.3075 -6.2085 -4.8155 -3.7115 -7.9495 -8.14 -6.433001 -4.885 -3.8735 
-6.213 -10.159 -10.4505 -12.1244 -10.316 -6.7805 -7.1715 -8.629 -12.2796 -9.444501 -9.656501 -4.885 
-11.7846 -13.326 -14.1271 -16.1329 -10.888 -9.529 -12.3556 -13.0989 -13.5841 -12.9544 -9.656501 
-14.9516 -17.0026 -18.1356 -16.7049 -13.6365 -15.0305 -16.8255 -14.4034 -17.094 -12.9544 
-1.4985 -3.284 -3.693 -4.0655 -4.4345 -1.7565 -3.826 -4.5985 -1.934 -3.6055 -3.158 -2.186 -4.1925 -1.934 -3.8735 
-4.4545 -5.8685 -7.5105 -7.892 -4.719 -5.838 -6.4825 -6.2475 -4.8595 -5.061 -5.3735 -6.559 -5.933 -4.885 
-7.775001 -9.933001 -11.797 -8.649501 -8.247001 -8.438001 -8.013 -9.39 -7.103 -7.2015 -9.807001 -7.114 -8.7145 
-12.3079 -14.3509 -12.5545 -12.4047 -11.5466 -10.1545 -11.4067 -11.8017 -9.3655 -11.9614 -10.2315 -9.5155 
-16.7258 -15.1084 -16.3097 -15.7043 -13.2631 -13.5934 -13.8184 -14.0642 -14.1732 -12.3859 -12.5786 
-4.2275 -5.025 -3.6055 -3.158 
-8.386501 -7.9995 -5.061 
-11.6068 -8.7685 
-12.3758 
n/a 
