-4.759 
n/a 
n/a 
n/a 
n/a 
-4.759 
n/a 
n/a 
n/a 
n/a 
-4.759 
n/a 
n/a 
n/a 
n/a 
-4.759 
n/a 
n/a 
n/a 
n/a 
-5.3885 -2.229 -3.535 -3.7425 -4.3295 -3.7425 -2.229 -3.098 -2.186 -4.164 -2.5045 -4.649 -7.2755 
-7.854 -5.2675 -6.0635 -7.126 -7.746 -6.5585 -4.8015 -4.7005 -5.757 -6.231 -7.328501 -7.7425 
-10.586 -8.080501 -9.9205 -9.452001 -10.937 -9.026001 -6.132 -7.5495 -7.6225 -11.77 -10.4345 
-13.399 -12.2005 -12.4259 -12.8208 -13.4045 -10.131 -8.512 -9.147 -13.4679 -14.876 
-17.519 -14.7059 -15.7947 -15.2883 -14.5095 -12.6282 -10.4401 -15.6676 -16.5739 
-4.3295 -3.7425 -2.9705 -2.186 -2.664 -3.699 -3.7425 -1.934 -5.3885 -2.7415 -4.164 -2.5045 -4.649 -7.2755 
-7.746 -6.4255 -3.89 -3.8555 -4.654 -7.849501 -5.6175 -6.4035 -8.401501 -5.8395 -6.231 -7.328501 -7.7425 
-10.3885 -7.128 -5.7205 -5.2675 -8.400001 -9.218 -8.772 -8.9775 -11.6261 -7.854 -11.77 -10.4345 
-11.091 -9.061501 -7.034501 -9.1785 -9.889001 -12.5887 -12.0102 -12.1863 -13.6406 -13.642 -14.876 
-13.0245 -10.293 -10.6595 -10.468 -13.1185 -15.8269 -15.219 -14.2008 -19.4286 -16.748 
-1.4985 -3.17 -3.699 -3.7425 -1.7565 -5.3885 -4.3295 -3.7425 -2.7415 -4.281 -2.5045 -4.649 -7.2755 0 
-3.7115 -4.663 -7.849501 -6.2745 -7.235001 -9.401001 -7.746 -6.3465 -5.383 -5.893 -7.328501 -7.7425 -7.2755 
-4.8395 -8.657001 -9.832001 -10.523 -11.6105 -9.457001 -10.354 -8.557 -6.785501 -10.199 -10.4345 -7.7425 
-8.836 -10.1225 -14.2263 -14.8985 -11.6665 -12.388 -12.5645 -10.0185 -11.5855 -13.526 -10.4345 
-10.172 -14.5912 -18.6018 -14.9545 -14.5975 -14.5985 -14.026 -15.0415 -14.9125 -13.526 
-1.934 -5.3885 -4.3295 -3.7425 -2.8645 -4.164 -2.5045 -1.8085 -4.649 -7.2755 
-6.4035 -9.401001 -7.746 -6.694 -5.1465 -6.231 -3.3625 -7.577001 -7.7425 
-10.7428 -9.457001 -10.5745 -9.1575 -7.131 -6.882 -10.4035 -9.903001 
-10.7988 -12.6085 -13.038 -11.2058 -7.81 -15.0904 -12.7295 
-13.9503 -15.072 -15.0863 -11.8848 -16.197 -17.4164 
