-4.759 
n/a 
n/a 
n/a 
n/a 
-4.759 
n/a 
n/a 
n/a 
n/a 
-4.759 
n/a 
n/a 
n/a 
n/a 
-4.759 
n/a 
n/a 
n/a 
n/a 
-4.0455 -6.055 -3.013 -2.6165 -2.674 -5.333 0 
-7.551001 -8.9515 -3.724 -4.2165 -8.7875 -5.333 
-10.281 -9.273001 -4.6215 -10.2335 -8.7875 
-10.391 -9.993501 -10.5125 -10.2335 
-11.3573 -16.2873 -10.5125 
-4.442 -12.16972 -3.013 -5.651501 -2.674 0 
-17.51312 -15.18272 -8.529501 -6.316 -2.674 
-20.52612 -19.92622 -10.8065 -7.900001 
-25.26962 -21.38772 -9.218 
-26.73112 -21.38772 
-4.0455 -8.7985 -4.567 -2.674 -1.8085 -4.0455 -4.5105 
-13.7638 -13.7535 -5.667 -3.63 -5.2965 -9.0495 
-18.7188 -14.8535 -6.468 -7.4655 -10.757 
-19.8188 -15.6545 -10.389 -13.3438 
-20.6198 -19.5755 -16.2673 
-3.6135 -4.442 -3.013 -2.6165 -5.2655 -3.4045 0 
-6.9335 -7.3345 -3.724 -7.7705 -6.607 -3.4045 
-10.1185 -7.665501 -8.153001 -8.610001 -6.607 
-10.5227 -12.4543 -9.316001 -8.610001 
-15.3115 -13.6173 -9.316001 
