-4.759 
n/a 
n/a 
n/a 
n/a 
-4.759 
n/a 
n/a 
n/a 
n/a 
-4.759 
n/a 
n/a 
n/a 
n/a 
-4.759 
n/a 
n/a 
n/a 
n/a 
-2.5045 -3.543 -3.9745 -3.135 -1.7565 -1.4985 -5.154 -3.098 -5.2235 -1.934 -4.245 -2.872 -1.4985 -4.1885 -5.2235 -1.934 -3.6485 0 -4.481 0 -4.5235 -1.756 -8.696501 -4.1885 -3.43 -4.0205 -1.934 -4.414 -1.7565 -4.8625 0 
-5.323 -9.036501 -7.297501 -3.9195 -2.4195 -5.884001 -8.663 -8.1675 -5.9445 -5.934 -6.824501 -4.035 -5.922 -11.1828 -5.9445 -5.577 -3.6485 -4.481 -4.481 -4.5235 -5.535 -9.428 -14.1885 -8.982 -7.2555 -5.91 -7.161 -5.851 -6.377501 -4.8625 
-9.641001 -12.6319 -7.997 -4.168 -6.716501 -9.104001 -13.9461 -9.165001 -10.0185 -7.9945 -7.9975 -8.572001 -13.0161 -11.9038 -9.814 -5.577 -8.359 -4.481 -7.302001 -5.535 -14.2023 -15.2959 -19.5468 -13.0979 -8.981501 -11.6626 -8.101001 -10.476 -6.377501 
-13.5148 -13.3314 -8.403001 -9.3135 -10.233 -14.4645 -14.9436 -13.2324 -12.7758 -9.401501 -12.6551 -15.7227 -13.7371 -15.7733 -9.814 -10.5425 -8.359 -7.302001 -8.136001 -14.2023 -20.2825 -20.3546 -23.6627 -14.8239 -15.0111 -12.6026 -12.8912 -10.476 
-14.2143 -13.7374 -13.5849 -13.7886 -15.5935 -15.462 -19.011 -15.9897 -14.1828 -14.0777 -19.8058 -16.4437 -17.6066 -15.7733 -14.9487 -10.5425 -12.037 -8.136001 -17.3451 -20.2825 -25.2964 -24.4705 -25.3887 -20.8535 -15.9511 -17.3928 -12.8912 
-3.034 -1.4985 -4.1955 -5.8535 -3.251 -4.077 -1.934 -1.4985 -5.347 -1.756 -7.1795 -4.953 0 -1.4985 -7.884501 -3.251 -4.077 -1.934 -1.4985 -4.0215 0 -5.3965 0 -4.5235 0 -4.4975 0 -1.756 -4.6335 -4.029 -1.7695 -4.985 -1.4985 -8.27 -4.414 -4.663 0 
-3.947 -5.036 -10.01 -8.189 -7.505 -4.43 -2.6125 -6.632501 -6.4145 -8.263 -12.6747 -4.953 -1.4985 -8.412001 -10.688 -7.505 -4.43 -2.6125 -5.949 -4.0215 -5.3965 -5.3965 -4.5235 -4.5235 -4.4975 -4.4975 -1.756 -5.6515 -8.2665 -4.395 -5.2955 -5.547 -9.271501 -13.1108 -9.5935 -4.663 
-7.907001 -10.5745 -12.3455 -12.7408 -9.109501 -4.9635 -8.148001 -8.308001 -13.9621 -13.8736 -12.6747 -6.9155 -8.412001 -11.3327 -14.942 -9.109501 -4.9635 -7.442501 -5.949 -10.089 -5.3965 -10.195 -4.5235 -8.489 -4.4975 -5.581501 -5.6515 -8.7255 -9.019 -7.2145 -5.827001 -14.1306 -14.0945 -18.2903 -9.5935 
-13.5841 -12.91 -16.8973 -14.3453 -9.815001 -9.7615 -9.792 -15.7064 -19.5727 -13.8736 -14.6372 -14.2896 -11.3327 -15.5867 -16.5465 -9.815001 -10.0245 -7.442501 -13.0055 -10.089 -10.195 -10.195 -8.489 -8.489 -5.581501 -8.797501 -8.7255 -9.391001 -12.2821 -7.798 -14.4746 -18.9536 -19.274 -18.2903 
-15.9196 -17.4618 -18.5018 -15.0508 -14.613 -11.5145 -17.3982 -21.317 -19.5727 -15.8361 -22.0113 -17.2103 -15.5867 -17.1912 -17.252 -14.876 -10.0245 -14.9556 -13.0055 -14.8875 -10.195 -14.2611 -8.489 -9.3585 -8.797501 -12.1133 -9.391001 -12.9195 -12.8656 -16.5988 -19.2976 -24.1331 -19.274 

n/a 
n/a 
n/a 
n/a 
-3.4985 -1.4985 -5.0955 -5.3255 -3.152 -4.077 -3.098 -1.934 -4.9405 -3.4635 -1.7695 -4.9505 -1.756 -6.067 0 -1.4985 -8.620501 -4.803 -1.4985 -5.1845 -1.7695 -4.37 -1.934 -4.0215 0 -4.481 0 -4.5235 0 -4.4975 0 -5.7285 -1.756 -4.052 -2.985 -4.1445 0 
-4.398 -5.6025 -9.000001 -7.714001 -5.8555 -7.1095 -4.746 -7.2845 -8.459001 -4.2045 -6.478001 -5.9715 -7.1765 -6.067 -1.4985 -8.89 -13.8237 -6.193001 -6.5205 -8.1495 -4.6705 -4.568501 -5.666 -4.0215 -4.481 -4.481 -4.5235 -4.5235 -4.4975 -4.4975 -5.7285 -6.995501 -5.1055 -5.4215 -6.415 -4.1445 
-8.933001 -10.208 -11.8621 -10.459 -8.839001 -8.052 -9.920501 -11.1476 -8.795 -8.739501 -7.440001 -12.4096 -7.1765 -6.686501 -8.89 -14.2312 -15.2137 -11.6706 -10.4425 -11.4957 -4.878 -10.2695 -5.666 -8.0515 -4.481 -7.302001 -4.5235 -8.489 -4.4975 -8.460001 -6.995501 -11.095 -6.408 -8.076 -6.415 
-13.5693 -13.0701 -14.6071 -13.3433 -9.265 -13.4485 -13.7836 -11.4836 -13.506 -9.626 -14.2691 -12.4096 -7.906 -14.506 -14.2312 -15.6212 -20.6913 -15.5926 -13.7887 -11.7032 -10.5745 -10.2695 -9.155001 -8.0515 -7.302001 -7.302001 -8.489 -8.489 -8.460001 -9.111501 -11.095 -12.3975 -9.153 -8.076 
-16.4314 -15.8151 -17.4914 -13.7693 -14.6987 -17.3116 -14.1196 -16.1946 -14.3925 -16.5665 -14.2691 -13.1391 -15.9313 -19.8472 -15.6212 -21.0988 -24.6133 -18.9388 -13.9962 -17.3997 -10.5745 -13.7585 -9.155001 -10.172 -7.302001 -10.3745 -8.489 -12.8701 -9.111501 -14.386 -12.3975 -15.1425 -9.153 
