-4.759 
n/a 
n/a 
n/a 
n/a 
-4.759 
n/a 
n/a 
n/a 
n/a 
-4.759 
n/a 
n/a 
n/a 
n/a 
-4.759 
n/a 
n/a 
n/a 
n/a 
-3.8735 -3.7555 -1.4985 -4.248 -2.5045 -4.9175 -3.2615 -4.723 -5.1845 -5.74 -3.325 -10.406 -3.6825 -6.890501 -4.945 -4.0375 -3.429 -4.1495 -2.5045 -4.723 
-8.014501 -4.843 -5.2845 -6.8335 -8.740001 -7.824 -7.8585 -9.7155 -5.7465 -9.0985 -14.887 -14.0885 -10.8215 -12.4965 -10.9315 -8.1365 -5.9855 -6.248 -8.519 
-9.2015 -8.621 -8.403001 -13.7236 -11.7543 -12.783 -13.2974 -9.780001 -9.105 -20.8631 -18.5695 -21.2275 -16.4275 -18.483 -15.0305 -10.674 -8.286 -12.7871 
-13.0427 -11.9241 -15.7755 -16.7379 -16.7133 -18.2219 -13.3619 -14.1217 -20.8696 -24.5456 -25.7085 -26.8335 -22.414 -22.582 -17.568 -12.9745 -14.9789 
-16.3458 -19.2966 -18.7898 -21.6969 -22.1522 -18.2864 -17.7036 -25.8863 -24.5521 -31.6846 -31.3145 -32.82 -26.513 -25.1195 -19.8685 -19.6674 
-3.2615 -1.4985 -4.712 -1.7565 -3.8735 -1.934 -4.9175 0 -4.732 -4.723 -5.1845 -5.74 -2.7415 -5.1605 -2.3345 -1.4985 -4.203 -3.6825 -1.934 -4.723 -1.4985 0 -7.539001 -7.751501 -7.716001 0 -4.5485 -1.4985 -3.5435 0 
-4.032 -5.918 -5.8675 -5.112 -5.938 -6.1035 -4.9175 -4.732 -8.984001 -9.7155 -5.7465 -8.463 -6.64 -6.162 -3.233 -5.438 -6.8015 -5.357 -5.897 -6.302 -1.4985 -7.539001 -7.818501 -7.826001 -7.716001 -4.5485 -5.7605 -4.2755 -3.5435 
-7.989501 -6.194 -8.1905 -6.791 -8.012501 -6.1035 -9.099501 -8.984001 -14.2051 -9.780001 -8.484 -10.419 -7.081 -6.7815 -6.624001 -7.296 -8.1595 -9.036 -6.8995 -6.302 -8.479 -7.818501 -7.852001 -7.826001 -12.9811 -5.7605 -8.2565 -4.2755 
-8.3325 -8.382001 -9.227001 -8.413501 -8.012501 -10.1595 -13.5591 -14.2051 -14.2696 -13.5007 -10.494 -10.432 -7.702001 -9.6085 -8.538 -8.4425 -10.7595 -10.375 -6.8995 -13.5899 -8.67 -7.852001 -7.852001 -13.2647 -14.1931 -8.2565 -8.2565 
-9.292001 -9.323501 -9.3205 -8.413501 -12.1883 -14.7035 -18.7802 -14.2696 -17.9903 -15.5107 -10.5095 -11.053 -10.7025 -10.094 -9.5605 -11.2299 -12.0985 -10.375 -14.408 -13.7809 -8.705 -7.852001 -13.3639 -14.4767 -16.6891 -8.2565 
-3.2615 -8.466001 -1.934 -4.9175 -1.7695 -4.723 -6.557 -2.7415 -5.1605 -2.3345 -4.203 -11.2215 -7.751501 -7.716001 -4.0555 -1.7695 -3.519 -1.934 -4.723 0 
-10.634 -10.119 -6.1035 -6.9285 -7.098501 -11.7948 -9.448 -6.64 -6.162 -5.841001 -13.0115 -10.172 -7.826001 -10.688 -4.7475 -5.3875 -5.3055 -5.897 -4.723 
-12.287 -14.4071 -7.604501 -9.093 -14.5755 -14.6858 -13.4463 -7.081 -9.662001 -15.9418 -13.7548 -10.0385 -10.9716 -10.781 -6.5975 -6.6375 -9.057 -5.897 
-16.5751 -15.9081 -10.1702 -16.626 -17.4665 -18.6841 -13.8873 -10.76 -20.1578 -16.4257 -13.8333 -13.3023 -11.0646 -12.631 -7.0425 -9.533001 -9.057 
-18.0761 -18.4738 -17.7032 -19.517 -21.4648 -19.1251 -17.5663 -21.2558 -20.2703 -16.5042 -17.1781 -13.5213 -12.9146 -13.076 -9.673 -9.533001 
-3.2615 -3.8255 -4.712 -1.934 -4.9175 0 -3.8735 -2.7415 -5.1605 -2.3345 -12.16972 -4.732 -4.723 -1.934 -4.723 -1.4985 -3.6825 -4.281 -7.539001 -7.751501 -12.16972 -2.7415 -4.5485 0 
-5.910501 -9.1435 -6.144001 -6.1035 -4.9175 -3.8735 -6.64 -6.64 -6.162 -14.83482 -16.90172 -8.984001 -6.6905 -5.897 -6.302 -4.87 -7.601501 -12.1366 -7.818501 -21.69962 -14.91122 -5.5565 -4.5485 
-9.920501 -10.254 -7.795501 -6.1035 -8.2115 -6.64 -9.0275 -7.081 -19.47492 -19.56682 -21.15372 -10.443 -8.7915 -6.8995 -9.5485 -8.116 -16.0397 -12.4161 -22.52202 -24.44112 -17.72622 -5.5565 
-10.651 -11.9055 -7.795501 -8.653501 -9.5275 -9.0275 -9.151 -20.75652 -24.20692 -23.81882 -22.61272 -12.544 -9.492001 -10.1185 -12.9719 -17.2014 -16.3192 -27.11962 -25.26352 -27.25612 -17.72622 
-12.3025 -11.9055 -9.0895 -9.726001 -12.09 -9.151 -23.07452 -25.48852 -28.45892 -25.27782 -24.71372 -13.2445 -12.7816 -13.5419 -22.0573 -17.4809 -31.02272 -29.86112 -28.07852 -27.25612 
