-4.759 
n/a 
n/a 
n/a 
n/a 
-4.759 
n/a 
n/a 
n/a 
n/a 
-4.759 
n/a 
n/a 
n/a 
n/a 
-4.759 
n/a 
n/a 
n/a 
n/a 
-7.609 -7.699501 -2.7415 -1.4985 -4.2245 -1.7565 -5.3745 -4.5845 -4.2995 -4.732 -2.7405 
-8.768001 -9.385501 -4.063 -5.2345 -5.277 -6.5 -9.233001 -9.304501 -8.4385 -7.8785 
-10.3415 -10.877 -6.907001 -5.753 -9.826 -10.6095 -14.3796 -13.5263 -12.2706 
-11.833 -13.721 -7.0775 -10.4335 -14.4621 -16.1051 -18.6014 -17.3584 
-14.677 -13.8915 -11.919 -15.0404 -19.9577 -20.3269 -22.4335 
-5.3745 -4.891 -3.9235 -4.2245 -2.7415 -8.616 -7.699501 -4.732 -2.7405 0 
-7.061501 -8.623 -8.0425 -6.6755 -12.7233 -10.2815 -13.0131 -7.8785 -2.7405 
-12.1857 -12.9782 -10.6759 -16.8385 -14.3888 -15.5951 -16.1596 -7.8785 
-16.5409 -15.6116 -20.8389 -18.504 -19.7024 -18.7416 -16.1596 
-19.1743 -25.7746 -22.5044 -23.8176 -22.8489 -18.7416 
-8.616 -7.009 -3.685 -2.5045 -1.4985 -4.2245 -2.0935 -1.4985 -5.3745 -4.5845 -4.732 -2.882 -2.7405 
-8.841001 -11.43 -5.0275 -3.583 -5.2345 -6.008 -2.9725 -6.2355 -9.233001 -9.118501 -7.229001 -4.3745 
-13.4022 -12.7725 -6.1845 -6.441501 -7.406 -6.686501 -6.884501 -9.854 -14.1936 -12.1749 -9.033001 
-14.7447 -13.9295 -8.936001 -8.435 -8.1415 -10.8911 -11.3816 -14.9994 -17.25 -13.9789 
-15.9017 -16.681 -10.4425 -8.9785 -12.4339 -15.3882 -16.527 -18.0558 -19.054 
-1.4985 -4.2245 -1.7565 -1.4985 -5.3745 -4.891 -1.7565 -5.1845 -6.844 -2.7415 -4.877 -2.3345 -3.1435 -4.156 -7.609 -8.841001 -5.7865 -2.7405 0 
-5.2345 -5.277 -2.4195 -6.2355 -7.061501 -6.8725 -6.580501 -6.9655 -9.2815 -6.445001 -5.7435 -4.9865 -6.4395 -8.951 -9.601501 -15.0259 -9.1 -2.7405 
-5.753 -5.484 -7.083001 -7.2945 -7.1715 -7.181 -7.1625 -9.420501 -13.0436 -7.107 -8.073001 -7.9025 -10.047 -12.0667 -15.9118 -18.3394 -9.1 
-5.9345 -8.672001 -8.000001 -7.3705 -7.185 -7.202001 -9.581501 -13.1712 -13.7056 -9.5135 -9.56 -11.8928 -12.8291 -18.377 -19.2253 -18.3394 
-9.172501 -9.061501 -8.0895 -7.3795 -7.2055 -9.740001 -13.3418 -13.8332 -16.1121 -11.0851 -13.6843 -14.6749 -19.1394 -21.6905 -19.2253 
