-4.759 
n/a 
n/a 
n/a 
n/a 
-4.759 
n/a 
n/a 
n/a 
n/a 
-4.759 
n/a 
n/a 
n/a 
n/a 
-4.759 
n/a 
n/a 
n/a 
n/a 
-4.35 -2.4945 -4.99 -3.995 -4.7885 -4.1455 -2.5045 -2.5645 0 -2.872 -3.1435 -4.706 -4.7885 -4.1455 -1.7565 -5.213 -2.3345 -3.7925 0 
-6.847501 -6.2325 -10.985 -8.9495 -6.302001 -6.475 -4.6955 -2.5645 -2.872 -5.3225 -8.005 -10.504 -6.302001 -5.11 -7.874001 -7.2615 -6.6055 -3.7925 
-10.4765 -12.5679 -15.9395 -11.0054 -8.703501 -9.290501 -4.6955 -6.051001 -5.3225 -10.4425 -14.1074 -12.0175 -6.596 -12.3137 -10.368 -12.0169 -6.6055 
-16.8119 -17.5224 -17.9954 -13.4069 -12.0586 -9.290501 -8.207001 -8.5795 -10.4425 -16.7343 -15.6209 -12.3115 -14.3949 -14.8077 -15.1234 -12.0169 
-21.7664 -19.5783 -20.3969 -16.762 -12.0586 -12.8808 -10.575 -13.7911 -16.7343 -18.2478 -15.9149 -20.1104 -16.8889 -19.5631 -15.1234 
-3.0365 -2.186 -2.5645 0 -7.581501 -4.7715 -2.264 -1.4985 -3.995 -2.229 -5.465 -3.4765 -2.7835 -2.264 -1.4985 -5.213 -4.1455 -2.925 -2.4945 -1.7565 -3.7925 0 -1.934 -3.5085 0 
-3.66 -5.5565 -2.5645 -7.581501 -11.136 -6.678 -2.9195 -4.712 -5.324 -6.6105 -8.805 -4.429 -5.9535 -2.9195 -5.7165 -10.0545 -6.9825 -3.7675 -5.101 -5.773 -3.7925 -1.934 -5.161 -3.5085 
-7.7605 -5.5565 -10.821 -11.136 -13.0425 -7.1695 -6.008 -5.586 -6.6385 -9.5345 -9.6615 -7.719501 -6.321 -6.337501 -10.609 -12.8915 -7.652 -6.325 -10.0965 -5.773 -6.021501 -5.161 -5.161 
-7.7605 -14.4296 -14.3755 -13.0425 -13.534 -9.144 -6.8855 -6.7355 -9.541 -10.5445 -13.1894 -8.349001 -10.5225 -11.3736 -13.446 -13.561 -10.1895 -11.4689 -10.0965 -7.7045 -8.75 -5.161 
-16.7112 -17.9841 -16.282 -13.534 -15.5085 -9.455501 -8.423501 -9.544001 -10.544 -14.0724 -13.8189 -12.4209 -15.5586 -14.2106 -14.1155 -16.0985 -15.3334 -11.4689 -12.028 -9.726 -8.75 
-5.378 -4.7715 -2.4945 -2.5645 0 -1.934 -3.995 -4.285 -5.465 -2.872 -2.925 -2.4945 -3.7925 0 -1.934 -1.4985 -3.999 -5.465 -1.7565 -1.4985 -5.213 
-8.9145 -6.6695 -5.936501 -2.5645 -1.934 -6.139 -9.031501 -6.904 -7.758 -4.5305 -3.7675 -6.978 -3.7925 -1.934 -2.6125 -4.7585 -7.528 -6.933 -2.4195 -5.7165 
-10.4425 -10.5225 -5.936501 -5.02 -6.139 -12.0627 -11.9887 -9.152 -9.538501 -5.2685 -8.593 -6.978 -6.021501 -2.6125 -5.364 -7.825001 -8.887501 -7.3645 -6.394001 
-14.2955 -10.5225 -8.173 -9.828 -12.0627 -15.0199 -14.2367 -10.9387 -10.22 -10.3885 -8.593 -9.065001 -7.047 -5.364 -8.290001 -9.047501 -9.1295 -10.411 
-14.2955 -12.759 -13.488 -15.9235 -15.0199 -17.2679 -16.0234 -11.6202 -15.34 -10.3885 -10.7595 -10.139 -8.8535 -8.290001 -9.446501 -9.225 -11.987 
-5.2495 -4.921 -3.7515 -3.995 -1.7695 -2.5645 0 -1.756 -3.4765 -3.7515 -4.4755 -1.7695 -3.7925 0 0 
-6.3685 -8.6225 -7.3225 -5.9385 -4.707 -2.5645 -1.756 -4.5775 -7.416501 -8.724001 -5.871 -5.5725 -3.7925 0 
-10.411 -12.5333 -9.2205 -10.4675 -4.707 -4.884501 -4.5775 -8.458 -12.8604 -10.647 -10.223 -5.5725 -3.7925 
-14.4146 -14.4313 -13.9393 -10.4675 -6.8595 -7.849 -8.458 -14.0175 -14.7834 -14.999 -10.223 -5.5725 
-16.3126 -19.1501 -13.9393 -12.62 -9.4645 -12.1445 -14.0175 -15.9405 -19.1354 -14.999 -10.223 
