-4.759 
n/a 
n/a 
n/a 
n/a 
-4.759 
n/a 
n/a 
n/a 
n/a 
-4.759 
n/a 
n/a 
n/a 
n/a 
-4.759 
n/a 
n/a 
n/a 
n/a 
-1.4985 -3.6135 -3.5015 -2.186 -1.934 -4.315 -1.7565 -3.502 -1.756 -7.231 -4.0685 -2.186 -4.2745 -3.458 -3.5455 -1.7695 -3.502 -1.934 -10.8075 0 -6.263 -4.1985 -1.756 -3.2295 -1.4985 -6.3855 -2.4945 -3.0365 -1.756 -4.518 0 
-4.4525 -7.1185 -5.481 -4.0835 -7.047 -5.0275 -4.9855 -5.513 -8.806 -11.7847 -6.23 -6.047501 -8.073001 -6.665501 -5.7145 -5.535 -6.217 -13.7479 -10.8075 -5.554501 -9.446001 -5.794 -4.793 -3.844 -7.705501 -9.588 -4.952001 -4.927 -6.254 -4.518 
-8.860001 -9.581 -7.157001 -9.580001 -8.109501 -7.5075 -7.1975 -13.4586 -13.4799 -13.9462 -10.5577 -9.1885 -11.5449 -10.3415 -6.5255 -8.009001 -18.5013 -13.7479 -16.362 -9.6595 -11.363 -8.946 -5.8145 -10.543 -11.4276 -12.0749 -6.776501 -9.3655 -6.254 
-10.7495 -11.3158 -12.9039 -10.363 -10.6269 -8.694 -16.0707 -18.1325 -15.6414 -18.2739 -13.6987 -12.8182 -15.2209 -11.1525 -8.059501 -20.5293 -18.5013 -19.3024 -20.467 -11.4152 -14.6962 -9.495501 -12.8381 -14.2651 -13.9145 -13.8994 -11.6026 -9.3655 
-12.4843 -17.0627 -13.6869 -12.8804 -11.8134 -17.879 -20.7446 -20.294 -19.9691 -21.4149 -17.3284 -16.4942 -16.0319 -12.6865 -20.621 -20.5293 -24.0558 -23.4074 -22.2227 -14.6962 -15.2457 -16.5615 -16.5602 -16.752 -15.739 -18.7255 -11.6026 
-1.934 -1.4985 -4.207 -1.7565 -4.845 -4.5155 -4.7505 0 -4.852 -4.686 -3.7445 -3.9485 -3.5455 -1.7695 -3.502 -4.173 -1.4985 -3.59 -2.4265 -4.993 -2.645 -3.1575 -6.263 -4.1155 0 -6.580501 -2.8635 0 -4.142 0 
-2.6125 -4.969 -4.989 -6.7095 -8.033001 -8.8585 -4.7505 -4.852 -6.0965 -8.443001 -6.677 -7.359 -5.7145 -5.535 -7.9665 -4.3745 -4.268 -5.906 -6.0585 -7.112 -3.72 -8.577001 -8.1815 -4.1155 -6.1425 -8.3785 -2.8635 -4.142 -4.142 
-7.092 -5.283 -9.302 -10.0713 -12.9508 -8.8585 -9.446501 -6.0965 -9.689 -9.4285 -10.035 -9.818001 -6.5255 -9.644501 -8.587501 -5.76 -6.276 -9.803 -8.411501 -7.225 -6.9845 -9.1475 -7.9325 -8.981501 -8.451 -8.451 -6.9125 -4.142 
-7.494501 -9.326 -13.0092 -14.9891 -12.9508 -13.6755 -10.9094 -9.689 -11.0259 -13.4389 -12.494 -10.067 -9.7075 -9.7825 -10.5325 -7.669001 -10.0745 -12.0196 -8.641001 -10.003 -9.9185 -9.894 -10.9005 -9.544001 -8.451 -11.9624 -6.9125 
-11.7815 -13.0648 -17.927 -14.9891 -17.7678 -15.1384 -14.5019 -11.0259 -15.0363 -15.8979 -12.743 -13.36 -9.871501 -11.8829 -12.4415 -11.5477 -12.2911 -12.2491 -11.5161 -13.056 -10.0345 -10.88 -9.723001 -9.544001 -11.9624 -11.9624 
-3.6135 -4.933 -3.641 -4.207 0 -8.5895 -4.417 -1.934 -3.502 -1.756 -4.732 -3.5455 0 -12.16972 -2.186 -6.263 -4.227 0 -7.239 -5.5875 0 -3.3715 -3.299 -2.4265 -4.993 0 
-8.826 -8.8955 -7.489501 -4.207 -8.5895 -13.4855 -6.487 -4.8155 -5.513 -6.935 -9.3795 -3.5455 -12.16972 -14.35572 -8.673 -8.1355 -4.227 -7.5105 -11.272 -5.5875 -3.3715 -6.3805 -6.3905 -6.0585 -4.993 
-12.9549 -13.05 -7.489501 -13.6679 -13.4855 -15.5555 -8.553 -6.947001 -11.5876 -11.9935 -9.3795 -17.19982 -14.35572 -20.22922 -10.004 -7.499001 -12.1447 -11.736 -11.736 -9.604 -6.3805 -10.4 -9.797501 -6.0585 
-17.1094 -13.05 -17.7156 -18.5639 -15.5555 -17.6215 -11.1051 -14.1326 -16.6461 -11.9935 -23.29302 -19.38582 -20.22922 -21.91172 -9.742001 -15.1604 -16.3702 -11.736 -16.3067 -12.7638 -10.4 -13.807 -9.797501 
-17.1094 -23.2761 -22.6116 -20.6339 -17.6215 -20.1736 -18.2907 -19.1911 -16.6461 -25.90702 -25.47902 -25.25932 -21.91172 -21.91172 -18.2002 -20.1241 -16.3702 -16.3067 -19.4665 -16.7833 -13.807 -13.807 

n/a 
n/a 
n/a 
n/a 
