-4.759 
n/a 
n/a 
n/a 
n/a 
-4.759 
n/a 
n/a 
n/a 
n/a 
-4.759 
n/a 
n/a 
n/a 
n/a 
-4.759 
n/a 
n/a 
n/a 
n/a 
-2.7295 -2.7765 -3.047 -1.4985 -4.6025 -3.9225 -1.4985 -4.943 -1.934 -10.6255 0 -4.3355 -1.756 -3.882 -4.7265 -4.943 -1.7565 -9.315001 -3.6135 -4.677 -1.756 -1.4985 -3.9965 -4.943 -1.7565 -9.170501 -3.8405 -3.436 -2.3335 0 
-4.065 -4.5075 -4.095 -5.2745 -7.558001 -4.463 -6.263 -6.461 -13.5659 -10.6255 -4.3355 -6.208 -5.1785 -8.3065 -9.5385 -6.188 -10.7175 -13.1297 -8.408501 -6.0955 -3.0405 -4.79 -7.047501 -6.188 -11.08 -11.136 -6.325 -5.4805 -2.3335 
-5.696 -5.387 -8.093 -8.373001 -8.405001 -8.62 -7.554501 -18.7449 -13.5659 -14.961 -6.208 -9.712001 -9.404501 -13.6351 -11.0763 -15.7612 -14.5322 -17.9247 -9.706 -6.995 -6.533 -7.9865 -8.0815 -16.1237 -13.0455 -13.6205 -8.429001 -5.4805 
-6.5735 -8.960501 -11.4587 -9.0795 -12.6446 -9.621 -20.1588 -18.7449 -17.9014 -16.8335 -9.712001 -14.005 -14.6199 -15.1729 -20.6495 -19.5759 -19.3272 -19.2222 -10.421 -9.896 -9.365 -8.650001 -18.4526 -18.0892 -15.53 -15.7245 -8.429001 
-9.997001 -12.5504 -12.1652 -13.4123 -13.6456 -22.6089 -20.1588 -23.0804 -19.7739 -20.3375 -14.005 -19.2204 -16.1577 -24.7461 -24.4642 -24.3709 -20.6247 -19.9372 -13.322 -12.866 -10.1195 -19.3083 -20.4181 -20.5737 -17.634 -15.7245 
-1.4985 -3.9965 -4.943 -1.7565 -9.170501 0 -3.436 -2.3335 -4.5635 -1.7565 -9.315001 -3.6135 -4.677 0 -3.4765 -3.436 -2.3335 -10.4215 -7.940001 -5.3535 -3.115 -2.3615 -3.948 -5.3535 -3.152 -4.741 -1.934 -7.579 -5.1185 0 
-4.79 -7.047501 -6.188 -11.08 -9.170501 -3.436 -5.4805 -7.2845 -6.169001 -10.7175 -13.1297 -8.408501 -4.677 -3.4765 -5.639 -5.4805 -13.9458 -18.4555 -13.9023 -8.423 -4.312 -7.842 -8.686001 -8.065001 -8.7655 -6.837501 -9.184501 -13.1645 -5.1185 
-7.9865 -8.0815 -16.1237 -11.08 -13.0177 -5.4805 -10.172 -8.797001 -15.6842 -14.5322 -17.9247 -8.408501 -8.173 -5.639 -7.2945 -17.4798 -21.9798 -24.4178 -16.9718 -9.978001 -9.3545 -12.7034 -11.6493 -13.9979 -10.9618 -14.627 -14.9116 -13.1645 
-8.650001 -18.4526 -16.1237 -14.9272 -15.0622 -10.172 -11.8773 -18.4582 -19.4989 -19.3272 -17.9247 -12.1861 -10.0815 -7.2945 -19.428 -25.5138 -27.9421 -27.4873 -18.5268 -15.3241 -14.2939 -15.6667 -17.5822 -16.1942 -18.7513 -20.3541 -14.9116 
-19.3083 -18.4526 -19.9709 -16.9717 -19.7537 -11.8773 -21.5385 -22.2729 -24.2939 -19.3272 -21.7023 -14.0946 -11.6992 -19.428 -27.462 -31.4761 -31.0116 -29.0423 -23.8729 -20.2635 -17.2572 -21.5996 -19.7785 -23.9837 -24.4784 -20.3541 
-1.4985 -3.5905 -4.8255 -2.4945 -3.115 -10.488 -4.677 -4.8255 0 -9.109501 -4.8255 0 -3.843 0 
-4.435 -8.112 -6.5745 -5.505 -14.3786 -15.165 -9.6125 -4.8255 -9.109501 -14.2734 -4.8255 -3.843 -3.843 
-9.105 -9.946 -9.4265 -17.1558 -19.0556 -20.1005 -9.6125 -14.976 -14.2734 -14.2734 -7.548 -3.843 
-10.6605 -12.798 -21.0707 -21.8328 -23.9911 -20.1005 -19.756 -20.1399 -14.2734 -16.9959 -7.548 
-13.5125 -24.4422 -25.7477 -26.7683 -23.9911 -30.244 -24.9199 -20.1399 -16.9959 -16.9959 
-3.634 -3.814 -4.8255 -3.5455 -9.170501 -3.8405 -4.8255 0 -3.436 -2.3335 -4.3355 -7.299 -4.677 -4.8255 -1.756 -3.325 -2.3335 -10.215 -7.940001 -4.8255 -2.7765 -3.074 -2.489 -3.962 0 
-6.216 -8.3015 -8.1825 -14.1458 -11.136 -8.2135 -4.8255 -3.436 -5.4805 -7.285001 -12.8465 -9.6945 -9.6125 -5.829 -5.198 -5.74 -13.7393 -18.2286 -13.3743 -7.5145 -4.359 -4.381 -4.8355 -3.962 
-11.0151 -12.4335 -19.1324 -16.1113 -15.509 -8.2135 -8.1355 -5.4805 -10.4765 -16.087 -15.242 -14.6698 -10.7045 -10.3545 -7.580501 -17.951 -21.7529 -23.6629 -16.0633 -8.978001 -4.9485 -6.5075 -4.8355 
-15.1471 -23.3834 -21.0979 -20.4843 -15.509 -12.4935 -10.647 -10.4765 -19.2785 -18.4825 -20.2173 -15.7618 -15.23 -12.8708 -19.8805 -25.9646 -27.1872 -26.3519 -17.5268 -9.041 -6.6495 -6.5075 
-26.097 -25.3489 -25.4709 -20.4843 -19.789 -15.005 -15.643 -19.2785 -21.674 -23.4578 -21.3093 -20.2873 -17.7463 -25.1708 -27.8941 -31.3989 -29.8762 -27.8154 -17.5898 -10.342 -6.6495 
