-4.759 
n/a 
n/a 
n/a 
n/a 
-4.759 
n/a 
n/a 
n/a 
n/a 
-4.759 
n/a 
n/a 
n/a 
n/a 
-4.759 
n/a 
n/a 
n/a 
n/a 
-1.4985 -7.16 -4.6945 -3.966 -3.519 -1.934 -1.4985 -3.4425 -2.3345 -1.4985 -4.0325 -4.642 -4.153 -4.4175 0 -1.756 -2.5045 -2.3615 -3.602 0 -1.4985 -4.962 -5.2135 -6.3435 -2.985 -3.5435 -2.3345 -4.1885 -1.8085 -3.9675 0 -2.356 -3.4915 -4.099 -5.633 -2.264 -1.4985 -4.1235 -1.7565 -5.6655 -1.7695 -4.2505 -6.543 
-7.3275 -10.3225 -7.466001 -6.9215 -5.3055 -2.6125 -4.4545 -5.84 -3.233 -4.801001 -7.868001 -6.7015 -6.4735 -4.4175 -1.756 -4.604 -4.3105 -4.868 -3.602 -1.4985 -7.351501 -9.343 -10.598 -8.4145 -6.2395 -6.1215 -5.4895 -4.744501 -6.421 -3.9675 -2.356 -5.7105 -5.8065 -9.052 -6.876501 -2.9195 -4.498 -5.2215 -7.101 -7.2415 -5.364 -12.0647 
-10.3285 -10.608 -9.797501 -7.864 -5.863 -4.866 -6.754001 -6.7865 -6.1375 -8.436501 -8.195001 -7.562 -6.4735 -6.357 -4.604 -6.4535 -5.0465 -4.868 -5.264 -7.351501 -9.915001 -14.7543 -10.6175 -10.598 -8.453 -8.6145 -5.935 -9.357 -6.421 -6.949 -5.7105 -7.265 -10.523 -9.1785 -7.5585 -6.2745 -5.307 -9.8465 -8.636001 -9.958501 -13.9694 
-10.62 -10.6275 -10.454 -8.518001 -8.2545 -7.258501 -7.5125 -9.164001 -9.802501 -8.6005 -9.138 -7.562 -7.632 -8.9195 -6.4535 -6.872 -5.0465 -5.963 -11.3208 -9.915001 -15.3263 -14.7738 -10.637 -10.6295 -10.354 -9.128 -10.4265 -9.357 -8.01 -9.906 -7.265 -10.5975 -10.57 -9.3455 -9.361501 -6.507 -9.867001 -9.9145 -10.5535 -18.6987 
-10.64 -10.659 -10.6265 -10.238 -9.961 -8.000001 -9.590501 -10.6095 -9.861501 -9.323001 -9.138 -8.703 -9.972001 -10.5035 -6.872 -6.872 -6.0755 -12.121 -13.8843 -15.3263 -15.3458 -14.7933 -10.6685 -10.6495 -10.5645 -10.6095 -10.4265 -10.4605 -10.328 -10.6015 -10.5975 -10.617 -10.609 -10.566 -9.415501 -10.4585 -9.926001 -10.572 -20.0317 
-1.4985 -4.5335 -3.433 -2.356 -4.6495 -1.7695 -4.3075 -5.0235 0 -4.1835 -5.0235 -3.152 -4.8275 
-5.9495 -7.394 -5.801 -5.0705 -4.846 -6.587 -7.238501 -5.0235 -4.1835 -7.110001 -8.368 -8.277 
-9.444 -9.814501 -8.5595 -5.0755 -9.937501 -9.748501 -7.238501 -7.784501 -7.110001 -10.9257 -13.6156 
-11.9691 -12.573 -8.563001 -10.1345 -13.099 -9.748501 -9.578501 -8.107 -10.9257 -16.1733 
-14.7276 -12.5765 -13.6258 -13.296 -13.099 -12.0885 -9.632501 -13.0029 -16.1733 
-1.4985 -3.6135 -4.677 -4.4215 0 -4.3075 -5.521 -1.756 -4.8745 -5.521 -3.152 -1.4985 -4.602 -1.7565 -4.062 -3.594 -3.874 -3.436 -1.934 -3.8735 0 
-4.4525 -8.408501 -8.3745 -4.4215 -4.3075 -7.566 -6.5895 -6.4235 -7.2215 -7.5535 -4.764 -5.864 -6.4945 -5.351 -5.1235 -7.642 -5.662 -5.8855 -4.885 -3.8735 
-8.918001 -12.3876 -8.3745 -8.571501 -7.566 -8.821501 -8.4875 -8.325 -9.191 -9.505 -9.475 -6.936 -10.0575 -6.41 -10.0285 -9.867201 -7.0235 -8.969501 -4.885 
-12.9893 -12.3876 -12.7673 -12.1788 -8.821501 -10.8127 -10.163 -9.501 -11.4647 -14.31 -10.6946 -10.6735 -11.4563 -10.6335 -12.3385 -11.2287 -10.2975 -8.969501 
-12.9893 -16.7804 -16.3746 -13.4343 -10.8127 -12.4882 -11.7486 -12.6327 -16.2697 -15.5296 -14.4321 -12.0723 -15.6798 -12.9435 -13.7 -14.5027 -10.2975 
-4.677 -4.456 0 -4.3075 -6.0675 -3.594 0 -4.8745 -5.521 -3.152 -3.43 -2.356 -4.933 -3.594 -3.213 -2.9705 -3.7285 -4.6485 -1.934 -3.8735 
-8.7855 -4.456 -4.3075 -9.345501 -8.851501 -3.594 -4.8745 -7.2215 -7.5535 -5.144 -5.161 -7.7025 -7.5985 -5.975 -5.823 -6.459001 -6.6665 -7.0045 -4.885 
-8.7855 -8.7355 -9.345501 -12.2105 -8.851501 -7.849501 -7.2215 -9.191 -9.049001 -6.7005 -8.933001 -10.9036 -9.672001 -8.3905 -9.214001 -8.5705 -9.029 -10.7015 
-13.1868 -14.2583 -12.2105 -12.2105 -13.4826 -9.826 -9.191 -10.435 -10.543 -10.6917 -12.3965 -12.9771 -12.3415 -11.8911 -10.504 -11.192 -13.1226 
-18.7096 -17.1233 -12.2105 -16.8416 -15.4591 -11.8095 -10.435 -11.929 -14.9168 -14.1552 -14.47 -15.6466 -15.8421 -13.1811 -13.4629 -15.2856 
