-4.759 
n/a 
n/a 
n/a 
n/a 
-4.759 
n/a 
n/a 
n/a 
n/a 
-4.759 
n/a 
n/a 
n/a 
n/a 
-4.759 
n/a 
n/a 
n/a 
n/a 
-3.5315 -7.630001 -4.969 -5.7915 -8.806 -2.9195 -8.077001 -9.573501 0 -3.2615 -2.543 -3.5785 -2.925 -4.0925 -3.595 0 
-11.2635 -12.6305 -10.287 -12.0745 -9.287001 -12.1243 -17.6837 -8.915501 -3.2615 -6.072001 -4.89 -6.455 -6.446 -7.147 -3.595 
-17.1171 -18.5105 -16.407 -16.0505 -19.8818 -21.731 -17.6837 -12.4302 -6.072001 -7.285501 -8.3325 -9.580001 -8.1815 -7.147 
-22.4979 -24.6305 -19.912 -25.9111 -29.2423 -21.731 -21.1984 -15.5351 -7.285501 -9.446 -11.5121 -11.4583 -8.1815 
-28.6179 -28.1355 -30.6572 -35.7684 -29.4929 -25.2457 -24.3033 -16.7486 -9.446 -12.7556 -13.3904 -11.4583 
-3.5315 -2.543 0 -4.5185 -10.914 -4.474 -4.687 -5.7915 -2.3345 -4.905 -5.1835 -2.0935 -2.543 -3.5785 -1.756 -3.321 -4.0925 
-5.572001 -2.543 -4.5185 -16.4305 -15.388 -7.37 -8.752501 -6.5935 -7.0975 -7.4525 -7.356 -5.2395 -4.89 -5.2145 -4.0055 -6.82 
-5.572001 -7.085001 -16.4305 -20.9045 -18.284 -9.8465 -9.759001 -9.1945 -8.229 -9.528501 -11.0814 -6.8805 -6.9585 -6.795001 -7.192 
-10.228 -19.4976 -20.9045 -23.8005 -20.7605 -10.279 -10.691 -9.8675 -10.2125 -13.3463 -12.7224 -7.794001 -8.5175 -9.431001 
-22.6406 -23.9716 -23.8005 -26.277 -21.193 -10.7465 -11.686 -12.0664 -14.1725 -14.9873 -13.6359 -9.101001 -11.2589 
-7.9575 -4.474 -2.229 -5.245 -4.5185 -5.109 -3.0695 -2.7415 -5.7915 -2.3345 -1.8085 -3.2795 -1.7565 -4.905 -5.723 -2.7415 -4.0925 -4.3435 -3.7825 -3.5785 -3.882 
-12.9347 -6.085 -7.431 -8.5115 -7.3725 -7.572001 -4.6395 -6.73 -6.5935 -3.8605 -4.5305 -4.4575 -6.254001 -7.2205 -8.3795 -5.328 -7.5755 -6.41 -5.656 -5.659 
-14.5457 -8.6625 -10.76 -8.746 -9.0535 -8.451 -7.522 -7.3755 -7.419 -5.9275 -4.854 -8.238501 -8.518001 -10.115 -10.5975 -8.691 -9.772501 -7.561 -7.009 
-17.1232 -12.4317 -10.9945 -9.747001 -9.3435 -9.563001 -8.189501 -8.3085 -8.3825 -6.0265 -8.337001 -9.545 -11.5511 -12.333 -13.9605 -10.396 -10.4065 -8.962501 
-20.8924 -12.6662 -11.9955 -9.951 -9.616 -10.624 -9.284 -9.1685 -8.469501 -9.150001 -9.612 -12.6405 -13.7691 -15.696 -15.6655 -11.0434 -12.081 
-3.5315 -2.543 0 -4.474 -7.9455 -4.5185 -9.1955 -4.9385 -2.3345 -8.739 -5.1835 -1.934 -8.292001 -2.7415 -4.1885 -7.7215 -3.2615 -3.7825 -3.5785 0 
-5.572001 -2.543 -4.474 -11.046 -13.0052 -14.712 -14.2022 -5.823501 -10.6735 -10.7495 -6.551001 -9.286501 -10.199 -5.92 -10.6345 -10.139 -6.1225 -5.656 -3.5785 
-5.572001 -7.3215 -11.046 -16.1057 -23.1987 -19.7187 -15.0872 -14.8213 -12.684 -12.117 -14.6817 -10.3825 -13.7771 -13.3962 -13.052 -13.5178 -7.248 -5.656 
-10.3475 -14.4333 -16.1057 -26.2992 -28.2054 -20.6037 -24.085 -16.8318 -14.0515 -20.2477 -15.7777 -14.6722 -21.2533 -15.8137 -16.4308 -14.6433 -7.248 
-17.5757 -19.493 -26.2992 -31.3059 -29.0904 -29.6015 -26.0955 -18.1993 -22.1822 -21.3437 -20.0674 -22.1484 -23.6708 -19.1925 -17.5563 -14.6433 
