-4.759 
n/a 
n/a 
n/a 
n/a 
-4.759 
n/a 
n/a 
n/a 
n/a 
-4.759 
n/a 
n/a 
n/a 
n/a 
-4.759 
n/a 
n/a 
n/a 
n/a 
-2.5045 -1.4985 -10.2885 -4.947 -3.251 -4.935 -1.934 -5.84 0 -2.4265 -4.101 -1.7695 -7.746 -3.4985 -1.934 -5.5095 0 
-3.583 -10.985 -15.3043 -7.393 -6.022 -6.264 -7.606 -5.84 -2.4265 -5.6825 -4.6905 -9.6435 -11.8195 -5.373 -7.027 -5.5095 
-13.2415 -16.0008 -17.7503 -9.519501 -7.080501 -12.9128 -7.606 -8.9135 -5.6825 -6.7615 -12.8721 -13.7992 -13.694 -10.041 -7.027 
-18.2573 -18.4468 -19.8768 -10.717 -13.8375 -12.9128 -9.2775 -12.5043 -6.7615 -15.1133 -17.0278 -15.6737 -18.362 -10.041 
-20.7033 -20.5733 -21.0743 -17.474 -13.8375 -14.5843 -12.9593 -13.5833 -15.1133 -19.269 -18.9023 -20.3417 -18.362 
-3.034 -1.4985 -10.2885 -3.152 -5.2725 -1.934 -5.84 0 -2.4265 -3.251 -4.368 -1.7695 -1.4985 -3.4985 -1.7565 -7.746 -1.934 -5.5095 0 
-3.947 -10.985 -13.5093 -6.7755 -6.51 -7.606 -5.84 -2.4265 -4.8545 -5.6405 -5.5235 -2.7955 -4.798 -4.622 -9.0115 -9.124001 -7.027 -5.5095 
-13.7543 -14.2058 -17.1328 -7.576 -12.968 -7.606 -8.9135 -4.8545 -7.193501 -6.338 -6.206 -6.012 -5.425 -12.547 -10.093 -14.3298 -7.027 
-16.9751 -17.8293 -17.9333 -14.227 -12.968 -9.2775 -11.6763 -7.193501 -8.3085 -7.01 -9.836 -6.787 -13.5924 -13.6285 -15.2988 -14.3298 
-20.5986 -18.6298 -24.5843 -14.227 -14.6395 -12.1313 -14.0153 -8.3085 -9.080501 -10.6832 -11.126 -15.2214 -14.6739 -18.8343 -15.2988 
-3.6705 0 -7.153501 -8.9115 -3.741 -4.33 -3.251 -3.966 -4.151 -1.8085 -3.8485 -1.7565 -3.091 -4.846 -3.458 -11.3495 -1.7695 -3.091 -3.352 -6.138 -1.934 -6.0115 -3.59 
-3.6705 -7.153501 -9.300001 -9.4745 -8.313 -6.581 -5.8865 -7.6765 -4.9045 -4.325 -4.738 -4.0655 -8.088501 -8.1075 -12.738 -11.2595 -4.458 -6.58 -9.243501 -7.434501 -7.5935 -9.7185 
-10.784 -9.300001 -9.6385 -14.1683 -10.025 -9.220001 -9 -7.764 -5.5505 -4.939 -7.419001 -8.811 -9.882501 -18.7781 -15.5587 -14.0297 -7.5785 -10.7175 -10.5135 -13.5286 -10.2085 
-12.9305 -9.6385 -14.3633 -15.8803 -12.664 -12.4207 -9.042001 -8.086 -5.9845 -7.696001 -12.4509 -10.5745 -20.8707 -20.5508 -18.3047 -17.3356 -11.8748 -11.9875 -16.6076 -16.1436 
-13.269 -14.3633 -16.0753 -18.5193 -15.8647 -12.4627 -9.3725 -8.1745 -8.6545 -12.8055 -14.2144 -21.5627 -22.6434 -23.2968 -21.6106 -21.6319 -13.1448 -18.0816 -19.2226 
-1.934 -1.4985 -5.84 -9.170501 -2.229 -3.152 -5.2725 -1.756 -1.934 -7.9115 0 -2.4265 -4.0555 -3.325 -1.4985 -4.1 -1.7565 -4.065 0 
-2.6125 -8.744 -15.5981 -11.8107 -5.943501 -6.7755 -6.769 -4.0205 -10.1265 -7.9115 -2.4265 -5.285501 -6.2735 -3.898 -5.0695 -5.164001 -5.305501 -4.065 
-9.903501 -18.6609 -18.2383 -15.5252 -9.391001 -7.776 -8.7535 -12.7434 -10.1265 -11.08 -5.285501 -7.6685 -6.9505 -6.657 -5.5715 -9.265 -5.305501 
-19.8204 -21.3011 -21.9528 -18.9727 -9.979501 -9.660501 -17.5634 -12.7434 -13.295 -13.939 -7.6685 -8.2005 -8.380501 -6.859 -9.5395 -9.265 
-22.4606 -25.0156 -25.4003 -19.5612 -12.4192 -18.503 -17.5634 -15.9119 -16.154 -16.322 -8.2005 -9.2915 -8.386001 -9.969501 -9.5395 
