-4.759 
n/a 
n/a 
n/a 
n/a 
-4.759 
n/a 
n/a 
n/a 
n/a 
-4.759 
n/a 
n/a 
n/a 
n/a 
-4.759 
n/a 
n/a 
n/a 
n/a 
-4.2685 -2.0935 -1.4985 -3.1715 -4.4705 -1.934 -1.4985 -3.5455 -3.152 -3.43 -2.872 -3.152 -5.074 -3.851 -1.7695 -4.373 -1.7565 -3.2015 -2.5195 -3.1385 0 
-6.02 -2.9725 -3.994 -7.708 -5.796 -2.6125 -4.554 -7.484 -5.144 -6.17 -5.67 -6.906 -7.486001 -4.0015 -5.838 -4.455 -5.2045 -5.1835 -5.5235 -3.1385 
-6.7675 -5.568501 -8.508 -8.979 -6.419 -5.298 -7.676001 -9.7915 -7.362 -8.776001 -8.969001 -8.651501 -7.4915 -6.001 -5.9365 -6.4965 -6.406 -7.4785 -5.5235 
-9.024 -10.4855 -9.889501 -9.599501 -8.74 -8.0585 -9.927501 -12.0815 -9.279501 -12.2774 -10.1425 -8.6555 -8.7755 -6.0035 -7.9245 -7.325 -8.412001 -7.4785 
-14.0772 -11.867 -10.5265 -12.0819 -11.6719 -10.233 -12.2515 -13.999 -12.8939 -13.4509 -10.1495 -9.9665 -8.777 -7.9735 -8.6975 -10.1035 -8.412001 
-3.135 -3.1385 -2.7415 -2.6165 -3.5455 -1.934 -5.815 0 
-4.8745 -6.375501 -4.266 -7.6005 -6.2995 -7.9945 -5.815 
-8.545501 -7.881001 -9.495001 -10.209 -12.7924 -7.9945 
-10.031 -13.2882 -12.0535 -16.8575 -12.7924 
-15.5312 -15.8467 -18.702 -16.8575 
-4.0165 -4.4705 -4.532 -1.934 -2.872 0 -2.872 -3.687 -3.4945 -3.1385 -3.2015 
-9.040001 -8.681499 -6.191 -5.67 -2.872 -2.872 -6.4785 -6.4455 -7.003 -6.717501 
-13.5042 -9.8895 -10.3675 -5.67 -6.393001 -6.4785 -8.441 -10.1945 -11.0804 
-14.7122 -14.1248 -10.3675 -9.2825 -10.749 -8.441 -12.5232 -14.2719 
-18.9475 -14.1248 -13.98 -13.7557 -12.7115 -12.5232 -16.6006 
-3.468 -1.7565 -3.5455 -1.7695 -3.58 -1.7695 -4.9225 0 
-4.7385 -4.8635 -5.7145 -5.985001 -5.455 -7.170001 -4.9225 
-7.444 -8.5375 -10.3434 -7.950001 -11.5523 -7.170001 
-12.4158 -13.428 -12.3084 -14.1637 -11.5523 
-17.3063 -15.393 -18.5221 -14.1637 
