-4.759 
n/a 
n/a 
n/a 
n/a 
-4.759 
n/a 
n/a 
n/a 
n/a 
-4.759 
n/a 
n/a 
n/a 
n/a 
-4.759 
n/a 
n/a 
n/a 
n/a 
-4.4715 -2.3615 -3.319 -1.7565 -3.585 -2.742 -4.0075 -2.264 -5.6515 -2.4285 -5.787 -3.098 
-7.356 -4.9575 -4.165 -5.737 -5.766 -5.4685 -4.453 -8.764001 -8.074 -8.2565 -9.2995 
-9.673 -5.092 -7.454501 -8.588 -8.561001 -5.5285 -10.2585 -10.7025 -10.3605 -12.1472 
-9.7425 -8.0255 -9.444501 -11.5828 -8.651 -11.5854 -12.355 -12.989 -14.2512 
-12.7182 -9.852 -12.4307 -11.6728 -14.7585 -13.6819 -14.6415 -16.8797 
-3.17 -1.7565 -2.3615 -3.319 -1.7565 -4.495 -2.186 -4.1555 -1.7695 -3.826 -4.361 -4.495 -1.7565 -3.8315 
-4.179 -3.523 -4.9575 -4.165 -6.1315 -6.258501 -7.7275 -4.988501 -5.958001 -9.191 -8.146501 -5.435 -5.5375 
-6.0275 -5.678 -5.092 -8.273001 -8.1175 -12.4618 -8.5785 -8.649001 -11.9026 -13.2503 -9.809 -9.285001 
-8.593 -6.158501 -9.254001 -9.9455 -14.279 -13.3128 -12.4466 -14.976 -15.9619 -14.9128 -13.876 
-8.651501 -10.6735 -10.239 -16.107 -15.13 -17.1809 -18.7736 -19.0353 -17.6244 -18.9798 
-4.4715 -3.1495 -3.319 -1.7565 -7.2645 -2.4945 -4.8935 -2.5045 -5.532 0 
-7.634001 -6.5325 -4.165 -8.691 -8.896 -6.227 -4.9855 -8.416 -5.532 
-10.688 -6.6315 -11.9635 -10.4675 -12.7117 -6.303 -12.0232 -8.416 
-10.7415 -14.9328 -13.74 -14.2832 -12.7877 -13.5579 -12.0232 
-19.0428 -16.7093 -17.5557 -14.3592 -20.0426 -13.5579 
-4.4715 -2.3615 -5.3365 -2.4945 -4.641 -1.7695 -3.0465 -1.4985 -4.609 -1.7565 -3.8315 0 
-7.356 -6.9505 -6.987 -5.844501 -5.0455 -3.683 -4.046 -5.868501 -5.7295 -5.5375 -3.8315 
-12.4256 -10.025 -10.5035 -6.002501 -7.39 -4.634 -7.856 -5.98 -9.748501 -5.5375 
-15.5001 -14.1495 -10.6625 -8.416 -8.3725 -8.96 -7.9665 -10.2085 -9.748501 
-19.6246 -14.3085 -13.076 -9.6005 -12.8839 -9.1645 -12.4904 -10.2085 
