-4.759 
n/a 
n/a 
n/a 
n/a 
-4.759 
n/a 
n/a 
n/a 
n/a 
-4.759 
n/a 
n/a 
n/a 
n/a 
-4.759 
n/a 
n/a 
n/a 
n/a 
-1.934 -5.521 0 -3.594 -1.756 -3.729 -4.205 -4.725 -3.251 -1.8085 -3.2825 -3.5015 -1.7695 -3.961 -1.934 -2.3335 0 
-8.342501 -5.521 -3.594 -4.857 -5.339 -7.1785 -9.2425 -8.4825 -4.1695 -5.5105 -5.507 -4.5585 -7.758 -5.894 -4.359 -2.3335 
-8.342501 -8.202001 -4.857 -8.416 -8.659 -12.782 -13.5008 -9.553 -7.885 -7.7375 -5.6645 -11.91 -9.18 -8.498501 -4.359 
-10.718 -9.354001 -8.416 -12.3478 -14.7745 -17.0403 -14.5713 -13.2685 -10.4386 -7.8635 -14.0542 -13.332 -12.0811 -8.498501 
-11.87 -13.4406 -12.3478 -18.4633 -19.0328 -18.1108 -18.2868 -15.8221 -10.5646 -16.9514 -15.4762 -16.2331 -12.0811 
-4.725 -2.8645 -1.8085 -3.4865 -3.5015 -1.934 -5.521 0 -4.5635 -1.756 -7.949 0 
-7.802001 -3.9785 -4.572001 -6.1265 -4.704 -8.342501 -5.521 -4.5635 -5.782001 -9.5445 -7.949 
-8.798 -6.201 -6.3035 -6.555 -11.6133 -8.342501 -9.708 -5.782001 -14.5461 -9.5445 
-11.2235 -7.392 -6.632 -14.2461 -11.6133 -12.8671 -10.4135 -14.5461 -14.5461 
-12.4145 -7.496 -14.3843 -14.2461 -16.1379 -13.5726 -19.4952 -14.5461 
-1.4985 -4.725 -4.6015 -3.4865 -4.4525 -1.934 -5.0235 0 -4.5635 -1.756 -4.205 0 
-6.209001 -10.0855 -7.5055 -6.9325 -5.908501 -7.0605 -5.0235 -4.5635 -5.782001 -5.694 -4.205 
-10.7495 -13.0363 -9.3915 -7.854001 -11.6088 -7.0605 -7.3555 -5.782001 -8.305501 -5.694 
-13.7003 -14.9223 -10.3425 -13.7209 -11.6088 -8.743 -7.994501 -8.305501 -8.305501 
-15.5863 -15.8733 -16.2094 -13.7209 -13.2913 -9.120001 -8.973001 -8.305501 
-5.521 0 -4.3615 0 -3.729 -3.7865 -3.776 -2.0935 -4.725 0 
-5.521 -4.3615 -4.3615 -3.729 -7.509 -8.445001 -6.101 -6.4395 -4.725 
-10.4945 -4.3615 -8.401001 -7.509 -12.7825 -11.1016 -10.8022 -6.4395 
-10.4945 -8.401001 -12.524 -12.7825 -15.4391 -15.8028 -10.8022 
-14.534 -12.524 -17.7975 -15.4391 -20.1403 -15.8028 
