-4.759 
n/a 
n/a 
n/a 
n/a 
-4.759 
n/a 
n/a 
n/a 
n/a 
-4.759 
n/a 
n/a 
n/a 
n/a 
-4.759 
n/a 
n/a 
n/a 
n/a 
-2.5045 -1.4985 -2.95 -1.7565 -3.188 -3.8275 -3.8405 -1.4985 -4.02 -1.7565 -3.8655 -3.922 -2.3345 -2.543 -3.5215 
-3.1915 -3.9285 -4.3785 -5.13 -4.801 -6.652 -5.224 -4.914001 -5.1665 -5.196 -8.505501 -5.9395 -5.61 -5.607 
-4.5155 -4.676 -7.846 -5.8125 -8.229501 -7.689 -8.2585 -5.776 -7.996 -9.872001 -10.2645 -7.681001 -8.293 
-4.837 -7.981 -8.011001 -10.8202 -9.263 -10.459 -8.6805 -8.369 -13.013 -11.8282 -12.006 -9.903501 
-8.6055 -8.030001 -13.1493 -11.8537 -12.0466 -10.7475 -11.3357 -13.5246 -14.9692 -13.5697 -14.2285 
-3.401 -2.5195 -1.4985 -3.0835 -3.188 -3.8275 0 -3.8655 -2.229 -4.02 -4.157 -3.7825 -3.5215 0 
-5.304 -3.1695 -3.535 -5.7815 -4.801 -3.8275 -3.8655 -5.1985 -5.6085 -7.055 -7.8765 -5.558001 -3.5215 
-5.943 -5.338 -6.070001 -5.963 -4.801 -7.7635 -5.1985 -7.594501 -7.857 -10.0815 -8.6195 -5.558001 
-7.485001 -7.706 -6.1905 -5.963 -9.208 -9.1145 -7.594501 -9.6435 -11.2583 -10.6525 -8.6195 
-10.4376 -7.8315 -6.1905 -9.738001 -10.1515 -11.7475 -9.6435 -13.2544 -11.8293 -10.6525 
-3.2615 -1.4985 -3.0835 -3.188 -3.8275 -3.8655 -2.229 -3.1385 -4.02 -2.8645 -4.157 -3.7825 -3.5215 0 
-4.032 -3.535 -5.7815 -4.801 -7.7635 -5.1985 -5.7405 -7.271 -6.1815 -5.4365 -7.8765 -5.558001 -3.5215 
-5.5015 -6.070001 -5.963 -9.208 -9.1145 -8.999001 -9.920501 -10.389 -7.388 -8.5815 -8.6195 -5.558001 
-7.303 -6.1905 -9.738001 -10.1515 -13.152 -13.4392 -13.0385 -11.5955 -10.167 -9.315001 -8.6195 
-7.324501 -9.903001 -10.7689 -14.189 -17.5922 -16.5572 -14.245 -14.3745 -10.616 -9.315001 
-2.5195 -1.4985 -3.0835 -3.188 -3.8275 -1.4985 -4.02 -1.7565 -3.8655 -2.186 -3.1125 -4.157 -2.3345 -3.7825 -3.5215 0 
-3.1695 -3.535 -5.7815 -4.801 -5.4605 -4.914001 -5.1665 -5.196 -5.968 -6.9115 -6.298 -5.35 -5.919 -5.558001 -3.5215 
-5.338 -6.070001 -5.963 -6.645 -8.594501 -5.776 -7.996 -7.193501 -11.2717 -10.382 -7.198 -8.148001 -7.9745 -5.558001 
-7.706 -6.1905 -7.158 -9.5115 -8.929 -8.369 -8.966001 -12.6712 -14.7422 -11.282 -10.103 -9.132 -7.9745 
-7.8315 -7.185501 -10.1295 -9.919001 -11.6892 -9.201 -14.6585 -16.1417 -15.6422 -14.187 -11.087 -9.132 
