-4.759 
n/a 
n/a 
n/a 
n/a 
-4.759 
n/a 
n/a 
n/a 
n/a 
-4.759 
n/a 
n/a 
n/a 
n/a 
-4.759 
n/a 
n/a 
n/a 
n/a 
-3.5715 -3.133 -1.7695 -3.43 -2.688 -3.188 -3.8135 
-5.518 -5.4255 -6.884 -6.649 -5.0925 -5.716001 
-8.0435 -11.402 -9.431001 -9.801001 -6.8925 
-14.639 -13.949 -12.9318 -11.5834 
-17.186 -17.4498 -14.7142 
-3.5715 -10.228 -8.604501 -2.5195 -4.7075 -5.6495 -1.4985 -3.6085 -4.8925 -3.383 -3.9555 -1.756 -4.4105 -3.188 -3.5125 
-13.5265 -20.322 -11.5068 -6.959001 -10.9075 -7.066 -5.023 -9.6365 -8.933001 -5.706 -5.06 -5.823 -8.631001 -5.7605 
-23.905 -23.2243 -15.9463 -13.7396 -12.324 -11.2791 -10.5225 -13.7108 -11.3748 -6.556 -10.111 -10.1225 -9.4705 
-26.8073 -27.6638 -22.7269 -15.1561 -16.5371 -16.7786 -14.5968 -16.1526 -12.2248 -11.6598 -14.6773 -11.012 
-31.2468 -34.4444 -24.1434 -19.3692 -22.0366 -20.8529 -17.0386 -17.0026 -17.3286 -16.2261 -15.5668 
-3.5715 -3.133 -9.0535 -12.16972 -2.5195 -4.7075 -5.1835 -1.4985 -3.6085 -3.955 -7.448 -1.756 -3.43 -2.688 -3.188 -3.8135 0 
-5.518 -12.7089 -21.50502 -14.68922 -6.959001 -10.6345 -5.817 -5.023 -6.535501 -12.2876 -8.647501 -5.055 -6.649 -5.0925 -5.716001 -3.8135 
-16.2919 -25.16042 -24.02452 -19.12872 -13.4666 -11.268 -8.436001 -6.7505 -15.5301 -13.4871 -12.3193 -7.805 -9.801001 -6.8925 -5.716001 
-28.74342 -27.67992 -28.46402 -25.63632 -14.1001 -13.887 -8.464001 -16.0341 -16.7296 -17.1589 -15.0693 -11.2496 -11.5834 -6.8925 
-31.26292 -32.11942 -34.97162 -26.26982 -16.7191 -13.915 -18.1198 -17.2336 -20.4014 -19.9089 -18.5139 -13.032 -11.5834 
-3.5715 -3.133 -4.7075 -3.959 -7.8555 -12.16972 -3.43 -1.8085 -2.688 -3.188 -3.8135 -2.3345 -4.1655 -7.448 -2.264 -3.6085 -3.9075 0 
-5.518 -8.342 -8.998001 -12.9611 -20.50862 -15.59972 -4.6595 -3.642 -5.0925 -5.716001 -6.2295 -5.9165 -9.805 -9.676001 -6.396 -7.875501 -3.9075 
-11.925 -13.0647 -18.4351 -25.61422 -23.93862 -16.82922 -6.5555 -6.0465 -6.8925 -7.58 -9.596001 -12.168 -12.4328 -13.9786 -10.2755 -7.875501 
-16.6477 -22.5018 -31.08822 -29.04422 -25.16812 -18.72522 -9.275001 -7.118 -8.486501 -10.494 -15.9831 -14.7958 -16.7354 -17.8581 -10.2755 
-26.0848 -35.15492 -34.51822 -30.27372 -27.06412 -21.44472 -9.9185 -8.568501 -10.513 -17.8375 -18.6109 -19.0984 -20.6149 -17.8581 
