-4.759 
n/a 
n/a 
n/a 
n/a 
-4.759 
n/a 
n/a 
n/a 
n/a 
-4.759 
n/a 
n/a 
n/a 
n/a 
-4.759 
n/a 
n/a 
n/a 
n/a 
-5.309 -3.152 -4.2085 -3.858 -4.0675 -2.4285 -3.3255 -4.01 
-6.841 -5.995 -7.774001 -5.8855 -5.282 -5.3315 -7.308001 
-8.631001 -9.359 -8.9785 -5.99 -6.384 -8.6485 
-12.183 -10.5645 -9.257501 -6.779 -9.624001 
-13.3885 -10.8435 -9.811501 -9.848001 
-7.1765 -3.627 -1.7695 -3.766 -2.4285 -3.3255 -2.8965 -4.269 0 
-11.7023 -5.684 -5.523 -6.575 -5.3315 -6.1025 -5.807 -4.269 
-13.7593 -9.6055 -7.3385 -9.6525 -7.0905 -8.599501 -5.807 
-17.6808 -11.8516 -11.3584 -11.3941 -9.114 -8.599501 
-19.9269 -15.8715 -13.1 -13.4176 -9.114 
-1.4985 -6.8125 -2.4945 -3.985 -1.7695 -3.769 0 
-8.209001 -8.332001 -7.666 -5.919 -5.104 -3.769 
-9.597 -13.6847 -9.412001 -8.1315 -5.104 
-14.9757 -15.4307 -12.1481 -8.1315 
-16.7217 -18.1668 -12.1481 
-5.309 -2.4945 -4.2085 -2.3345 -3.766 -2.4285 -2.8965 -3.499 
-7.1465 -5.613 -5.114 -6.297 -6.575 -4.1405 -5.257 
-9.294001 -6.951 -9.9505 -8.304001 -8.160501 -7.12 
-10.761 -11.8945 -11.9575 -9.433001 -10.4105 
-15.7045 -13.9015 -13.0865 -11.878 
