-4.759 
n/a 
n/a 
n/a 
n/a 
-4.759 
n/a 
n/a 
n/a 
n/a 
-4.759 
n/a 
n/a 
n/a 
n/a 
-4.759 
n/a 
n/a 
n/a 
n/a 
-1.4985 -3.959 -3.6515 -1.7695 -3.0465 -4.4465 -1.934 -1.4985 -3.739 -3.2645 -2.489 -4.3155 -3.325 -2.3615 -3.441 -3.9535 
-5.5 -8.064 -3.9135 -3.683 -7.5705 -6.281 -2.6125 -4.208 -6.969 -3.7195 -5.4645 -6.3995 -4.645 -6.0825 -6.6695 
-9.6085 -8.662001 -5.3625 -8.5725 -9.168501 -6.966001 -4.695 -7.128 -7.5595 -6.546 -7.1045 -7.386001 -8.158 -10.66 
-10.245 -10.396 -9.4905 -10.199 -9.7355 -8.348001 -7.3105 -7.79 -10.647 -8.304501 -8.1675 -11.702 -14.0071 
-12.0924 -14.524 -11.1594 -10.725 -11.1817 -10.341 -8.1415 -10.9045 -12.4055 -9.863001 -12.5891 -17.5511 
-1.8085 -3.254 -1.7565 -3.959 -2.9705 -2.7765 -2.489 -4.4465 -2.3345 -1.4985 -5.3085 -2.186 -1.7695 -2.489 -3.8755 -1.756 -2.5685 -3.45 -3.959 -3.2645 -2.489 -4.3155 -3.222 -2.3615 -3.441 -4.4695 0 
-4.394 -4.0065 -5.672 -6.136 -4.677 -3.495 -5.4345 -4.897501 -3.233 -6.114 -7.4095 -3.8745 -3.1405 -5.2845 -5.367 -4.2335 -4.985 -6.0255 -6.428 -3.7195 -5.4645 -5.798 -5.0795 -6.0825 -8.774501 -4.4695 
-4.528 -6.535501 -7.509 -8.052 -4.966 -6.5845 -5.6925 -5.402 -7.12 -8.0915 -9.533001 -4.7485 -5.9845 -6.437 -7.963 -6.191 -7.856501 -8.531 -7.079 -6.546 -6.464 -7.3685 -8.6525 -12.6684 -8.774501 
-7.442 -8.4095 -9.4945 -8.6175 -8.1755 -6.7485 -6.184 -7.586501 -9.1615 -10.0095 -10.4865 -7.31 -7.119 -8.833 -10.0035 -9.3085 -10.5425 -9.0735 -9.745001 -7.6965 -8.131001 -11.5713 -16.0124 -12.6684 
-8.998 -10.5035 -9.900001 -11.9266 -8.2325 -7.5315 -9.917001 -9.650001 -10.674 -10.963 -13.048 -8.6245 -9.799001 -10.9609 -13.204 -12.1101 -10.7765 -11.7581 -10.3185 -9.199 -12.3336 -18.9312 -16.0124 
-2.5685 -1.4985 -3.959 -2.9705 -2.4945 -4.1205 -1.7695 -2.489 -1.934 -1.4985 -4.921 -1.7565 -5.3085 -4.299 -3.2645 -2.489 -5.8165 -2.3345 -2.3615 -3.913 -3.774 0 
-3.7015 -5.5 -6.136 -4.302 -5.191 -5.1155 -3.1405 -4.348 -2.6125 -6.8105 -7.246 -6.896501 -8.975 -7.51 -3.7195 -6.29 -7.23 -4.499 -6.6665 -6.967 -3.774 
-6.597 -7.304501 -6.9425 -6.691501 -5.9205 -5.2255 -4.8625 -4.967 -7.441 -8.471001 -12.9228 -10.2085 -12.2778 -7.947501 -7.8245 -7.99 -9.400001 -9.0585 -10.4401 -6.967 
-8.62 -8.116501 -9.193001 -7.305 -6.0135 -6.7355 -5.4585 -10.2503 -10.5745 -14.9072 -16.2348 -13.5113 -12.7153 -12.2823 -9.5555 -10.208 -13.9981 -13.0551 -10.4401 
-9.332001 -10.292 -9.6215 -7.395501 -7.535 -7.229 -10.8766 -13.3838 -17.0107 -18.2192 -19.5376 -13.9488 -17.0501 -14.0133 -11.8759 -14.8061 -17.9947 -13.0551 
-1.934 -3.739 -2.9705 -3.59 -4.4465 -2.5195 -5.3085 0 -3.0415 -2.3335 -3.959 -4.066 -3.325 -2.3615 -3.2 
-5.3175 -6.664001 -6.4475 -8.126 -7.507 -7.8605 -5.3085 -3.0415 -4.132 -6.56 -8.3435 -6.5505 -4.645 -5.1915 
-8.332001 -10.543 -11.9285 -11.5737 -13.1354 -7.8605 -8.5325 -4.132 -8.078501 -11.8119 -9.975 -8.4715 -7.159 
-12.4242 -16.024 -15.3762 -17.2021 -13.1354 -11.3451 -9.610001 -8.078501 -13.785 -13.4434 -12.2328 -11.2021 
-17.9052 -19.4717 -21.0046 -17.2021 -16.62 -12.4226 -13.7961 -13.785 -15.4165 -15.7012 -14.9634 
