-4.759 
n/a 
n/a 
n/a 
n/a 
-4.759 
n/a 
n/a 
n/a 
n/a 
-4.759 
n/a 
n/a 
n/a 
n/a 
-4.759 
n/a 
n/a 
n/a 
n/a 
-12.16972 -4.1935 -2.186 0 0 -9.127501 -1.756 -2.3615 -3.098 -5.66 0 -3.874 0 -2.3615 -3.3755 -2.3085 -2.742 -3.917 -1.934 -7.4475 -7.4475 0 
-16.36322 -5.7875 -2.186 0 -8.904501 -9.915501 -4.4615 -5.7775 -10.468 -5.66 -3.874 -3.874 -2.3615 -4.8525 -4.9635 -4.2065 -8.661 -5.798 -10.368 -10.5535 -7.4475 
-17.95722 -5.7875 -2.186 -8.904501 -9.404 -12.418 -8.007501 -13.6883 -10.468 -10.2335 -3.874 -7.51 -4.8525 -6.2655 -6.8695 -10.7335 -10.2985 -15.0642 -13.474 -10.5535 
-17.95722 -5.7875 -10.001 -9.404 -12.687 -16.5598 -16.4531 -13.6883 -15.0415 -10.2335 -7.51 -9.416 -6.2655 -7.862 -13.6281 -12.371 -19.5647 -18.1702 -13.474 
-17.95722 -14.8175 -10.464 -12.687 -16.5598 -25.0054 -16.4531 -18.2618 -15.0415 -13.8695 -9.416 -10.8608 -7.862 -14.876 -15.2656 -21.6372 -22.6707 -18.1702 
-2.5045 -5.3155 -3.644 0 0 -7.4785 -3.115 -2.3615 -3.319 -1.7565 -5.0725 -3.3875 -2.489 -4.69 -3.976 0 -2.186 -3.115 -3.0835 -1.756 -3.228 -3.5005 -4.1145 -4.1145 -2.5045 -2.4265 -2.8645 -3.1125 -4.3215 0 
-8.451 -8.0245 -3.644 0 -5.285 -8.9025 -4.312 -4.9575 -4.165 -6.6965 -9.013 -3.7975 -5.947001 -9.4025 -3.976 -2.186 -4.989 -6.766001 -4.7735 -5.3125 -8.3985 -7.346001 -6.377 -7.127 -4.228 -4.1435 -3.5345 -5.268001 -4.3215 
-10.2285 -8.0245 -3.644 -5.285 -9.599501 -11.011 -6.1435 -5.092 -8.750501 -10.3475 -9.360001 -6.742 -10.7495 -9.4025 -5.852 -4.989 -8.291 -8.566001 -5.8005 -9.575001 -12.5468 -11.2775 -9.1815 -8.625 -5.712 -4.755 -5.4955 -5.268001 
-10.2285 -8.0245 -10.0255 -9.599501 -11.2412 -13.4287 -7.729001 -9.125501 -12.9559 -10.671 -12.4567 -11.6387 -10.7495 -11.5451 -8.762 -8.291 -10.688 -9.267501 -9.775001 -14.0273 -16.4783 -14.082 -11.5417 -10.2385 -6.277 -7.581 -5.4955 
-10.2285 -14.6542 -14.34 -11.2412 -13.4287 -15.0142 -12.0577 -13.7047 -13.2794 -13.7677 -17.3534 -11.6387 -12.8921 -14.4551 -12.0886 -10.688 -11.3895 -13.3274 -14.4069 -17.9588 -19.2828 -16.4422 -13.1552 -10.8035 -8.969001 -7.581 
-12.16972 -3.644 -7.4285 -1.7695 -4.2765 -1.4985 -4.1145 -1.7695 -5.032 -1.4985 -3.213 0 
-15.81372 -11.657 -9.422501 -4.5005 -5.248 -5.3525 -6.6525 -5.874001 -6.418 -4.3955 -3.213 
-24.10652 -13.9293 -11.9935 -5.474 -9.391001 -7.401 -11.6474 -6.951 -10.4265 -4.3955 
-26.09902 -16.6611 -13.1083 -9.425501 -12.0997 -12.8511 -12.7244 -11.1905 -10.4265 
-28.83082 -17.6221 -17.3796 -12.2922 -17.5498 -13.9281 -16.9639 -11.1905 
-3.9345 -1.7695 -9.2865 0 0 -1.934 -3.333 -1.7695 -4.2765 -1.7695 -2.674 -1.4985 -3.098 -2.5045 -7.5455 -2.9805 -4.281 -2.5045 -4.085 -1.7565 -1.4985 -6.415 -4.064 -1.7565 -1.4985 -4.1145 -4.1145 -2.9805 -2.8645 -3.917 -2.0935 -1.4985 -3.486 0 0 
-3.94 -12.0382 -9.2865 0 -1.934 -3.9835 -4.022 -4.5005 -7.033501 -3.8225 -3.998 -4.3095 -5.4315 -10.9335 -10.84 -6.6945 -5.893 -7.6225 -7.408 -2.4195 -7.790501 -10.2285 -4.3045 -2.4195 -5.3525 -6.377 -8.0675 -4.3245 -6.1455 -5.367001 -2.9725 -3.5655 -3.486 0 
-14.8095 -12.0382 -9.2865 -1.934 -3.9835 -4.0425 -5.7835 -7.410501 -8.416 -4.971001 -6.9055 -6.910501 -14.7623 -15.4211 -15.6274 -8.3885 -10.7495 -11.3447 -8.1595 -8.823 -12.176 -10.3125 -5.28 -6.764501 -7.0995 -10.564 -9.278 -7.901 -7.957 -6.054501 -5.1745 -3.5655 -3.486 
-14.8095 -12.0382 -11.3311 -3.9835 -4.0425 -5.7885 -8.699 -8.575001 -8.8345 -7.739501 -9.478001 -16.6043 -18.8507 -19.5641 -17.3214 -13.471 -14.4717 -12.0962 -14.9776 -13.2231 -12.26 -11.5024 -9.0845 -9.532001 -12.8451 -11.7745 -13.1405 -9.080501 -8.759001 -8.8 -5.1745 -3.5655 
-14.8095 -14.0828 -13.3806 -4.0425 -5.7885 -8.703501 -10.126 -8.884501 -12.6376 -10.5125 -19.2406 -20.6927 -22.9937 -21.2581 -22.4039 -17.1932 -15.2232 -18.9143 -19.3777 -13.3071 -13.4499 -15.3069 -12.3888 -15.554 -14.0556 -15.637 -14.32 -9.925501 -11.6603 -8.8 -5.1745 
