-4.759 
n/a 
n/a 
n/a 
n/a 
-4.759 
n/a 
n/a 
n/a 
n/a 
-4.759 
n/a 
n/a 
n/a 
n/a 
-4.759 
n/a 
n/a 
n/a 
n/a 
-4.02 -3.959 -3.4765 -4.9985 0 -4.9305 -1.8085 -3.6765 -2.186 -3.7855 -1.7695 -4.8425 -4.0155 -3.468 -1.934 -3.676 -2.0935 -4.0415 -4.729 0 
-6.338 -7.0205 -7.951 -4.9985 -4.9305 -7.0325 -4.452 -5.1445 -4.9225 -4.793 -6.511001 -6.308001 -6.638 -5.1985 -4.7985 -5.9825 -5.6635 -8.179501 -4.729 
-9.0275 -10.204 -7.951 -10.223 -7.0325 -9.592 -5.7575 -7.613 -5.685 -9.878 -7.868001 -8.217 -7.98 -7.728 -6.801 -9.603001 -9.4595 -8.179501 
-12.2784 -10.204 -13.4991 -12.6432 -9.592 -11.0215 -8.264 -9.304501 -11.0204 -11.294 -10.621 -9.748501 -10.403 -9.467501 -10.674 -13.6386 -9.4595 
-12.2784 -16.2485 -15.9193 -15.2027 -11.0215 -13.528 -10.0375 -14.7703 -12.4364 -14.047 -12.1525 -12.3657 -12.1425 -13.6301 -14.7096 -13.6386 
-1.4985 -4.02 -3.959 -3.152 -4.0375 -1.4985 -4.9305 -5.377 -2.872 -1.4985 -3.676 -2.186 -3.937 -1.4985 -5.033 -1.7565 -3.956 -2.0935 -1.4985 -4.257 -5.4125 -1.756 -4.0375 -5.4125 0 
-4.969501 -6.338 -6.2895 -8.447001 -5.653 -6.499001 -10.4945 -7.4505 -4.035 -6.125 -5.5015 -5.158 -5.113501 -6.0705 -6.2665 -4.994 -6.0045 -2.9725 -5.0245 -10.5135 -6.423 -6.0985 -9.394001 -5.4125 
-7.337501 -8.4475 -12.0375 -10.4771 -10.476 -10.733 -12.568 -8.613001 -8.953001 -8.4855 -8.064501 -6.304 -10.1425 -6.6935 -7.6545 -6.58 -6.862 -6.535 -11.8932 -11.524 -11.4037 -12.17 -9.394001 
-9.2965 -14.2721 -14.0676 -15.3001 -15.1582 -12.8065 -13.7305 -13.6758 -11.3851 -11.1459 -9.1975 -11.5632 -10.7655 -7.727 -8.743501 -7.384501 -10.76 -13.6923 -12.9037 -16.5047 -17.4752 -12.17 
-15.1779 -16.3022 -18.8906 -19.9823 -17.2317 -13.969 -18.7933 -16.1079 -14.0455 -12.2789 -14.8127 -12.1862 -11.799 -8.8005 -9.316501 -11.6019 -17.9173 -14.7028 -17.8844 -22.5762 -17.4752 
-4.013 -3.849 -3.959 -4.9985 -2.3615 -5.033 0 -3.627 -3.468 -1.934 -3.676 -3.5725 -4.298 -2.3615 -5.033 -2.0935 -4.0005 -4.729 -1.756 -4.0415 -4.729 0 
-6.747 -6.252 -8.610001 -7.522 -7.392 -5.033 -3.627 -7.222 -5.1985 -4.7985 -7.2245 -8.3345 -6.677501 -7.392 -6.094501 -5.288 -7.257 -5.7595 -5.4935 -8.179501 -4.729 
-8.9055 -10.022 -11.4223 -12.9865 -7.392 -8.899501 -7.222 -8.6245 -7.728 -8.0955 -12.3611 -10.7175 -12.3278 -8.863501 -8.496501 -7.856501 -8.2775 -9.6945 -9.5465 -8.179501 
-13.0119 -13.0067 -16.8868 -12.9865 -10.66 -12.8891 -8.6245 -10.564 -10.434 -13.4387 -14.7441 -16.3678 -13.7993 -11.3535 -9.008501 -8.884001 -12.6437 -13.9065 -9.5465 
-15.9966 -18.4712 -16.8868 -16.2545 -15.4952 -14.2916 -10.564 -13.27 -16.0282 -15.8217 -20.3944 -17.8393 -16.2893 -11.8655 -9.585001 -13.4872 -16.8557 -13.9065 
-3.929 -2.4265 -2.8645 -3.1125 -5.851501 -1.934 -3.17 -4.02 -4.39 0 -3.9515 -5.033 -2.186 -5.7375 -1.934 -1.4985 -3.4225 -3.468 -2.0935 -4.0005 -3.8265 -1.756 -4.0415 -4.729 0 -1.756 -1.934 -8.858 -3.468 0 
-5.029 -4.1435 -3.5345 -7.0425 -6.8395 -4.8605 -6.916 -6.8505 -4.39 -3.9515 -5.884 -6.5115 -7.277 -7.4295 -2.6125 -3.9655 -3.628 -5.587 -5.288 -6.733 -5.377 -5.4935 -8.179501 -4.729 -1.756 -4.0205 -8.1645 -8.9305 -3.468 
-6.431 -4.755 -7.4935 -7.8985 -8.992001 -7.5215 -8.3485 -6.8505 -7.5425 -5.884 -7.315001 -9.962001 -8.761001 -8.14 -4.464 -4.053 -5.8695 -8.481001 -7.9945 -8.113001 -8.0365 -9.5465 -8.179501 -5.7595 -4.0205 -9.948001 -9.933001 -8.217 
-7.0535 -8.915001 -8.264 -9.376501 -10.0315 -8.8725 -8.3485 -10.147 -9.8485 -7.315001 -10.064 -10.1315 -9.188001 -9.6715 -4.5095 -5.9065 -8.823 -9.737 -9.144501 -10.1305 -10.0505 -9.5465 -9.339 -8.1955 -9.816501 -10.9425 -9.150001 
-10.067 -9.466001 -9.5935 -10.0935 -10.1605 -8.8725 -10.1505 -10.154 -10.126 -10.064 -10.14 -10.154 -10.0385 -9.702001 -6.2665 -8.852 -10.0895 -10.153 -10.1475 -10.1535 -10.0505 -10.076 -10.1195 -10.25 -10.217 -10.217 
