-4.759 
n/a 
n/a 
n/a 
n/a 
-4.759 
n/a 
n/a 
n/a 
n/a 
-4.759 
n/a 
n/a 
n/a 
n/a 
-4.759 
n/a 
n/a 
n/a 
n/a 
-1.934 -4.02 -3.959 -2.674 -3.383 -3.4865 -6.263 
-5.3455 -6.338 -5.6485 -5.6065 -5.601 -9.082001 
-6.9535 -7.77 -8.095 -8.146 -11.5907 
-8.5985 -10.459 -10.9833 -14.5299 
-11.5423 -13.3473 -17.3672 
-6.263 -2.186 -3.699 -4.179 -1.934 -4.02 -3.959 0 
-7.973501 -4.636 -7.9145 -5.607501 -5.3455 -6.338 -3.959 
-11.0333 -9.904501 -8.542001 -8.911501 -6.9535 -6.338 
-16.3018 -10.532 -12.338 -10.6605 -6.9535 
-16.9293 -14.328 -14.087 -10.6605 
-9.52 -4.179 -2.186 -3.383 -3.699 -1.934 -5.933 0 
-10.7495 -5.982 -4.438 -5.014 -5.35 -7.922 -5.933 
-12.5525 -8.557501 -5.451 -6.4135 -12.009 -7.922 
-15.128 -9.651501 -6.758 -13.1849 -12.009 
-16.222 -11.1625 -13.5674 -13.1849 
-6.263 -2.8645 -4.4525 -1.934 -4.02 -3.959 
-9.121 -8.123 -5.908501 -5.3455 -6.338 
-14.6009 -8.904 -9.203501 -6.9535 
-15.3819 -12.248 -10.554 
-18.7259 -13.5985 
