-4.759 
n/a 
n/a 
n/a 
n/a 
-4.759 
n/a 
n/a 
n/a 
n/a 
-4.759 
n/a 
n/a 
n/a 
n/a 
-4.759 
n/a 
n/a 
n/a 
n/a 
-7.4445 -2.8645 -3.8755 -12.16972 -1.934 -8.1575 -3.3195 
-9.705001 -5.3955 -17.13762 -14.10372 -9.359501 -8.578 
-12.3286 -19.30142 -19.07162 -21.52922 -9.655001 
-26.23452 -21.23542 -26.49712 -21.82472 
-28.16852 -28.66092 -26.79262 
-8.382501 -4.673 -1.8085 -2.688 -4.5475 -6.516 -3.849 -12.16972 0 
-13.4369 -6.5125 -3.642 -7.095 -9.081501 -9.31 -16.17932 -12.16972 
-15.2764 -7.6375 -8.434 -12.4372 -12.0745 -22.18472 -16.17932 
-16.4014 -13.0033 -14.1018 -15.4302 -24.94922 -22.18472 
-21.7672 -18.6711 -17.0948 -28.30492 -24.94922 
-7.4445 0 -2.8645 -3.8755 -1.8085 -7.849 -7.646501 -3.849 -12.16972 
-7.4445 -2.8645 -5.3955 -5.0255 -10.016 -16.2145 -11.1355 -16.17932 
-9.705001 -5.3955 -5.7695 -14.0108 -18.4093 -19.7035 -23.46582 
-12.3286 -5.7695 -15.0964 -22.4041 -21.8983 -32.03382 
-12.7026 -15.0964 -23.4897 -25.8931 -34.22862 
-8.004001 -3.5185 -1.4985 -12.16972 -2.5045 -1.4985 -12.16972 -3.3195 
-12.1895 -4.9765 -14.76202 -14.67422 -3.583 -14.76202 -15.48922 
-13.6475 -18.76642 -17.26652 -15.75272 -17.01852 -18.08152 
-27.43742 -21.27092 -18.34502 -29.18824 -20.33802 
-29.94192 -22.34942 -31.78054 -32.50774 
