-4.759 
n/a 
n/a 
n/a 
n/a 
-4.759 
n/a 
n/a 
n/a 
n/a 
-4.759 
n/a 
n/a 
n/a 
n/a 
-4.759 
n/a 
n/a 
n/a 
n/a 
-4.0575 -5.1625 -1.7695 -2.489 -3.9595 -1.934 -1.8085 -4.214 -5.017 
-7.9975 -7.193001 -3.1405 -4.74 -5.166 -3.2685 -5.496 -8.661501 
-9.878 -8.358001 -5.327 -5.9415 -6.674 -6.359 -9.9975 
-11.1024 -10.4945 -6.422 -7.2 -9.2495 -10.5745 
-13.2389 -11.5895 -7.551001 -10.172 -14.1852 
-1.934 -9.0725 -1.7695 -3.429 -5.1625 -1.934 -4.5185 
-12.0129 -11.0145 -4.032 -8.76 -7.0505 -6.992 
-13.9549 -13.277 -9.226001 -11.2856 -12.7025 
-16.2174 -18.471 -12.0602 -16.9376 
-21.4114 -21.3052 -17.7122 
-3.8315 -1.934 -1.4985 -4.0575 0 -3.429 -5.1625 -1.934 -1.8085 -4.214 -4.684 
-5.2225 -2.6125 -4.818 -4.0575 -3.429 -8.76 -7.0505 -3.2685 -5.496 -6.671 
-5.447001 -5.082 -4.818 -7.3985 -8.76 -11.2856 -7.975501 -6.359 -7.515 
-6.1705 -5.082 -7.926001 -13.1615 -11.2856 -12.2106 -10.304 -8.078 
-6.1705 -7.9595 -14.1406 -15.6871 -12.2106 -14.5391 -12.023 
-4.6045 -2.5235 -5.1625 -4.0435 -3.8315 -1.934 -1.4985 -4.0575 0 
-6.208 -6.902 -6.873001 -8.317 -5.2225 -2.6125 -4.818 -4.0575 
-8.998501 -8.904 -10.76 -9.603001 -5.447001 -5.082 -4.818 
-10.6215 -13.0106 -12.046 -9.715501 -6.1705 -5.082 
-14.7281 -14.2966 -12.1585 -10.602 -6.1705 
