-4.759 
n/a 
n/a 
n/a 
n/a 
-4.759 
n/a 
n/a 
n/a 
n/a 
-4.759 
n/a 
n/a 
n/a 
n/a 
-4.759 
n/a 
n/a 
n/a 
n/a 
-4.445 -2.229 -4.0105 -4.6865 -3.152 -3.441 -1.7565 -1.4985 -4.5685 0 -4.7155 -3.5035 -1.756 -4.2605 0 -4.8035 -2.264 -4.285 -4.231 -3.325 -3.595 0 
-5.24 -5.6315 -7.066 -7.0545 -7.8555 -5.2325 -2.4195 -5.2795 -4.5685 -4.7155 -7.763 -4.74 -6.705 -4.2605 -4.8035 -7.163 -6.455 -8.267 -7.460501 -6.61 -3.595 
-8.817 -8.2155 -8.9085 -12.2694 -9.703001 -5.897 -6.015501 -5.2795 -9.838 -7.763 -7.8205 -9.981001 -6.705 -9.559501 -7.163 -11.7048 -11.1894 -11.8969 -10.598 -6.61 
-11.6104 -9.715501 -14.392 -14.1169 -10.7595 -9.242001 -6.015501 -10.064 -12.9073 -7.8205 -15.1377 -9.981001 -12.1506 -11.9668 -11.7048 -16.4392 -14.8193 -15.0344 -10.598 
-13.1104 -15.2268 -16.2395 -15.1734 -14.1045 -9.242001 -10.7175 -13.1333 -12.9648 -15.1377 -15.1377 -15.6598 -14.5579 -16.5086 -16.4392 -20.0691 -17.9568 -15.0344 
-1.4985 -4.6865 -1.7565 -5.189 -3.152 -1.7695 -3.7085 -1.4985 -3.333 -1.756 -3.72 -1.7565 -1.4985 -4.7315 -1.756 -3.074 -3.61 -3.2615 -1.4985 -3.772 -1.7565 -1.4985 -4.876 -4.957 -3.325 -3.277 0 
-5.6875 -5.576 -5.684 -7.625 -5.0045 -4.19 -4.704 -4.6905 -5.1725 -4.773 -5.180501 -2.4195 -6.2285 -5.8825 -4.566 -5.9925 -5.78 -4.032 -5.215 -5.153 -2.4195 -5.627 -9.9895 -7.7955 -6.6045 -3.277 
-5.9445 -9.471001 -8.703501 -9.343 -7.651 -5.0195 -7.8315 -6.266 -7.1255 -5.889 -5.871 -6.948 -7.4535 -8.525001 -7.5535 -8.042 -6.516 -8.396001 -5.5775 -5.563 -6.311501 -11.9683 -13.1382 -10.476 -6.6045 
-9.9975 -12.9079 -9.943001 -12.1749 -8.296 -8.065001 -9.4245 -9.395 -8.967501 -6.5965 -11.1801 -8.179501 -9.901 -11.6593 -9.187 -8.564 -10.025 -9.0535 -5.942 -9.4235 -12.9088 -15.117 -15.8187 -10.476 
-13.8178 -14.1474 -13.1067 -12.8199 -11.4907 -9.588 -12.6587 -9.462001 -9.459001 -12.2398 -12.4116 -10.6735 -13.0353 -13.2928 -9.723001 -12.142 -10.2135 -9.5655 -9.734501 -16.0846 -16.0575 -17.7975 -15.8187 
-4.184 -8.224 -1.7565 -5.0075 -2.186 -1.7695 -4.092 -4.509 -1.4985 -3.8145 0 -4.8085 0 -1.756 -3.772 -1.7565 -4.231 -2.3335 -3.6955 -3.325 -1.4985 -4.7315 
-10.168 -10.4125 -5.9065 -7.3275 -3.8745 -6.100501 -7.2295 -6.154 -4.691 -3.8145 -4.8085 -4.8085 -1.756 -5.111 -5.153 -5.830501 -6.257501 -5.4835 -5.992001 -3.898 -6.2285 
-12.3565 -14.5625 -7.7005 -8.667001 -8.767 -7.8275 -8.2345 -9.6975 -4.691 -8.413 -4.8085 -5.8685 -5.111 -6.3195 -9.8125 -8.024 -9.283501 -7.6645 -6.62 -9.5275 
-16.5065 -16.3565 -9.1905 -13.6809 -9.231501 -8.396501 -12.061 -9.6975 -9.0155 -8.413 -5.8685 -9.865001 -6.3195 -11.2556 -12.0606 -11.084 -11.5531 -7.9435 -12.6697 
-18.3005 -17.8465 -14.2106 -14.1454 -9.432 -12.269 -12.061 -14.0588 -9.0155 -10.0885 -9.865001 -10.706 -11.2556 -13.5037 -15.1206 -13.3536 -11.8321 -14.1346 
-5.189 -4.6865 -2.4945 -1.7695 -3.7085 -4.225 0 -4.8085 -3.074 -5.656 -1.4985 -3.6705 -1.7565 -1.4985 -3.999 -3.9035 -3.325 -2.985 -6.337 
-9.581 -6.496 -4.6835 -4.19 -8.377501 -4.225 -4.8085 -8.0495 -7.7355 -6.186 -5.144 -6.299001 -2.4195 -4.7585 -7.073 -7.454 -5.788 -10.7665 
-11.4041 -7.5035 -7.2165 -8.9525 -8.377501 -9.094501 -8.0495 -12.9004 -8.3675 -9.335 -6.6315 -6.6765 -5.772 -7.3485 -10.7025 -9.74 -14.3367 
-12.4116 -9.550501 -12.1386 -8.9525 -13.8886 -12.5543 -12.9004 -13.5324 -11.5789 -9.4945 -6.9845 -10.3225 -8.531 -11.3942 -12.9885 -18.3709 
-14.4586 -14.669 -12.1386 -14.7812 -17.3484 -17.4052 -13.5324 -16.7438 -11.7384 -9.6765 -10.5635 -13.0815 -12.5507 -13.6802 -21.6194 
