-4.759 
n/a 
n/a 
n/a 
n/a 
-4.759 
n/a 
n/a 
n/a 
n/a 
-4.759 
n/a 
n/a 
n/a 
n/a 
-4.759 
n/a 
n/a 
n/a 
n/a 
-2.7405 0 -8.151 -7.7295 0 
-2.7405 -8.151 -8.154 -7.7295 
-9.466001 -8.154 -8.154 
-9.467 -8.154 
-9.467 
-2.7405 0 0 -8.151 -7.7295 0 
-2.7405 0 -8.151 -8.154 -7.7295 
-2.7405 -8.151 -8.154 -8.154 
-9.466001 -8.154 -8.154 
-9.467 -8.154 
-2.7405 0 -12.16972 -10.445 
-2.7405 -12.16972 -22.61472 
-15.68562 -22.61472 
-26.13062 
n/a 
-2.7405 0 0 -8.019501 -5.3525 -7.7295 0 
-2.7405 0 -8.019501 -8.783501 -8.778001 -7.7295 
-2.7405 -8.019501 -8.783501 -8.800001 -8.778001 
-10.419 -8.783501 -8.800001 -8.800001 
-10.4985 -8.800001 -8.800001 
