-4.759 
n/a 
n/a 
n/a 
n/a 
-4.759 
n/a 
n/a 
n/a 
n/a 
-4.759 
n/a 
n/a 
n/a 
n/a 
-4.759 
n/a 
n/a 
n/a 
n/a 
-5.2885 -4.69 -1.4985 -3.8175 -5.0515 -1.7565 -4.0415 -2.5195 -4.1365 -4.299 
-10.8025 -6.032 -4.741 -8.426001 -5.5125 -5.4955 -7.176001 -6.432 -7.114 
-12.1445 -9.634501 -9.76 -8.7405 -10.085 -9.319 -11.3975 -9.369 
-15.747 -14.6535 -10.337 -13.4296 -13.9085 -13.5817 -14.3345 
-20.766 -15.2305 -15.0261 -17.2531 -18.1712 -16.5187 
-1.4985 -4.2995 -1.7565 -4.257 -2.7415 -5.776 -4.9375 -1.7695 -1.7695 -4.2495 -5.6295 0 
-5.2815 -5.232 -6.290501 -6.413 -7.206 -12.0989 -7.166 -5.439 -6.7285 -7.8415 -5.6295 
-5.732501 -9.354 -9.605 -10.7175 -13.8251 -14.3274 -11.4141 -9.896001 -10.3885 -7.8415 
-9.712001 -12.8991 -13.9095 -17.3366 -16.0536 -18.5755 -15.8711 -14.2538 -10.3885 
-13.2905 -17.2036 -20.5286 -19.5651 -20.3017 -23.0325 -20.2289 -14.2538 
-4.351 -5.561 -3.152 -6.249 -4.9475 -2.0935 -1.4985 -5.1075 -1.7565 -4.1365 -4.348 0 
-7.725 -7.784 -8.335501 -12.1789 -7.1405 -2.9725 -5.561 -5.5065 -5.797501 -6.627001 -4.348 
-10.089 -13.3507 -14.7252 -14.3719 -7.984 -5.757 -5.594 -10.1765 -7.856501 -6.627001 
-15.6557 -19.7404 -16.9182 -15.2154 -10.9767 -5.765501 -10.367 -12.2355 -7.856501 
-22.0454 -21.9334 -17.7617 -18.2081 -10.9852 -11.2027 -12.426 -12.2355 
-2.925 -4.0835 -3.383 -5.4435 -4.2715 -2.0935 -3.1495 -4.5115 -3.1495 -3.7115 -1.7695 -3.935 -1.4985 -5.429 0 
-6.382 -7.609 -9.854501 -7.2875 -5.6845 -4.7405 -6.429 -7.286 -7.549001 -6.8535 -4.6555 -5.08 -6.7145 -5.429 
-9.724501 -14.6829 -12.2971 -8.9135 -7.9655 -7.991 -8.965 -12.1829 -11.0268 -10.4035 -5.519001 -10.31 -6.7145 
-16.8414 -17.1255 -13.9231 -11.4019 -11.49 -10.6095 -14.1359 -15.6607 -14.5768 -11.267 -10.924 -10.31 
-19.284 -18.7515 -16.4115 -14.9264 -14.1085 -15.7804 -17.6137 -19.2107 -15.4403 -16.672 -10.924 
