-4.759 
n/a 
n/a 
n/a 
n/a 
-4.759 
n/a 
n/a 
n/a 
n/a 
-4.759 
n/a 
n/a 
n/a 
n/a 
-4.759 
n/a 
n/a 
n/a 
n/a 
-12.279 -3.673 -1.7565 -1.4985 -3.473 -1.934 -3.6035 0 
-15.3275 -5.5105 -2.4195 -4.624001 -5.513 -5.9875 -3.6035 
-17.6729 -6.684 -5.579 -6.4575 -9.719501 -5.9875 
-18.3329 -9.901001 -7.1945 -10.733 -9.719501 
-21.5499 -11.5165 -11.6074 -10.733 
-4.4535 -4.622 -1.756 -4.899 -5.032 0 
-8.7015 -6.409 -8.2285 -10.862 -5.032 
-10.8693 -13.7415 -14.5763 -10.862 
-18.2018 -20.0893 -14.5763 
-24.5496 -20.0893 
-4.0785 -1.7565 -3.401 -4.98 -4.4535 -4.3465 0 -4.622 -3.1335 0 
-4.595 -5.7035 -7.1715 -9.9891 -8.292001 -4.3465 -4.622 -6.839 -3.1335 
-8.658001 -9.2845 -12.7316 -13.8276 -8.292001 -6.8715 -6.839 -6.839 
-12.3922 -14.9162 -16.5701 -13.8276 -11.9164 -8.706 -6.839 
-18.0239 -18.7547 -16.5701 -17.452 -13.7509 -8.706 
-3.401 -4.98 -4.4535 -4.3465 -4.622 -4.0785 
-7.1715 -9.9891 -8.292001 -6.8715 -8.591001 
-12.7316 -13.8276 -11.9164 -11.8821 
-16.5701 -17.452 -16.927 
-20.1945 -22.4626 
