-4.759 
n/a 
n/a 
n/a 
n/a 
-4.759 
n/a 
n/a 
n/a 
n/a 
-4.759 
n/a 
n/a 
n/a 
n/a 
-4.759 
n/a 
n/a 
n/a 
n/a 
-12.16972 -5.154 -2.229 -8.905001 -12.16972 -8.863001 -4.9715 -3.8245 
-17.32372 -6.353 -10.674 -21.50352 -21.03272 -14.4185 -8.0395 
-18.52272 -15.5214 -23.27252 -30.36652 -26.58822 -17.4865 
-27.69112 -28.11992 -32.13552 -35.92202 -29.65622 
-40.28964 -36.98292 -37.69102 -38.99002 
-2.872 0 -3.1015 -1.756 -3.739 -1.4985 -5.154 -3.9915 -1.756 -5.229 -2.4945 -3.8245 -3.115 -5.198 -1.934 -5.1845 -4.9225 0 
-2.872 -3.1015 -4.727 -5.0735 -5.4205 -5.884001 -9.5415 -5.1375 -6.578 -6.956 -5.751 -6.861 -8.449501 -6.749001 -6.564 -9.13 -4.9225 
-5.068501 -4.727 -7.821 -6.6625 -9.767 -9.854501 -10.8311 -9.959001 -8.3535 -10.533 -8.442 -12.8319 -10.228 -12.076 -11.1217 -9.13 
-7.584001 -7.821 -9.534 -11.7736 -13.7375 -11.3691 -15.6526 -11.7773 -12.0301 -13.224 -14.3765 -14.6104 -15.555 -16.6337 -11.1217 
-11.558 -9.534 -14.8959 -15.7441 -15.2521 -16.1906 -17.4709 -15.4539 -14.7211 -19.1585 -16.155 -19.9374 -20.1127 -16.6337 
-2.5195 -3.1015 -5.8045 -1.4985 -5.3255 -3.098 -3.874 -3.511 -1.934 -1.4985 -5.1845 -3.1385 
-5.354 -8.193501 -7.2515 -6.5585 -9.1665 -7.3085 -6.925 -4.582 -2.6125 -6.5205 -7.4095 
-8.702 -9.7135 -12.4315 -9.913 -13.603 -10.6517 -7.831 -5.3785 -7.672 -7.6315 
-9.874001 -14.8935 -15.786 -14.4783 -16.9462 -11.5577 -8.7445 -10.7025 -10.341 
-15.054 -18.248 -20.3513 -17.8215 -17.8522 -12.4712 -14.3187 -13.3715 
-2.5045 -3.76 -3.1015 -1.4985 -5.3255 -4.655 -1.756 -5.0675 -2.742 -3.6955 -3.818 
-3.8195 -6.771501 -4.7205 -6.5585 -9.739 -5.832 -6.2875 -7.4535 -5.043 -5.5665 
-6.7935 -8.055 -9.2985 -11.2898 -10.589 -8.406 -8.657001 -9.6085 -7.012 
-8.076 -12.7922 -14.584 -12.1398 -13.163 -10.5325 -10.5135 -11.9683 
-12.823 -18.0777 -15.434 -14.7138 -15.2895 -12.389 -12.8733 
