-4.759 
n/a 
n/a 
n/a 
n/a 
-4.759 
n/a 
n/a 
n/a 
n/a 
-4.759 
n/a 
n/a 
n/a 
n/a 
-4.759 
n/a 
n/a 
n/a 
n/a 
-2.688 -4.7505 -1.756 -5.216 -2.4945 -5.7495 -1.934 -2.985 0 
-6.8075 -6.112 -7.390501 -7.0175 -7.3065 -6.8195 -4.111 -2.985 
-8.235001 -12.9363 -8.9805 -12.2261 -8.355 -9.317 -4.111 
-15.5113 -14.5263 -14.2547 -13.2746 -11.1747 -9.317 
-17.1013 -19.8005 -15.3032 -16.0943 -11.1747 
-2.688 -4.2115 -3.772 -12.16972 -1.934 -4.1375 
-6.811501 -8.509001 -17.05532 -14.10372 -6.3125 
-11.7592 -22.33192 -18.98932 -18.48222 
-25.58212 -24.26592 -23.36782 
-27.51612 -28.64442 
-4.9 -2.742 -3.7045 -2.688 -3.932 0 -3.8125 
-7.304 -5.932 -6.308001 -6.311 -3.932 -3.8125 
-10.757 -9.126 -9.803 -6.311 -8.415001 
-13.951 -12.8992 -9.803 -10.7175 
-17.7242 -12.8992 -14.2615 
-3.16 -4.573 -3.908 -3.7045 -2.985 -2.688 -4.031 0 -5.216 
-7.086 -8.651001 -8.3055 -6.125 -5.312 -7.319 -4.031 -5.216 
-10.143 -13.1307 -9.4115 -9.383 -9.606001 -7.319 -10.1995 
-14.7369 -14.2367 -12.8351 -13.7436 -9.606001 -13.9625 
-15.8429 -17.6603 -17.1957 -13.7436 -16.6497 
