-4.759 
n/a 
n/a 
n/a 
n/a 
-4.759 
n/a 
n/a 
n/a 
n/a 
-4.759 
n/a 
n/a 
n/a 
n/a 
-4.759 
n/a 
n/a 
n/a 
n/a 
-2.3615 -5.7405 0 -6.1025 0 -9.751 -3.35 -7.163 -1.756 -4.7175 -12.16972 -4.0995 -3.8935 -1.7565 -4.1985 -3.452 -4.4605 0 -8.322001 -5.641 -4.0435 -2.186 -3.737 0 
-9.285501 -5.7405 -6.1025 -6.1025 -9.751 -13.3906 -11.7256 -8.0515 -5.905 -18.18882 -16.26922 -8.957001 -4.8605 -5.801001 -8.246 -9.218 -4.4605 -8.322001 -10.1855 -8.864 -5.943501 -5.3315 -3.737 
-9.285501 -13.0568 -6.1025 -16.7137 -13.3906 -21.7662 -12.6141 -12.6509 -19.69372 -22.28832 -21.12672 -10.2755 -7.8555 -9.8695 -14.7824 -9.218 -13.6329 -10.1855 -13.5689 -12.0878 -10.348 -5.3315 
-16.7102 -13.0568 -16.7137 -20.3533 -21.7662 -22.6547 -17.2135 -26.43962 -23.79322 -27.14582 -22.44522 -13.2705 -12.6266 -17.2971 -14.7824 -18.7916 -15.4964 -13.5689 -16.7927 -16.4923 -10.348 
-16.7102 -23.668 -20.3533 -28.7289 -22.6547 -27.2541 -31.00222 -30.53912 -28.65072 -28.46432 -25.44022 -18.0416 -20.0542 -17.2971 -24.356 -20.6551 -18.8798 -16.7927 -21.1972 -16.4923 
-2.3615 -3.4105 -2.186 -1.8085 -3.682 -1.7565 -1.4985 -8.322001 -5.641 -4.0615 -1.7565 -6.1025 -2.9705 -2.186 -2.5195 -1.4985 -1.4985 -3.7405 -3.8935 -1.7565 -1.4985 -2.915 0 -3.326 -3.9235 -1.756 -2.915 0 -3.992 -3.452 -3.433 0 -3.991 -3.35 0 
-4.737 -5.008 -3.164 -5.008 -4.9685 -2.4195 -9.158501 -10.1855 -9.676001 -6.218 -7.990001 -9.17 -3.89 -4.863 -3.1695 -4.935 -5.136001 -7.127501 -4.8605 -2.4195 -4.1675 -2.915 -3.326 -6.261001 -5.2145 -4.516 -2.915 -3.992 -6.473001 -7.6675 -3.433 -3.991 -5.99 -3.35 
-5.6835 -6.039 -6.3795 -5.7745 -5.661 -10.1725 -10.533 -10.6955 -12.0731 -13.0785 -10.647 -9.952001 -7.0645 -5.5335 -6.5285 -8.8955 -8.218 -8.4995 -5.8165 -5.028 -4.1675 -6.1175 -6.261001 -7.805501 -8.072001 -4.516 -7.001 -6.473001 -9.236501 -7.6675 -8.17 -5.99 -5.99 
-6.8505 -8.582001 -6.8715 -6.541 -13.7522 -11.6014 -10.7665 -13.7578 -18.9336 -15.7355 -11.429 -13.2247 -7.6 -8.398001 -10.7464 -12.0059 -9.1365 -9.679001 -8.690001 -5.028 -8.321501 -9.731001 -7.805501 -10.6335 -8.072001 -8.853001 -9.443001 -9.236501 -9.236501 -12.9831 -9.241 -5.99 
-9.276501 -9.094001 -7.763 -14.8104 -15.1811 -11.8349 -14.2028 -20.6183 -21.5906 -16.5175 -14.7017 -13.7602 -10.647 -12.9933 -13.8568 -12.9244 -10.2185 -12.6047 -8.690001 -9.171501 -12.4816 -10.6905 -10.6335 -10.6335 -12.7448 -11.646 -12.9893 -9.236501 -14.7117 -14.0541 -9.241 
-6.173 -12.16972 0 -6.1025 0 -3.991 -4.641 -4.0045 -1.756 -9.4545 -9.3605 -1.756 -4.0045 0 -12.16972 -5.641 -3.8755 
-18.81932 -12.16972 -6.1025 -6.1025 -3.991 -8.6845 -8.927 -5.167 -10.985 -18.9994 -11.4869 -5.1655 -4.0045 -12.16972 -17.81072 -9.832001 
-18.81932 -18.27222 -6.1025 -10.9537 -8.6845 -13.3593 -10.4195 -15.5428 -20.5299 -21.1258 -14.8964 -5.1655 -17.30462 -17.81072 -22.00172 
-24.92182 -18.27222 -10.9537 -15.6472 -13.3593 -14.8518 -20.7953 -25.0877 -22.6563 -24.5353 -14.8964 -18.89542 -22.94562 -22.00172 
-24.92182 -23.12342 -15.6472 -20.322 -14.8518 -25.2276 -30.3402 -27.2141 -26.0658 -24.5353 -28.62632 -24.53642 -27.13662 
-2.3615 -3.6205 -1.7565 -6.1025 -3.991 -3.35 -2.915 -3.326 -4.7615 -1.7695 -3.737 -1.7565 -8.322001 -5.641 -3.737 0 
-5.509501 -5.2835 -7.990001 -10.9537 -5.99 -6.4845 -6.1175 -7.89 -7.074501 -5.321 -5.3145 -9.986501 -10.1855 -9.8545 -3.737 
-7.396 -12.369 -13.2002 -12.9527 -9.599501 -10.1765 -11.6247 -10.713 -11.3556 -8.093 -14.2949 -11.85 -14.5594 -9.8545 
-14.6971 -17.5792 -15.1992 -16.5622 -13.5869 -15.6837 -14.4477 -14.9941 -14.1276 -17.4044 -16.1584 -16.2239 -14.5594 
-19.9073 -19.5782 -18.8087 -20.5496 -19.0941 -18.5067 -18.7288 -17.7661 -23.439 -19.2679 -20.5323 -16.2239 
