-4.759 
n/a 
n/a 
n/a 
n/a 
-4.759 
n/a 
n/a 
n/a 
n/a 
-4.759 
n/a 
n/a 
n/a 
n/a 
-4.759 
n/a 
n/a 
n/a 
n/a 
-4.3735 -3.999 -1.7565 -12.16972 -1.934 -5.1845 
-8.222501 -4.5785 -14.87542 -14.10372 -6.564 
-10.044 -18.69682 -16.80942 -18.73372 
-24.16232 -20.63082 -21.43942 
-26.09632 -25.26082 
-1.934 -5.1845 0 -3.936 -2.4945 -4.7925 -3.222 -4.3735 -3.9755 0 
-6.564 -5.1845 -3.936 -5.71 -5.941501 -5.2095 -6.8215 -7.6095 -3.9755 
-6.564 -10.688 -5.71 -8.8415 -6.151 -7.3525 -9.285501 -7.6095 
-12.6797 -12.462 -8.8415 -9.0765 -8.3655 -10.064 -9.285501 
-14.4537 -15.5935 -9.0765 -11.3852 -10.7575 -10.064 
-1.4985 -5.1845 -3.6065 -2.186 -4.3735 -3.9035 0 
-6.5205 -11.046 -6.534 -6.749001 -7.6485 -3.9035 
-13.0974 -13.9735 -11.6442 -10.001 -7.6485 
-16.0249 -19.0837 -14.8962 -10.001 
-21.1351 -22.3357 -14.8962 
-1.934 -5.1845 -4.461 -2.4945 -4.5275 -3.222 -4.3735 -3.9755 0 
-6.564 -10.9399 -5.9835 -6.434 -5.867 -6.8215 -7.6095 -3.9755 
-12.9316 -12.4624 -10.564 -6.946 -8.521 -9.285501 -7.6095 
-14.4541 -17.0429 -11.076 -9.5225 -11.1476 -9.285501 
-19.0346 -17.5549 -13.6525 -12.2881 -11.1476 
