-4.759 
n/a 
n/a 
n/a 
n/a 
-4.759 
n/a 
n/a 
n/a 
n/a 
-4.759 
n/a 
n/a 
n/a 
n/a 
-4.759 
n/a 
n/a 
n/a 
n/a 
-8.070001 0 -11.784 -4.493 -1.934 -9.841001 
-8.070001 -11.8576 -16.62 -5.1865 -10.884 
-20.5332 -16.62 -17.3135 -15.2813 
-25.2956 -17.3135 -27.4083 
-25.9891 -27.4083 
-2.882 -3.279 0 -1.8085 -3.36 -3.6765 -1.934 -9.841001 -2.229 -12.16972 
-5.25 -3.279 -1.8085 -5.447001 -7.579 -5.201 -10.884 -12.1348 -14.99372 
-5.25 -5.882 -5.447001 -8.364 -9.207001 -15.077 -13.1778 -24.89952 
-8.264501 -9.816 -8.364 -10.0925 -19.1142 -17.3708 -25.94252 
-12.3565 -12.943 -10.0925 -19.9951 -21.408 -30.13552 
-2.882 -3.279 0 -12.16972 -3.2875 -9.607 -3.36 -4.269 -3.002 0 
-5.25 -3.279 -12.16972 -15.45722 -14.0419 -13.269 -7.607 -7.3745 -3.002 
-5.25 -16.01452 -15.45722 -26.21162 -17.7039 -17.516 -11.0917 -7.3745 
-19.01732 -19.30202 -26.21162 -29.87362 -21.9509 -21.0007 -11.0917 
-22.30482 -30.05642 -29.87362 -34.12062 -25.4356 -21.0007 
-1.934 -9.841001 -3.2875 0 -1.4985 -4.687 
-10.884 -13.1933 -3.2875 -1.4985 -5.878 
-14.2363 -13.1933 -5.3035 -5.878 
-14.2363 -15.2093 -9.422001 
-16.2523 -19.3278 
