-4.759 
n/a 
n/a 
n/a 
n/a 
-4.759 
n/a 
n/a 
n/a 
n/a 
-4.759 
n/a 
n/a 
n/a 
n/a 
-4.759 
n/a 
n/a 
n/a 
n/a 
-2.3615 -3.1335 -2.186 -3.956 -2.5045 -1.4985 -4.138 -3.264 -1.7565 -4.9595 -1.934 -3.729 -3.594 0 
-4.7915 -4.6915 -7.162001 -6.458 -3.1915 -4.746 -5.3975 -3.6125 -6.5635 -6.914001 -5.498 -7.616 -3.594 
-5.072 -10.1305 -10.032 -7.014 -6.577001 -5.5885 -5.4155 -8.768001 -8.294001 -10.8582 -9.894001 -7.616 
-11.8316 -13.7099 -10.7582 -10.2975 -8.6105 -5.603 -10.3405 -10.8885 -12.5644 -15.2542 -9.894001 
-15.411 -14.4361 -14.0417 -12.331 -8.627001 -10.354 -13.2098 -15.1589 -16.9604 -15.2542 
-3.034 -2.3615 -3.1335 -2.7415 -3.8535 0 -2.4265 -4.2745 -2.5045 -3.729 -3.594 -1.934 -3.6885 -3.264 
-5.0455 -4.7915 -5.679 -5.279 -3.8535 -2.4265 -7.1235 -6.867001 -6.434 -7.616 -5.373 -5.257 -5.0915 
-8.118 -7.3565 -8.449 -5.279 -5.4265 -7.1235 -9.2075 -11.4591 -10.8938 -9.353001 -8.9375 -7.969501 
-9.312 -10.0745 -8.449 -7.356 -10.5999 -9.2075 -14.4452 -15.9189 -12.6308 -13.1285 -12.104 
-12.1416 -10.0745 -9.969501 -13.5032 -12.6839 -14.4452 -18.905 -17.6559 -16.4063 -16.295 
-3.034 -2.3615 -3.1335 -3.7075 -4.2745 -2.5045 -4.205 -1.934 -2.645 -4.0145 0 
-5.0455 -4.7915 -7.002501 -8.493 -6.867001 -7.292001 -5.885 -4.899 -6.84 -4.0145 
-8.118 -9.200001 -12.13 -11.4861 -12.3171 -9.090501 -8.946501 -9.021501 -6.84 
-13.0791 -14.5841 -15.1231 -16.9362 -14.1156 -12.3096 -13.5136 -9.021501 
-18.4632 -17.5772 -20.5732 -18.7347 -17.3347 -16.8767 -13.5136 
-2.3615 -3.1335 -4.273 -2.645 -4.0145 -3.034 -3.729 -8.2875 
-4.7915 -7.2815 -7.486501 -6.84 -6.578 -6.2115 -13.0677 
-8.928 -10.9198 -12.1317 -9.776001 -9.6245 -16.2808 
-13.0497 -15.565 -15.0677 -12.8619 -20.1426 
-17.6949 -18.501 -18.1536 -23.38 
