-4.759 
n/a 
n/a 
n/a 
n/a 
-4.759 
n/a 
n/a 
n/a 
n/a 
-4.759 
n/a 
n/a 
n/a 
n/a 
-4.759 
n/a 
n/a 
n/a 
n/a 
-3.9225 -3.277 0 -3.17 -1.7565 -1.4985 -3.1385 -3.152 -3.8245 -1.934 -10.8075 0 -7.160501 0 -12.16972 0 -10.4135 0 -10.437 0 
-5.4525 -3.277 -3.17 -4.179 -2.4195 -4.2575 -5.219 -6.242001 -4.7245 -13.7479 -10.8075 -7.160501 -7.160501 -12.16972 -12.16972 -10.4135 -10.4135 -10.437 -10.437 
-5.4525 -6.322001 -4.179 -4.497 -5.013 -6.415 -7.489 -6.595 -17.3062 -13.7479 -17.968 -7.160501 -20.01342 -12.16972 -22.58322 -10.4135 -20.9757 -10.437 
-8.39 -6.956 -4.497 -6.2035 -7.302001 -8.874001 -7.908501 -19.3029 -17.3062 -20.9084 -17.968 -20.01342 -20.01342 -22.58322 -22.58322 -20.9757 -20.9757 
-8.919001 -7.2515 -6.2035 -8.066501 -9.604501 -9.255501 -20.7896 -19.3029 -24.4667 -20.9084 -30.82092 -20.01342 -30.42692 -22.58322 -33.14542 -20.9757 
-3.17 -1.7565 -3.277 -2.4945 -3.8245 -1.934 -10.8075 0 -7.160501 0 -9.735001 0 -10.546 0 -10.437 -3.8195 0 
-4.179 -4.25 -5.237 -5.751 -4.7245 -13.7479 -10.8075 -7.160501 -7.160501 -9.735001 -9.735001 -10.546 -10.546 -10.437 -14.3683 -3.8195 
-5.4445 -5.3725 -8.1805 -6.158 -17.3062 -13.7479 -17.968 -7.160501 -17.5787 -9.735001 -20.5268 -10.546 -20.983 -14.3683 -14.3683 
-6.1755 -8.209001 -8.509 -19.2173 -17.3062 -20.9084 -17.968 -17.5787 -17.5787 -20.5268 -20.5268 -20.983 -24.9143 -14.3683 
-9.04 -8.525001 -21.5753 -19.2173 -24.4667 -20.9084 -28.3862 -17.5787 -28.3705 -20.5268 -30.9638 -24.9143 -24.9143 
-4.4285 -1.7565 -3.1495 -3.1385 -3.511 -1.934 -7.436 0 -7.160501 0 -8.754001 -11.128 -1.756 -6.943 -3.8195 0 
-4.6405 -3.914 -5.148 -5.979 -4.582 -8.2185 -7.436 -7.160501 -7.160501 -8.754001 -20.2712 -12.884 -8.243 -10.2435 -3.8195 
-6.274 -5.984 -7.5855 -6.5055 -11.5935 -8.2185 -10.4265 -7.160501 -16.5977 -20.2712 -22.0272 -19.371 -10.3285 -10.2435 
-7.837 -8.1995 -7.961 -13.8598 -11.5935 -11.4796 -10.4265 -16.5977 -28.1149 -22.0272 -28.5142 -21.4565 -10.3285 
-9.295 -8.3625 -15.4531 -13.8598 -14.8546 -11.4796 -19.8637 -28.1149 -29.8709 -28.5142 -30.5997 -21.4565 
-2.925 -2.4945 -3.8245 -2.5045 -3.948 -3.5015 0 
-3.7675 -5.751 -5.906 -5.48 -8.413 -3.5015 
-6.812 -7.558001 -9.087501 -9.7075 -8.413 
-8.5585 -11.1605 -13.5358 -9.7075 
-12.08 -15.6088 -13.5358 
