-4.759 
n/a 
n/a 
n/a 
n/a 
-4.759 
n/a 
n/a 
n/a 
n/a 
-4.759 
n/a 
n/a 
n/a 
n/a 
-4.759 
n/a 
n/a 
n/a 
n/a 
-3.034 -2.925 -2.4945 -4.0445 -1.934 -1.8085 -5.7745 -2.4265 -4.1555 -5.7865 -6.2585 -4.277 -3.64 0 
-4.4 -3.7675 -5.0195 -4.768001 -3.2685 -8.837001 -8.127501 -5.2845 -8.657501 -10.4465 -9.503 -7.6485 -3.64 
-5.257 -6.543 -5.523 -6.6305 -10.6735 -11.508 -11.5745 -9.616 -13.8725 -15.2436 -13.4815 -7.6485 
-8.6075 -7.039001 -7.460001 -14.7141 -13.3445 -14.955 -15.906 -14.8318 -18.186 -15.7701 -10.5805 
-9.057501 -8.778001 -15.8936 -17.3851 -16.7915 -19.2865 -21.1218 -19.1453 -18.7125 -15.7701 
-3.4605 -1.7695 -6.094 -3.3875 -2.489 -4.144 -6.2585 -4.277 -3.64 -1.934 -2.3335 0 
-5.2965 -8.324 -9.493 -3.7975 -7.202001 -9.650001 -9.503 -7.6485 -5.4425 -4.359 -2.3335 
-12.9836 -12.356 -9.823501 -7.9915 -12.966 -14.6545 -13.4815 -8.811501 -7.853 -4.359 
-17.0156 -12.6865 -14.0175 -13.6603 -17.4733 -15.181 -11.9201 -11.676 -7.853 
-17.3461 -16.8805 -19.8243 -18.1118 -17.9998 -16.5206 -14.7846 -11.676 
-6.2585 -4.277 -3.64 -1.934 -3.16 -3.609 -2.4945 -3.0365 -1.7695 -3.473 -3.16 -3.609 0 
-9.503 -7.6485 -5.4425 -5.4145 -4.601 -5.377501 -4.952001 -5.136001 -5.524 -6.431 -4.601 -3.609 
-13.4815 -8.811501 -8.6085 -7.354001 -6.3825 -8.1505 -6.238 -9.202001 -8.541 -8.348001 -4.601 
-11.9201 -12.4315 -9.901501 -9.703001 -9.264001 -9.244 -10.7932 -12.8776 -9.205501 -8.348001 
-15.5401 -13.7245 -12.3371 -12.7707 -10.195 -13.92 -14.4688 -13.5421 -9.205501 
-5.186 -3.64 -2.4945 -3.6205 -6.2585 -4.277 -3.0365 0 
-7.159501 -5.508 -7.291501 -10.42 -9.503 -7.3785 -3.0365 
-9.287001 -11.24 -13.2553 -15.4803 -13.258 -7.3785 
-15.053 -19.1852 -19.5502 -19.0355 -13.6092 
-22.9982 -23.4987 -23.1054 -19.0355 
