-4.759 
n/a 
n/a 
n/a 
n/a 
-4.759 
n/a 
n/a 
n/a 
n/a 
-4.759 
n/a 
n/a 
n/a 
n/a 
-4.759 
n/a 
n/a 
n/a 
n/a 
-4.0955 -3.8925 -4.5125 -2.988 -4.1745 -3.2615 -3.228 -4.855 -2.186 -4.416 -3.098 -2.4265 -2.742 -3.855 -1.4985 -3.127 
-9.3965 -8.5305 -7.9755 -6.56 -7.46 -6.2275 -9.7955 -7.0905 -7.683001 -7.585001 -5.79 -4.095 -5.6845 -4.7575 -4.269 
-14.4407 -12.5003 -8.645 -9.6955 -10.5225 -13.6166 -12.141 -13.2127 -11.1762 -10.254 -7.381001 -6.8875 -6.7085 -8.494 
-18.4105 -13.1698 -12.3319 -12.9974 -17.9116 -15.9621 -18.2632 -16.7059 -13.8452 -11.845 -10.4505 -8.152 -9.9175 
-19.08 -16.8567 -15.6338 -20.3865 -20.2571 -22.0843 -21.7564 -19.3749 -15.4362 -14.9145 -11.7602 -11.5724 
-4.7265 0 -2.911 -1.756 -3.563 -3.585 -2.4945 -3.43 -2.3345 -2.988 -3.402 -2.264 -2.95 -4.6335 
-4.7265 -2.911 -5.0065 -5.2 -7.913001 -6.129001 -4.758 -4.5865 -6.114 -7.200001 -3.793 -5.0595 -6.129 
-8.1915 -5.0065 -8.5375 -9.799001 -10.688 -8.5825 -5.9025 -8.3465 -9.953501 -9.314001 -6.815001 -9.042 
-10.2865 -8.5375 -13.2579 -12.574 -13.1415 -9.887001 -10.204 -12.6874 -12.4383 -12.4622 -9.8625 
-13.8175 -13.2579 -16.0329 -15.0275 -14.446 -14.2633 -14.3777 -15.1722 -15.5865 -15.5097 
-4.0955 -3.432 -2.186 -3.563 -1.7565 -2.988 -3.669 -3.228 -3.394 -1.756 -2.3335 -2.95 -1.7565 -4.287 -1.7695 -3.855 0 
-8.726 -5.681 -6.7675 -7.444 -5.7405 -5.9675 -7.2795 -6.4595 -5.2495 -4.016 -4.8245 -4.3785 -5.798501 -6.2385 -4.6595 -3.855 
-11.32 -10.9887 -10.27 -10.634 -7.915 -9.06 -11.3086 -9.611 -8.3785 -7.2995 -6.2375 -8.333 -7.651501 -10.575 -4.6595 
-16.6277 -14.4912 -13.46 -12.8085 -11.5589 -14.5755 -14.4601 -12.8186 -11.9284 -8.8795 -11.1944 -10.341 -12.343 -10.575 
-20.1302 -17.6812 -15.6345 -16.4524 -17.0744 -17.727 -17.6677 -16.3685 -13.5084 -13.6444 -13.2024 -15.0325 -12.343 
-3.2615 -3.855 -3.4625 -3.777 -3.098 
-8.285001 -8.467501 -7.8735 -7.006001 
-13.3117 -13.3811 -11.5009 
-18.2253 -17.0085 
-21.8527 
