-4.759 
n/a 
n/a 
n/a 
n/a 
-4.759 
n/a 
n/a 
n/a 
n/a 
-4.759 
n/a 
n/a 
n/a 
n/a 
-4.759 
n/a 
n/a 
n/a 
n/a 
-1.934 -5.5315 0 -8.269501 -3.8675 -2.356 -4.088 -4.4565 -1.4985 -3.676 -1.7695 -1.4985 -3.5455 -3.4975 -4.418 0 
-6.7235 -5.5315 -8.269501 -12.6844 -5.006 -6.746 -8.4575 -5.6065 -6.125 -5.8305 -2.7955 -4.554 -4.936501 -6.838 -4.418 
-6.7235 -14.4006 -12.6844 -13.8229 -9.094501 -11.6979 -8.677 -9.867001 -8.384501 -6.936 -5.5335 -5.663 -6.88 -6.838 
-16.1616 -18.8155 -13.8229 -17.9114 -14.1776 -11.9174 -13.7681 -12.9907 -10.0125 -9.0745 -6.931 -9.507501 -6.88 
-20.5765 -19.954 -17.9114 -22.9945 -14.3971 -17.0085 -16.8918 -14.6187 -12.151 -10.4035 -11.0779 -9.507501 
-1.934 -5.5315 -4.088 -3.074 -3.7555 -2.3345 -3.676 
-6.7235 -9.295501 -7.4255 -5.929501 -6.8455 -6.6285 
-10.513 -12.6938 -10.078 -9.389501 -11.5581 
-13.9113 -15.3463 -13.7092 -14.1291 
-16.5638 -18.9775 -18.4488 
-1.4985 -3.8675 -3.43 -2.356 -4.088 -1.934 -1.4985 -3.158 -5.5315 0 -3.43 -3.676 -1.7695 -3.952 -1.7695 -3.5455 -3.75 -3.7575 
-4.976 -6.802 -5.161 -6.746 -5.923 -2.6125 -4.178 -8.316001 -5.5315 -3.43 -7.145 -5.8305 -4.6075 -4.9895 -5.643 -5.228001 -5.4685 
-7.7485 -7.8765 -9.5275 -8.085001 -6.5585 -5.265 -8.4855 -8.316001 -9.312 -7.145 -10.1225 -8.616 -5.602 -7.953 -7.514 -7.774501 
-8.620501 -12.7342 -10.398 -8.682501 -8.347501 -8.868501 -8.4855 -12.3381 -13.3526 -10.1225 -12.908 -9.62 -8.4405 -10.044 -10.194 
-13.6378 -13.6047 -10.9955 -10.6087 -12.1062 -8.868501 -12.6342 -16.3787 -16.3301 -12.908 -13.912 -12.4235 -10.467 -12.8414 
-1.4985 -7.437 -3.8675 -4.222 -2.356 -4.088 -1.934 -5.5315 -3.882 -4.172 -1.7695 -1.4985 -2.791 0 -3.4985 -1.934 -3.676 -2.229 -4.5555 -3.8195 
-9.126 -11.8147 -6.25 -5.972 -6.746 -5.923 -6.7235 -9.160001 -7.4325 -4.8625 -2.7955 -4.3645 -2.791 -3.4985 -5.373 -4.7985 -4.593 -6.735 -8.5035 
-13.7091 -14.1972 -7.509 -9.714001 -8.085001 -9.0765 -9.5935 -13.1513 -7.8995 -5.4245 -5.642 -4.3645 -7.231 -5.373 -8.17 -6.2055 -8.902 -10.553 
-16.0916 -15.4562 -11.372 -10.612 -11.4873 -12.1915 -13.8072 -13.6183 -8.3225 -8.6225 -5.642 -8.847 -9.226 -8.17 -9.748501 -9.7535 -13.111 
-17.3506 -19.3192 -12.27 -14.0143 -14.6023 -16.4052 -14.2742 -14.0413 -11.6305 -8.6225 -10.3155 -11.1636 -12.13 -9.748501 -13.5119 -14.0341 
