-4.759 
n/a 
n/a 
n/a 
n/a 
-4.759 
n/a 
n/a 
n/a 
n/a 
-4.759 
n/a 
n/a 
n/a 
n/a 
-4.759 
n/a 
n/a 
n/a 
n/a 
-3.488 -2.341 0 -1.4985 -4.628 -5.939 -3.5435 -6.0385 -2.5195 -1.4985 -3.522 -6.1495 -3.8675 
-5.562 -2.341 -1.4985 -6.298 -5.9615 -7.053 -8.4355 -6.583 -3.1695 -5.547501 -8.434 -7.3085 
-5.562 -4.3465 -6.298 -6.5895 -7.0565 -10.375 -9.381001 -7.144001 -6.8655 -8.692 -8.87 
-7.672 -9.4495 -6.5895 -7.161001 -10.3745 -11.8503 -9.802501 -11.5902 -10.1725 -9.059501 
-10.553 -9.745 -7.161001 -10.6738 -11.8498 -12.2718 -14.2487 -14.8972 -10.3 
-4.628 -6.739501 -3.5435 -1.7695 -3.935 -1.4985 -3.8275 -3.488 -2.341 -2.5045 -3.522 
-10.6215 -10.929 -5.157001 -4.6555 -5.08 -4.726 -7.8225 -5.562 -5.3645 -7.266001 
-14.811 -12.5425 -7.3275 -5.519001 -6.765 -8.852001 -9.697001 -7.271 -10.1805 
-16.4245 -14.713 -8.005 -7.311501 -10.66 -10.6605 -11.4978 -13.2124 
-18.595 -15.3905 -9.5895 -11.5313 -12.4685 -12.4613 -17.4392 
-3.488 -2.341 0 -3.522 -4.628 -5.939 -3.5435 -3.251 -5.2645 -2.5195 -1.4985 -3.8675 -2.264 -4.241 0 
-5.562 -2.341 -3.522 -8.288 -5.9615 -7.053 -6.0535 -7.117001 -6.094 -3.1695 -4.976 -5.5115 -6.4585 -4.241 
-5.562 -5.677 -8.288 -9.736 -7.0565 -9.099 -9.125501 -7.696001 -6.4725 -7.2025 -6.4835 -8.885 -6.4585 
-7.335001 -10.6706 -9.736 -10.831 -9.108001 -12.1776 -10.0195 -8.002501 -9.530001 -8.807 -9.878 -8.885 
-12.7918 -12.1186 -10.831 -12.8825 -12.1888 -13.0716 -10.3535 -10.749 -11.1701 -12.2423 -9.878 
-4.628 -4.743 -5.9715 -3.935 -6.2155 -3.8675 -1.934 -1.4985 -3.218 -1.7565 -4.255 -3.488 0 -3.522 0 
-4.7515 -11.9573 -11.0145 -10.335 -10.841 -5.6555 -2.6125 -4.475 -4.3535 -6.324501 -7.104 -3.488 -3.522 -3.522 
-12.0606 -17.0003 -17.4145 -14.9605 -12.629 -6.286 -6.754 -4.8355 -8.934 -9.2615 -7.104 -5.533 -3.522 
-17.1036 -23.4003 -22.04 -16.7485 -13.2595 -11.2249 -7.825 -10.264 -10.6605 -9.2615 -9.106501 -5.533 
-23.5036 -28.0258 -23.828 -17.379 -18.1984 -12.2959 -13.3747 -11.9905 -10.6605 -11.2916 -9.106501 
