-4.759 
n/a 
n/a 
n/a 
n/a 
-4.759 
n/a 
n/a 
n/a 
n/a 
-4.759 
n/a 
n/a 
n/a 
n/a 
-4.759 
n/a 
n/a 
n/a 
n/a 
-3.8735 -2.229 -4.502 -1.934 -5.582 -1.756 -6.5105 -2.186 -3.642 -8.752001 -1.934 -1.4985 -3.6445 -1.7565 -4.0165 -15.58622 
-5.3655 -5.9355 -6.137001 -7.051 -7.009 -8.200001 -8.804001 -4.8635 -10.703 -10.181 -2.6125 -4.4795 -4.775001 -5.574 -19.75382 
-8.462501 -7.5635 -11.9918 -8.198 -9.189 -10.66 -11.6337 -12.5555 -12.132 -11.0657 -4.8345 -5.062 -8.2805 -22.43802 
-9.241 -13.4233 -13.1388 -10.733 -11.7592 -13.4897 -19.3257 -13.9845 -13.0167 -13.2877 -5.2075 -8.321501 -25.46172 
-15.633 -14.5703 -15.6738 -13.3032 -14.5889 -21.1817 -20.7547 -14.8692 -15.2387 -13.6607 -8.3795 -25.98082 
-1.934 -4.0775 -7.5885 0 -4.317 0 -3.074 -3.994 -3.959 -3.794 -3.074 -3.849 0 -6.658 0 -1.934 -1.4985 -4.401 -1.7565 -3.959 
-6.7195 -12.7172 -7.5885 -4.317 -4.317 -3.074 -8.1145 -7.3035 -7.8485 -6.918 -5.417 -3.849 -6.658 -6.658 -1.934 -2.6125 -5.646501 -5.5075 -5.672 
-15.926 -12.7172 -10.802 -4.317 -8.883501 -8.1145 -10.7495 -11.6524 -11.5309 -9.0725 -5.417 -10.249 -6.658 -8.615001 -2.6125 -7.3335 -5.8205 -8.512 
-15.926 -15.9307 -10.802 -8.883501 -14.0492 -10.7495 -15.0984 -15.3348 -13.6854 -9.0725 -12.047 -10.249 -8.615001 -9.6745 -7.3335 -7.8365 -8.817 
-19.1395 -15.9307 -15.3685 -14.0492 -16.6842 -15.0984 -18.7808 -17.4893 -13.6854 -16.5823 -12.047 -12.206 -9.6745 -14.3955 -7.8365 -10.9664 
-3.634 -3.4795 -3.8735 -3.849 0 -9.1955 0 
-6.447001 -7.8935 -7.9915 -3.849 -9.1955 -9.1955 
-10.2485 -12.7025 -7.9915 -13.2051 -9.1955 
-15.2237 -12.7025 -17.462 -13.2051 
-15.2237 -22.173 -17.462 
-1.934 -3.634 -3.5215 -3.8735 -2.8645 -3.1125 -4.793 -3.8175 -4.442 -1.934 -1.4985 -3.502 -4.317 -5.612 -4.281 -4.317 -1.756 -1.4985 -6.5105 -3.9205 -2.5045 -4.0165 -3.4165 -4.0715 0 
-4.9425 -6.0365 -6.778 -6.143 -3.5345 -7.219 -9.196001 -6.759501 -6.0365 -2.6125 -4.5955 -5.926 -8.6215 -9.780001 -8.689 -5.9925 -3.0405 -7.431001 -11.591 -4.449 -6.482 -6.8985 -5.354 -4.0715 
-6.212501 -9.434 -9.192 -7.0795 -7.625 -12.1714 -12.283 -7.3075 -6.6495 -5.258 -6.791 -10.022 -12.9309 -14.5972 -10.7565 -7.9965 -8.893001 -13.1041 -12.1195 -8.4175 -9.1815 -7.1955 -5.354 
-9.6745 -9.8815 -10.0715 -10.298 -12.8536 -15.2584 -12.831 -8.5365 -10.2035 -7.5705 -11.4672 -14.2314 -17.7481 -16.6647 -12.7605 -14.3406 -14.6593 -13.6326 -16.088 -11.2688 -9.791 -7.1955 
-9.983001 -10.8092 -13.29 -15.3286 -15.9406 -15.8064 -14.06 -12.4239 -12.516 -12.7717 -15.6766 -19.0486 -19.8156 -18.6687 -19.1046 -20.1069 -15.1878 -17.6011 -18.9393 -11.8783 -9.791 
