-4.759 
n/a 
n/a 
n/a 
n/a 
-4.759 
n/a 
n/a 
n/a 
n/a 
-4.759 
n/a 
n/a 
n/a 
n/a 
-4.759 
n/a 
n/a 
n/a 
n/a 
-1.934 -10.7895 -2.9805 -2.186 -4.129 -4.5005 -4.243 -2.356 -3.4975 -4.257 0 
-13.7299 -14.0248 -4.1635 -5.694 -8.644001 -6.863501 -6.229 -5.9325 -6.978001 -4.257 
-16.9652 -15.2078 -6.9215 -10.199 -8.721001 -9.35 -10.2335 -9.554001 -6.978001 
-18.1482 -17.9658 -10.586 -10.256 -10.0925 -13.3837 -13.855 -9.554001 
-20.9062 -21.6303 -10.6285 -11.8243 -14.1642 -17.0052 -13.855 
-18.064 -4.303 -4.211 -2.356 -3.4975 -9.195001 -3.515 
-21.4005 -7.0955 -7.012 -5.9325 -14.1829 -10.4945 
-23.7112 -8.3655 -10.411 -17.1315 -15.4824 
-24.1817 -11.9377 -21.9348 -18.431 
-27.8615 -23.4615 -23.2343 
-3.997 -4.25 -3.986 -4.129 -4.211 -2.356 -3.4975 -4.795 -1.934 -10.0865 0 
-7.34 -7.924 -7.758 -6.7395 -7.012 -5.9325 -6.322001 -5.838 -13.0269 -10.0865 
-9.969501 -12.2012 -9.124001 -7.933001 -10.411 -8.087 -7.222 -17.8845 -13.0269 
-14.6507 -13.5672 -9.696 -11.7828 -10.6865 -8.698501 -19.7899 -17.8845 
-16.0167 -14.1392 -14.0414 -12.0583 -11.298 -21.4874 -19.7899 
-18.064 -4.4605 -4.211 -2.356 -3.4975 -4.744 -1.934 -5.043 0 
-21.045 -7.5235 -7.012 -5.9325 -6.277 -6.0035 -7.22 -5.043 
-23.2127 -8.421 -10.411 -8.2805 -7.360001 -10.0965 -7.22 
-23.8567 -12.3298 -13.0838 -9.267501 -11.9218 -10.0965 
-27.9139 -15.0026 -14.0708 -13.8347 -11.9218 
