-4.759 
n/a 
n/a 
n/a 
n/a 
-4.759 
n/a 
n/a 
n/a 
n/a 
-4.759 
n/a 
n/a 
n/a 
n/a 
-4.759 
n/a 
n/a 
n/a 
n/a 
-2.925 -2.4945 -5.2015 -1.934 -3.502 -3.8875 -1.7565 -5.952 0 -6.5 -4.7995 0 -1.756 -1.4985 -3.8185 -4.225 -4.299 0 
-3.7675 -8.101 -6.793 -4.8155 -5.6375 -6.536 -8.081 -5.952 -6.5 -8.836 -4.7995 -1.756 -3.0405 -5.757501 -9.1905 -8.172501 -4.299 
-9.863001 -9.4425 -9.857 -6.9925 -8.892 -13.3277 -8.081 -13.305 -8.836 -8.836 -5.776 -3.0405 -6.959 -11.7839 -13.5098 -8.172501 
-11.2621 -12.6483 -12.07 -10.1465 -15.9299 -13.3277 -15.7188 -15.641 -8.836 -10.0855 -7.0845 -6.959 -13.797 -16.1032 -13.5098 
-14.4679 -14.8613 -15.224 -17.3312 -15.9299 -20.9655 -18.0548 -15.641 -10.0855 -10.766 -11.4096 -13.797 -18.1163 -16.1032 
-1.7695 -3.2345 -1.4985 -4.299 -2.0935 -3.502 -4.675 -1.7565 -4.7995 -3.115 -5.952 -1.756 -3.619 
-3.713 -4.328 -5.463 -6.611 -5.7505 -5.8475 -6.019 -6.4515 -7.781001 -8.4965 -7.648 -4.907001 
-4.717 -8.1755 -7.788 -10.485 -8.149 -7.085 -10.341 -9.0895 -13.6047 -9.5845 -11.329 
-8.413 -10.341 -11.9126 -12.8835 -10.647 -11.8976 -12.979 -15.041 -14.6927 -13.3089 
-10.4105 -14.66 -14.3111 -15.3815 -15.4596 -14.5356 -18.9305 -16.129 -18.4171 
-2.925 -5.198 -2.5195 -5.123 -4.87 -3.936 -1.4985 -6.5 -1.756 -7.5075 -4.7995 0 
-7.008 -7.2495 -6.84 -9.906 -9.803501 -4.263 -7.5205 -8.133 -9.2305 -9.887501 -4.7995 
-9.227501 -12.3614 -12.471 -14.9217 -10.0075 -9.242001 -8.67 -10.111 -9.9515 -9.887501 
-14.333 -17.9924 -17.4867 -15.1257 -15.0821 -10.276 -10.451 -10.395 -9.9515 
-19.964 -23.0081 -17.6907 -20.2003 -16.1161 -12.377 -10.557 -10.395 
-3.766 -4.225 -4.299 -2.7415 -3.8535 -2.3345 -1.4985 -4.795 -2.5195 -1.4985 -3.502 -1.7565 -1.4985 -4.7995 -8.620001 -1.756 -6.5 
-5.6175 -8.172501 -6.4115 -5.279 -5.069 -3.233 -5.712 -6.3345 -3.1695 -4.5955 -5.0575 -2.4195 -6.0515 -14.3807 -10.533 -8.209 
-9.633501 -10.5308 -8.967001 -6.214 -5.785 -7.546 -7.6975 -7.0615 -5.887 -5.911 -5.629 -6.8455 -16.2387 -16.2937 -16.986 
-12.0896 -13.0863 -9.462501 -6.9805 -9.8415 -9.3785 -8.336 -8.639 -7.2865 -6.445 -9.5745 -17.0867 -18.1517 -22.7467 
-14.6451 -13.5818 -10.312 -10.702 -11.674 -9.933001 -10.1295 -10.167 -8.069 -10.6195 -19.9503 -18.9997 -24.6047 
