-4.759 
n/a 
n/a 
n/a 
n/a 
-4.759 
n/a 
n/a 
n/a 
n/a 
-4.759 
n/a 
n/a 
n/a 
n/a 
-4.759 
n/a 
n/a 
n/a 
n/a 
-1.934 -2.3335 -4.4935 -3.8315 0 -3.0365 -2.186 -1.8085 -3.319 -1.934 -2.9705 -1.4985 -5.409 -2.186 -5.456 -1.934 -1.4985 -4.5995 0 
-4.359 -7.028001 -5.732 -3.8315 -3.0365 -3.66 -3.164 -5.18 -5.132 -4.051 -4.186 -6.511001 -7.2535 -6.487 -7.042 -2.6125 -5.408 -4.5995 
-9.545501 -8.165001 -5.732 -7.160001 -3.66 -4.218 -6.125 -7.275001 -7.3225 -4.6815 -8.6415 -8.081 -8.5845 -7.864 -7.4445 -6.122001 -5.408 
-10.7529 -8.165001 -8.7845 -7.740001 -4.218 -7.634 -8.742001 -8.52 -7.803 -8.962001 -9.458501 -9.421 -10.586 -8.205 -10.7175 -6.122001 
-10.7529 -12.0141 -9.271501 -8.407001 -7.634 -9.366501 -9.5675 -9.111501 -12.3077 -9.640501 -10.4775 -11.1581 -10.927 -11.6334 -10.7175 
-5.7645 -4.1455 -2.4285 -4.1285 -7.439 -3.423 -2.489 -1.8085 -3.355 -1.7565 -4.4935 -5.633 0 
-10.0415 -6.164001 -6.1615 -10.2755 -10.4035 -4.122 -3.799 -4.6195 -3.725 -5.791 -8.235001 -5.633 
-12.06 -6.2325 -12.7385 -13.24 -10.7455 -5.2815 -5.4845 -4.725 -8.743501 -9.6485 -8.235001 
-12.1285 -12.9153 -15.703 -13.582 -11.905 -7.515501 -5.498 -9.816 -12.9418 -9.6485 
-18.8113 -15.8798 -16.045 -14.7415 -14.139 -7.547 -10.8922 -14.1065 -12.9418 
-4.821 -2.4285 -5.3465 -2.7765 -2.489 -2.871 -4.6875 -1.7565 -3.8315 -3.3255 -4.5995 
-8.035501 -7.655 -8.633 -3.495 -4.988 -6.047 -4.9665 -5.5375 -7.610001 -8.295501 
-9.447001 -11.4605 -9.363001 -6.219501 -8.467501 -6.2005 -8.5155 -9.063001 -12.9656 
-13.2965 -12.1905 -12.2555 -9.7805 -8.554501 -9.986501 -12.3344 -14.5448 
-14.0265 -15.083 -15.8165 -9.859 -12.4219 -13.9342 -17.8162 
-5.7645 -1.7565 -1.4985 -7.2215 -5.3095 -2.882 -2.489 -1.8085 -3.355 -1.7565 -4.4935 -3.8315 0 
-7.873 -2.4195 -8.076501 -9.3935 -7.539001 -3.631 -3.799 -4.6195 -3.725 -5.791 -5.732 -3.8315 
-8.6485 -8.7985 -10.4265 -11.7028 -7.911 -5.078 -5.4845 -4.725 -8.743501 -7.55 -5.732 
-10.6605 -10.634 -12.9866 -12.0748 -9.974501 -7.4365 -5.498 -9.816 -10.2485 -7.55 
-10.6965 -13.5263 -13.3586 -14.1383 -12.4306 -7.476 -10.8922 -11.4132 -10.2485 
