-4.759 
n/a 
n/a 
n/a 
n/a 
-4.759 
n/a 
n/a 
n/a 
n/a 
-4.759 
n/a 
n/a 
n/a 
n/a 
-4.759 
n/a 
n/a 
n/a 
n/a 
-1.934 -1.4985 -3.8275 0 -3.454 -3.748 -3.152 -5.228 -1.756 -4.19 0 
-2.6125 -4.726 -3.8275 -3.454 -5.8255 -6.534 -6.564 -6.4125 -6.14 -4.19 
-5.815001 -4.726 -8.0625 -5.8255 -8.7725 -9.522 -7.582 -8.215 -6.14 
-5.815001 -9.0555 -10.298 -8.7725 -11.9847 -10.229 -10.3095 -8.215 
-10.3345 -11.4298 -13.4174 -11.9847 -12.6917 -12.9565 -10.3095 
-3.454 -3.748 -3.1385 -3.152 -4.874 -1.934 -1.4985 -3.8275 0 
-5.8255 -5.326 -5.219 -6.21 -5.694 -2.6125 -4.726 -3.8275 
-7.1625 -6.9915 -6.9205 -6.877 -6.5475 -5.815001 -4.726 
-8.815001 -8.9525 -7.5585 -7.266 -8.697001 -5.815001 
-11.3004 -9.3465 -7.919001 -9.9125 -8.697001 
-3.454 -4.5445 -4.9225 -4.874 -1.756 -4.19 
-8.124001 -9.6455 -10.2535 -6.231 -6.14 
-13.1562 -15.0271 -11.6105 -8.453501 
-18.5378 -16.3841 -13.833 
-19.8948 -18.6066 
-2.7455 -7.912 -3.1385 -3.152 -5.228 -1.756 -3.966 -2.985 -4.221 0 
-9.564501 -9.4665 -5.219 -6.564 -6.4125 -5.662 -5.648 -5.038 -4.221 
-10.5055 -11.6978 -7.465 -7.582 -8.825001 -7.485 -6.4445 -5.038 
-12.7368 -13.9438 -8.7065 -10.609 -10.964 -8.355 -6.4445 
-14.9828 -15.1853 -11.9291 -12.748 -11.834 -8.355 
