-4.759 
n/a 
n/a 
n/a 
n/a 
-4.759 
n/a 
n/a 
n/a 
n/a 
-4.759 
n/a 
n/a 
n/a 
n/a 
-4.759 
n/a 
n/a 
n/a 
n/a 
-2.6165 -3.115 -1.4985 -4.0135 -1.7565 -3.814 -3.8825 -5.195 -3.7155 0 -2.6165 -4.8685 -2.264 -3.6605 -3.518 -3.432 -3.307 -3.2895 0 -3.1335 -4.285 -1.756 -3.8255 -1.4985 -4.28 -1.7695 -3.5185 -3.4945 -1.4985 -3.0785 -1.7565 -4.6835 -2.4945 -1.4985 -4.493 -2.7415 -3.768 -1.7695 -3.613 -3.4945 -2.9995 -4.8925 0 
-5.172501 -4.2305 -4.9935 -4.201 -5.58 -5.7485 -9.4205 -8.965 -3.7155 -2.6165 -6.042 -4.9965 -5.641 -6.3815 -7.834 -7.802001 -8.328001 -3.2895 -3.1335 -6.021 -5.501 -5.3525 -4.982 -5.4615 -5.027 -4.134 -7.8125 -4.538 -4.779 -5.1815 -6.454 -6.5495 -3.9315 -6.179501 -7.8765 -5.849 -4.5885 -4.563 -7.9115 -4.9185 -7.8505 -4.8925 
-6.021 -6.898 -5.101 -8.623501 -7.398 -12.4777 -13.1529 -8.965 -6.5975 -6.042 -6.128 -8.651501 -8.584001 -10.7595 -12.6436 -13.3222 -8.328001 -7.173501 -6.021 -7.102 -9.632 -6.446 -8.573501 -6.8125 -7.2345 -8.231501 -8.77 -6.552001 -5.2205 -10.3032 -8.5895 -8.1945 -8.3065 -9.4515 -11.4518 -6.26 -7.7195 -8.440001 -9.092501 -8.8815 -7.8505 
-8.9685 -7.023 -9.679501 -10.7595 -14.537 -16.2101 -13.1529 -11.998 -10.941 -6.128 -9.7375 -11.6779 -13.009 -15.5691 -18.1638 -13.3222 -12.6302 -10.802 -7.102 -11.751 -10.555 -10.1675 -9.518001 -8.566001 -11.9788 -9.0895 -10.265 -6.597001 -10.384 -12.4387 -10.2695 -12.7275 -12.2113 -13.1144 -11.8628 -9.506001 -10.7595 -9.628 -13.3751 -8.8815 
-9.152 -11.9137 -11.9387 -17.8985 -18.2694 -16.2101 -16.1859 -16.3415 -11.027 -9.7375 -12.7933 -16.1029 -17.8186 -21.0893 -18.1638 -17.6244 -16.2587 -11.883 -11.751 -12.674 -14.2765 -11.0082 -11.3303 -13.4779 -12.8368 -10.674 -10.308 -12.0425 -12.5195 -14.1187 -14.8025 -16.6323 -15.8742 -13.5254 -15.1088 -12.6378 -11.9475 -14.0526 -13.3751 
-6.5925 -1.7565 -5.195 -3.7155 -3.2895 0 -4.2635 -1.756 -3.737 -1.7695 -4.267 0 
-9.834001 -6.8015 -8.965 -8.4705 -3.2895 -4.2635 -5.381001 -5.2025 -6.3935 -6.4535 -4.267 
-14.8274 -10.3745 -13.871 -8.4705 -9.6905 -5.381001 -8.771 -8.772 -10.7495 -6.4535 
-18.4004 -15.2805 -13.871 -15.4765 -11.0614 -8.771 -12.8889 -13.2458 -10.7495 
-23.3064 -15.2805 -20.877 -16.8474 -14.4514 -12.8889 -17.3627 -13.2458 
-4.7625 -1.4985 -6.9085 0 -3.6605 -3.16 -3.4405 -5.651501 -4.8685 -2.4265 -4.066 -3.768 -2.3335 -3.4605 -4.2485 -1.756 -4.149 -2.7765 -3.5185 -2.985 -4.2115 -1.756 -3.586 -3.277 -3.4945 -4.4305 0 
-5.4475 -8.2445 -6.9085 -3.6605 -6.741 -7.2255 -9.1385 -8.76 -8.1665 -4.728 -9.4795 -5.204 -6.411 -7.9605 -5.445001 -5.8485 -6.147 -4.8785 -5.8985 -6.1915 -5.4895 -5.8625 -7.162001 -6.071 -7.377 -4.4305 
-12.2659 -8.2445 -10.5975 -6.741 -11.7181 -11.8358 -12.7635 -13.719 -10.8406 -10.4505 -10.9369 -10.586 -10.476 -9.385 -7.8395 -7.7025 -8.4355 -6.9945 -9.159 -7.172 -9.4715 -7.875 -9.832001 -9.3065 -7.377 
-12.2659 -12.2423 -13.678 -11.7181 -16.3284 -14.8758 -13.9653 -15.7929 -16.5631 -12.1047 -16.3189 -14.651 -11.9005 -11.9323 -9.828001 -10.115 -9.114 -10.7848 -10.156 -10.476 -10.704 -10.354 -13.1387 -9.3065 
-16.2637 -15.3228 -18.6551 -16.3284 -19.3684 -18.7025 -17.2508 -21.5154 -18.2173 -17.4867 -20.3839 -16.0755 -14.4478 -13.9208 -12.2405 -10.9495 -13.3111 -11.7818 -13.46 -11.7085 -13.183 -13.8847 -13.1387 
-3.188 -4.0005 -3.5025 -2.186 -4.5775 -3.4625 -2.5195 -5.195 -3.7155 -2.4265 -2.186 -3.768 -1.7695 -3.1715 -1.4985 -4.21 -1.7565 -3.889 -3.4945 -3.09 -4.651 -1.756 -4.149 0 
-4.969501 -7.4095 -5.481 -5.434 -8.487 -5.227 -7.736501 -8.965 -6.326 -3.292 -4.7835 -4.5885 -4.257 -4.8205 -5.410501 -5.086 -6.060501 -7.063001 -7.98 -6.6925 -5.9355 -5.8485 -4.149 
-7.6695 -9.814501 -8.744 -10.1821 -10.8505 -10.6735 -11.6799 -11.7265 -7.024 -4.9545 -5.1875 -6.449 -5.579 -7.97 -5.9475 -9.1525 -9.1975 -12.3869 -11.9315 -8.125501 -9.2215 -5.8485 
-9.975 -13.2199 -13.8025 -12.5456 -16.297 -14.6169 -14.4414 -12.4245 -8.574 -5.2125 -7.221 -7.658 -8.7095 -9.647 -10.275 -12.5027 -14.76 -16.3384 -13.3645 -10.6215 -9.2215 
-13.4196 -18.2784 -16.166 -17.9921 -20.2404 -17.3784 -15.1394 -13.9745 -8.75 -7.242 -8.496 -11.0985 -10.159 -14.0949 -13.6252 -18.0652 -18.7115 -17.7714 -15.8605 -10.6215 
