-4.759 
n/a 
n/a 
n/a 
n/a 
-4.759 
n/a 
n/a 
n/a 
n/a 
-4.759 
n/a 
n/a 
n/a 
n/a 
-4.759 
n/a 
n/a 
n/a 
n/a 
-1.934 -3.882 -3.277 -3.769 -2.674 -3.793 -3.594 -6.39 -3.098 -1.7565 -12.16972 0 
-5.7955 -6.1265 -7.491 -5.428 -6.2535 -6.645 -10.1685 -9.177 -4.3615 -14.87542 -12.16972 
-6.487 -9.9305 -8.407001 -8.603001 -8.3255 -13.8789 -12.9555 -9.235001 -18.12882 -14.87542 
-10.1545 -10.8465 -11.7636 -10.586 -15.9342 -16.6659 -13.0135 -23.03612 -18.12882 
-11.0705 -14.2031 -13.7466 -18.1947 -18.7212 -16.7239 -26.81462 -23.03612 
-3.2615 -8.214001 -3.135 -2.8965 -2.229 -4.0385 -3.594 -1.934 -1.4985 -3.098 -1.7565 -8.214001 
-12.5891 -11.9078 -4.9085 -5.469 -6.785 -7.545001 -5.379 -2.6125 -4.3095 -4.3615 -9.435 
-16.2829 -13.6813 -8.3345 -10.375 -10.7175 -8.9755 -6.1 -5.285501 -4.5915 -12.6884 
-18.0564 -17.1073 -13.4521 -14.3075 -12.148 -9.7425 -8.8535 -5.3625 -13.1812 
-21.4824 -22.2249 -17.3846 -15.738 -12.915 -12.5474 -8.866501 -14.1198 
-3.2615 -3.135 -3.4795 -3.393 -3.2955 -8.55 -3.098 -1.756 -4.0385 -3.135 -3.594 0 
-5.675 -6.0235 -4.3425 -7.633 -12.9853 -12.111 -4.558 -5.9955 -6.593 -6.491 -3.594 
-7.691 -7.1505 -8.574 -17.3008 -16.5463 -13.571 -8.8535 -7.857 -8.8395 -6.491 
-9.166 -12.1466 -18.384 -20.8618 -18.0063 -17.8665 -10.7185 -9.943001 -8.8395 
-14.1621 -21.9566 -21.945 -22.3218 -22.3018 -19.7315 -12.8045 -9.943001 
-3.2615 -3.135 -3.8405 -4.87 -2.8645 -3.881 -3.135 -3.594 -1.934 -1.4985 -3.098 -1.7565 -8.214001 
-5.675 -6.777 -9.4055 -6.521501 -5.4695 -6.8575 -6.491 -5.379 -2.6125 -4.3095 -4.3615 -9.435 
-7.6965 -13.2276 -11.0822 -8.883 -7.5055 -8.845 -8.043501 -6.1 -5.285501 -4.5915 -12.6884 
-14.7231 -14.9043 -13.4437 -10.459 -9.3365 -10.115 -8.425 -8.8535 -5.3625 -13.1812 
-16.3998 -17.2658 -15.0197 -12.29 -10.3105 -10.7121 -11.5063 -8.866501 -14.1198 
