-4.759 
n/a 
n/a 
n/a 
n/a 
-4.759 
n/a 
n/a 
n/a 
n/a 
-4.759 
n/a 
n/a 
n/a 
n/a 
-4.759 
n/a 
n/a 
n/a 
n/a 
-2.0935 -2.645 -3.234 -4.0585 -1.4985 -4.278 -2.229 -4.7715 -3.8685 -1.756 -3.213 0 
-3.883 -5.8725 -6.382501 -4.7185 -6.1565 -6.414001 -7.4635 -6.862 -5.283 -4.9205 -3.213 
-7.415 -9.561001 -7.528501 -9.731001 -8.5145 -8.661001 -9.102501 -7.965 -8.244 -4.9205 
-11.6953 -10.715 -13.1784 -12.0652 -11.0637 -12.227 -10.143 -11.173 -8.244 
-12.8493 -16.3649 -15.5126 -14.6144 -14.6297 -13.2675 -13.351 -11.173 
-3.234 -3.669 -1.7695 -4.0585 -1.4985 -5.1845 -4.278 -3.84 -1.756 -3.8185 0 
-6.521501 -4.958 -4.6165 -4.7185 -6.5205 -9.206501 -8.786001 -4.8045 -5.2035 -3.8185 
-8.4565 -9.345501 -5.2205 -10.0715 -10.304 -13.9329 -9.776001 -8.311001 -5.2035 
-13.584 -9.7735 -10.513 -13.855 -15.0304 -14.9229 -13.4017 -8.311001 
-14.012 -15.1716 -14.2965 -18.5814 -16.0204 -18.5486 -13.4017 
-3.818 0 -3.234 -4.0585 -1.4985 -5.1845 -4.278 -3.6705 -3.4945 -2.9995 -6.577 -1.756 -3.685 
-3.818 -3.234 -6.382501 -4.7185 -6.5205 -9.206501 -9.269001 -6.790501 -4.9185 -8.454 -7.5885 -5.691 
-7.0555 -6.382501 -7.528501 -10.0715 -10.304 -14.4159 -12.5478 -7.923501 -9.762 -9.8105 -11.8957 
-9.599001 -7.528501 -13.5189 -13.855 -15.5134 -17.6947 -13.6808 -13.185 -11.2671 -14.3213 
-10.5765 -13.5189 -17.3024 -19.0644 -18.7922 -18.8277 -18.9423 -14.6901 -15.7779 
-1.756 0 -3.234 -4.0585 -1.4985 -7.245 -1.7565 -1.4985 -4.278 -1.756 -2.9645 -2.4265 0 
-1.756 -3.234 -6.382501 -4.7185 -8.3085 -7.9865 -2.4195 -6.1565 -6.202001 -4.5175 -4.692 -2.4265 
-5.6575 -6.382501 -7.528501 -12.3389 -8.394501 -8.870501 -7.375 -8.336 -9.410001 -5.739 -4.692 
-8.221001 -7.528501 -15.7863 -12.4249 -9.094001 -14.0638 -9.316 -11.3948 -9.701501 -5.739 
-9.7075 -15.7863 -15.8723 -13.1244 -14.3831 -16.0048 -12.4766 -11.6863 -9.701501 
