-4.759 
n/a 
n/a 
n/a 
n/a 
-4.759 
n/a 
n/a 
n/a 
n/a 
-4.759 
n/a 
n/a 
n/a 
n/a 
-4.759 
n/a 
n/a 
n/a 
n/a 
-5.9085 -4.257 -1.934 -3.0835 -2.95 -4.0655 -1.7695 -5.7715 -2.356 -3.976 -4.2605 -3.43 -3.277 -4.0205 -1.756 -4.4725 -1.4985 -7.1875 0 -2.9705 -2.186 -4.6805 -4.5295 -3.4425 -2.186 -4.3285 -2.3345 -3.277 0 
-9.807 -6 -5.331 -4.3945 -7.403 -4.4155 -6.198501 -8.536 -6.396501 -8.999001 -7.662001 -5.7705 -7.381001 -5.399 -5.7595 -5.712 -8.5535 -7.1875 -2.9705 -3.89 -7.503 -6.064 -7.143 -5.194 -5.4465 -5.082 -5.5635 -3.277 
-11.5998 -9.29 -7.054 -9.012001 -7.5965 -8.202001 -8.963 -12.7461 -12.0095 -12.5969 -9.528001 -8.7755 -8.1675 -8.84 -6.7895 -13.0846 -8.5535 -9.878501 -3.89 -9.225 -8.834001 -8.360001 -8.658 -7.9615 -5.6895 -8.509501 -5.5635 
-14.8898 -11.6696 -12.2181 -9.118501 -11.8892 -11.0527 -13.2517 -18.3591 -15.6074 -14.4629 -12.6176 -9.462501 -11.8631 -9.799001 -14.3317 -13.0846 -11.8225 -10.9222 -9.225 -10.6594 -11.5326 -10.233 -11.6425 -8.405001 -9.614 -8.509501 
-17.2694 -16.8337 -12.3246 -13.8288 -14.7399 -15.3414 -18.8647 -21.957 -17.4734 -17.5525 -13.3046 -13.2059 -12.8221 -17.386 -14.3317 -16.3536 -12.8662 -16.2572 -10.6594 -13.358 -13.4056 -13.2175 -12.086 -12.8143 -9.614 
-5.198 -3.515 -3.0835 -2.95 -3.6615 -2.9805 -4.763 -1.7695 -5.867 -3.9555 -3.7095 -1.7565 -4.668 -1.7695 -7.1875 0 
-9.355501 -6.714 -4.3945 -6.585 -6.867001 -7.928501 -6.6185 -9.024 -10.985 -8.869 -4.7465 -6.981501 -6.565001 -8.837 -7.1875 
-13.0629 -8.853001 -9.019001 -10.061 -12.3164 -10.2755 -14.3158 -14.1582 -15.8985 -9.786501 -10.6361 -10.485 -13.9195 -8.837 
-15.2019 -13.7367 -12.8116 -15.5104 -14.6634 -18.318 -19.45 -19.0717 -16.816 -16.3803 -14.1396 -17.8395 -13.9195 
-20.0856 -17.5293 -18.261 -17.8574 -22.7059 -23.4522 -24.3635 -19.9892 -23.4098 -19.8838 -21.4941 -17.8395 
-4.5785 -3.6505 -3.9665 -4.9385 -3.873 -3.0835 -2.95 -1.756 -4.668 -3.7085 -2.925 -4.348 -1.756 -2.645 -4.692 -4.4165 -7.1875 -3.873 0 
-7.245 -7.437 -8.574501 -9.035001 -7.495 -4.3945 -4.287 -6.4145 -9.220501 -4.8545 -7.989 -5.634 -3.898 -6.4095 -8.193501 -12.8448 -11.7377 -3.873 
-8.623501 -12.497 -12.8252 -12.809 -9.2535 -5.915 -9.2775 -10.733 -10.6969 -10.757 -9.161 -8.313 -8.18 -10.4425 -17.1708 -17.395 -11.7377 
-14.0161 -16.7477 -16.5992 -14.5675 -11.1098 -11.6867 -13.6848 -12.2094 -16.5994 -11.929 -11.962 -12.8768 -12.2632 -19.4198 -21.721 -17.395 
-18.2668 -20.5217 -18.3577 -16.4238 -16.8815 -16.094 -15.1612 -18.1119 -17.7714 -14.73 -16.5258 -16.96 -21.2405 -23.97 -21.721 
-5.368 -4.348 -2.0935 -1.4985 -3.0835 -2.95 -5.314 -1.4985 -4.8925 0 -3.818 -5.4865 -2.985 -4.8925 0 -1.756 -3.7085 -2.356 -3.321 0 -1.4985 -4.6805 -4.263 -8.8255 -2.4945 -3.4625 -6.468 
-8.148001 -6.2925 -2.9725 -3.535 -4.3945 -8.5085 -5.823 -5.535501 -4.8925 -3.818 -6.976 -7.28 -6.9315 -4.8925 -1.756 -4.9635 -6.823501 -6.504001 -3.321 -1.4985 -5.881001 -8.1485 -13.9927 -11.9374 -4.7105 -8.372 
-10.4035 -7.022 -4.594501 -4.569 -9.646501 -9.089001 -10.76 -5.535501 -8.314001 -6.976 -8.779 -11.8091 -6.9315 -5.9635 -4.9635 -7.922 -11.7157 -6.504001 -4.481 -5.881001 -8.838501 -18.4666 -17.1046 -14.1534 -8.7535 
-11.133 -8.315001 -4.791 -9.8985 -10.3245 -14.133 -10.76 -8.9075 -11.7706 -8.779 -13.5505 -11.8091 -7.909501 -9.061501 -7.922 -13.2382 -11.7157 -7.807001 -8.9445 -8.838501 -19.2308 -21.5785 -19.3206 -18.1964 
-12.426 -8.3645 -9.928 -10.332 -15.3685 -14.133 -14.132 -12.5865 -13.5736 -13.5505 -13.5505 -12.7871 -10.597 -12.1662 -13.2382 -13.2382 -13.0187 -12.4163 -12.066 -19.2308 -22.3427 -23.7945 -23.3636 
