-4.759 
n/a 
n/a 
n/a 
n/a 
-4.759 
n/a 
n/a 
n/a 
n/a 
-4.759 
n/a 
n/a 
n/a 
n/a 
-4.759 
n/a 
n/a 
n/a 
n/a 
-3.17 -1.7565 -1.4985 -7.395 -4.6095 -2.4945 -4.197 -4.877 -1.756 -4.3185 -1.8085 -5.116 -2.4285 -1.8085 -4.1385 -1.934 -3.1435 -3.307 0 
-4.179 -2.4195 -7.940001 -9.343 -6.597001 -7.2225 -7.1555 -6.4425 -6.0635 -5.34 -6.101 -7.369 -4.126 -5.866 -5.713 -4.335 -6.557 -3.307 
-4.497 -8.349501 -9.989 -11.5795 -11.8852 -8.876 -8.711 -9.456 -7.081501 -10.368 -8.3375 -8.926001 -8.061001 -7.119 -8.2395 -7.5065 -6.557 
-10.963 -10.5425 -12.3825 -16.8677 -13.5387 -9.669001 -11.8555 -9.999001 -12.4381 -12.6045 -9.275001 -12.9444 -9.5775 -9.299001 -11.6962 -7.5065 
-13.156 -13.2796 -17.6707 -18.5212 -14.3317 -12.8979 -12.3985 -15.8472 -14.6746 -13.542 -13.336 -14.4609 -11.9021 -13.0075 -11.6962 
-3.17 -8.337001 -4.4075 0 -2.742 -2.489 -3.115 -2.664 -4.197 -4.238 -3.4905 0 -5.2915 -2.4285 -2.871 -3.335 -4.6995 -3.458 -2.925 -2.4945 -4.3725 0 
-13.02 -13.1987 -4.4075 -2.742 -3.301 -5.344501 -5.1145 -8.577 -6.0785 -7.841001 -3.4905 -5.2915 -7.5265 -5.3155 -6.334 -8.337001 -8.489 -7.501501 -3.7675 -5.572001 -4.3725 
-17.8817 -13.1987 -7.106501 -3.301 -6.2835 -7.437 -11.4331 -10.5535 -10.5225 -7.841001 -7.9095 -7.5265 -10.0125 -9.311001 -11.9742 -12.2815 -12.7747 -8.363001 -6.7275 -5.572001 
-17.8817 -15.8977 -7.695001 -6.2835 -8.348001 -13.9238 -13.4096 -14.9975 -10.5225 -12.644 -10.107 -10.0125 -14.197 -15.3056 -15.9187 -16.5672 -13.6362 -11.428 -6.7275 
-20.5807 -16.4862 -10.7595 -8.348001 -14.9666 -15.9003 -17.8536 -14.9975 -15.3255 -14.8415 -13.2322 -14.197 -20.1916 -19.2501 -20.2044 -17.4287 -16.7012 -11.428 
-3.17 -1.7565 -1.4985 -4.7875 -4.4075 -2.4945 -3.858 -4.197 -4.877 -2.356 -5.3315 -2.4285 -4.1385 -1.934 -3.1435 -3.307 0 
-4.179 -2.4195 -5.610001 -10.8544 -6.529 -5.428 -8.1705 -7.1555 -6.9725 -8.311001 -7.869 -7.1355 -5.713 -4.335 -6.557 -3.307 
-4.497 -6.185501 -12.2489 -12.9759 -9.5865 -9.31 -10.3225 -8.871 -13.3785 -11.3259 -13.0132 -8.890501 -8.2395 -7.5065 -6.557 
-8.5675 -13.1232 -14.3704 -16.0334 -13.5463 -11.6846 -12.9048 -15.4724 -16.3934 -16.4701 -14.7682 -11.7032 -11.6962 -7.5065 
-15.8424 -15.2447 -17.4279 -19.9932 -15.9209 -14.2669 -19.5062 -18.4873 -21.5376 -18.2251 -17.5809 -15.1599 -11.6962 
-3.17 -1.7565 -1.4985 -8.337001 -4.0005 -2.186 -3.858 -4.197 -4.877 -2.4285 -2.882 -4.0935 -3.858 -5.3315 -1.934 -1.4985 -3.307 -2.4285 -2.9995 -3.768 0 
-4.179 -2.4195 -9.344001 -10.5435 -6.187 -5.3095 -8.1705 -7.1555 -7.110001 -5.089 -8.0255 -7.188 -9.943001 -7.044 -2.6125 -4.581 -5.815001 -4.345 -7.848001 -3.768 
-4.497 -9.953501 -11.8027 -12.73 -10.022 -9.2655 -10.3225 -9.422501 -9.915501 -10.9681 -10.061 -14.0088 -11.7123 -7.584 -5.476501 -7.127 -7.749001 -9.779501 -7.848001 
-12.567 -12.538 -13.9892 -16.565 -13.978 -11.8737 -10.3855 -12.4236 -16.257 -13.0036 -17.921 -15.7781 -12.2523 -9.835501 -7.897 -9.210501 -13.5679 -9.779501 
-15.1515 -14.7245 -17.8242 -20.521 -16.5862 -11.9367 -13.712 -18.7651 -18.2925 -20.8636 -19.6903 -16.3181 -14.5038 -12.3512 -10.3955 -14.9672 -13.5679 
