-4.759 
n/a 
n/a 
n/a 
n/a 
-4.759 
n/a 
n/a 
n/a 
n/a 
-4.759 
n/a 
n/a 
n/a 
n/a 
-4.759 
n/a 
n/a 
n/a 
n/a 
-10.24 -3.881 -1.934 -4.79 -4.153 -3.074 -11.0905 -3.991 -2.4945 -4.6505 -1.934 -10.24 
-14.121 -5.05 -7.1915 -6.2405 -7.396001 -15.1649 -15.0815 -5.612 -6.1425 -5.5835 -13.1804 
-15.29 -10.1635 -8.014501 -9.316501 -19.8127 -19.1559 -16.7025 -8.283001 -6.5565 -17.6473 
-20.4035 -10.2555 -11.4859 -21.7986 -23.8037 -20.7769 -19.3735 -8.634501 -19.0333 
-20.4955 -13.7269 -23.968 -25.7896 -25.4247 -23.4479 -19.725 -21.2853 
-1.934 -4.79 -1.7565 -7.9525 -10.24 -2.186 -4.928 -2.0935 -12.16972 -3.3755 -2.7455 -2.4265 0 
-7.1915 -6.676001 -10.688 -18.5479 -12.426 -6.273001 -6.693501 -15.25422 -15.54522 -6.328 -4.4735 -2.4265 
-9.747001 -17.0543 -21.2834 -20.7339 -16.513 -8.505001 -20.98122 -18.62972 -18.49772 -7.773 -4.4735 
-20.1465 -27.6497 -23.4694 -24.8209 -18.745 -23.23592 -24.35672 -21.58222 -19.94272 -7.773 
-30.7419 -29.8357 -27.5564 -27.0529 -33.47592 -26.61142 -27.30922 -23.02722 -19.94272 
-1.934 -5.976501 -4.153 -10.24 -2.8645 -3.881 -1.934 -9.753 -2.4265 -2.7765 -4.394 -4.4155 
-7.932 -6.703001 -15.2756 -13.1045 -5.4695 -5.05 -10.7175 -12.2959 -4.346 -6.384501 -7.7245 
-8.1295 -18.2454 -18.1401 -15.7095 -7.369 -14.7409 -13.2604 -14.2154 -8 -11.12 
-20.1777 -21.1099 -20.7451 -17.609 -17.5957 -17.2838 -15.1799 -17.8694 -13.0335 
-23.0422 -23.7149 -22.6446 -27.8357 -20.1386 -19.2033 -18.8339 -22.9029 
-3.062 -4.184 -4.153 -3.594 -4.394 -2.5195 -11.0905 -4.2915 0 
-6.092 -5.8855 -7.3655 -8.5585 -7.0295 -14.2836 -15.382 -4.2915 
-7.556 -9.323 -12.9378 -11.336 -19.3878 -18.5751 -15.382 
-11.1511 -15.0703 -15.7153 -23.6943 -23.6793 -18.5751 
-16.8984 -17.8478 -28.0736 -27.9858 -23.6793 
