-4.759 
n/a 
n/a 
n/a 
n/a 
-4.759 
n/a 
n/a 
n/a 
n/a 
-4.759 
n/a 
n/a 
n/a 
n/a 
-4.759 
n/a 
n/a 
n/a 
n/a 
-3.8655 0 -3.691 0 -7.206 0 -4.1985 0 -4.422 -3.8745 0 -9.4475 0 -3.502 -4.28 0 -3.5455 -4.28 0 -5.936 -12.16972 -7.565001 0 -3.9465 0 -12.16972 0 -8.844001 0 -4.034 0 -3.9885 0 -7.1985 0 -9.123 0 -4.6445 0 -9.023001 0 -4.2815 0 -9.8905 0 -4.348 0 -4.4465 -1.756 -3.676 -2.4945 -1.4985 -3.959 -2.9705 -4.098 -1.4985 -9.267501 -4.828 -2.915 
-3.8655 -3.691 -3.691 -7.206 -7.206 -4.1985 -4.1985 -4.422 -5.133501 -3.8745 -9.4475 -9.4475 -3.502 -4.844 -4.28 -3.5455 -5.0385 -4.28 -5.936 -18.98472 -19.73472 -7.565001 -3.9465 -3.9465 -12.16972 -12.16972 -8.844001 -8.844001 -4.034 -4.034 -3.9885 -3.9885 -7.1985 -7.1985 -9.123 -9.123 -4.6445 -4.6445 -9.023001 -9.023001 -4.2815 -4.2815 -9.8905 -9.8905 -4.348 -4.348 -4.4465 -6.102 -5.918 -6.278 -3.9315 -5.5 -6.136 -6.415501 -5.173 -9.792 -11.136 -8.654 
-5.532001 -3.691 -11.8288 -7.206 -11.9511 -4.1985 -7.697001 -5.133501 -5.133501 -14.8304 -9.4475 -13.9575 -4.844 -4.844 -5.6915 -5.0385 -5.0385 -10.884 -18.98472 -26.54972 -19.73472 -11.9071 -3.9465 -16.97542 -12.16972 -21.01372 -8.844001 -11.1415 -4.034 -6.1245 -3.9885 -11.08 -7.1985 -18.2509 -9.123 -14.1253 -4.6445 -14.7665 -9.023001 -13.6465 -4.2815 -15.119 -9.8905 -14.7255 -4.348 -6.4805 -6.102 -9.579 -7.7635 -7.745501 -7.638 -7.304501 -10.5535 -7.620501 -14.1689 -11.7099 -14.962 
-5.532001 -11.8288 -11.8288 -11.9511 -11.9511 -7.697001 -8.403 -5.133501 -17.823 -14.8304 -13.9575 -15.2995 -4.844 -6.6695 -5.7875 -5.0385 -12.5899 -23.93272 -26.54972 -26.54972 -24.07682 -11.9071 -16.97542 -16.97542 -21.01372 -21.01372 -11.1415 -11.1415 -6.1245 -6.1245 -11.08 -11.08 -18.2509 -18.2509 -14.1253 -14.1253 -14.7665 -14.7665 -13.6465 -13.6465 -15.119 -15.119 -14.7255 -14.7255 -6.4805 -7.5825 -9.579 -11.5397 -9.161 -10.287 -8.887501 -11.956 -11.7585 -16.8226 -16.0868 -15.5359 
-15.6454 -11.8288 -16.5739 -11.9511 -15.4496 -8.403 -8.403 -17.823 -17.823 -19.3404 -15.2995 -15.2995 -6.6695 -6.8155 -5.7875 -12.5899 -25.63862 -31.49772 -26.54972 -30.89182 -24.07682 -24.93602 -16.97542 -25.81942 -21.01372 -23.31122 -11.1415 -13.232 -6.1245 -15.0868 -11.08 -22.1324 -18.2509 -23.2532 -14.1253 -24.2473 -14.7665 -19.39 -13.6465 -24.484 -15.119 -19.954 -14.7255 -16.858 -7.5825 -12.0747 -11.5397 -12.9372 -11.8567 -11.5365 -13.8482 -13.161 -20.9606 -18.7405 -19.9128 
-3.8655 0 -10.897 0 -9.5885 0 -6.537 -3.8745 0 -8.636001 0 -3.502 -7.835001 0 -3.5455 -7.835001 0 -12.16972 0 -12.16972 0 -7.565001 0 -3.9465 0 -12.16972 0 -4.474 0 -4.034 0 -8.837001 0 -9.583 0 -12.16972 0 -4.6445 0 -12.16972 0 -4.2815 0 -8.265 0 -4.348 0 -4.4465 0 -1.756 -3.676 -2.4945 -1.4985 -3.499 -1.7565 -1.4985 -3.307 0 
-3.8655 -11.8288 -11.8288 -9.5885 -9.5885 -6.537 -11.5301 -3.8745 -8.636001 -8.636001 -3.502 -9.6175 -7.835001 -3.5455 -9.747001 -7.835001 -12.16972 -12.16972 -12.16972 -12.16972 -7.565001 -7.565001 -3.9465 -3.9465 -12.16972 -12.16972 -4.474 -4.474 -4.034 -4.034 -8.837001 -8.837001 -9.583 -9.583 -12.16972 -12.16972 -4.6445 -4.6445 -12.16972 -12.16972 -4.2815 -4.2815 -8.265 -8.265 -4.348 -4.348 -4.4465 -4.4465 -1.756 -5.918 -6.278 -3.9315 -4.967 -4.306 -2.4195 -4.581 -3.307 
-15.6454 -11.8288 -21.9639 -9.5885 -16.2631 -11.5301 -11.5301 -14.0189 -8.636001 -12.861 -9.6175 -9.6175 -11.0145 -9.747001 -9.747001 -20.43492 -12.16972 -24.33944 -12.16972 -19.73472 -7.565001 -11.9071 -3.9465 -16.97542 -12.16972 -16.64372 -4.474 -6.19 -4.034 -13.753 -8.837001 -19.207 -9.583 -21.92612 -12.16972 -16.81422 -4.6445 -17.91322 -12.16972 -16.45122 -4.2815 -13.4935 -8.265 -13.3992 -4.348 -6.4805 -4.4465 -6.102 -5.918 -7.7635 -7.745501 -7.0765 -5.2225 -4.5175 -5.5135 -4.581 
-15.6454 -21.9639 -21.9639 -16.2631 -21.2562 -11.5301 -21.6745 -14.0189 -12.861 -18.9765 -9.6175 -13.0804 -17.216 -9.747001 -22.63492 -20.43492 -24.33944 -24.33944 -19.73472 -19.73472 -11.9071 -11.9071 -16.97542 -16.97542 -16.64372 -16.64372 -6.19 -6.19 -13.753 -13.753 -19.207 -19.207 -21.92612 -21.92612 -16.81422 -16.81422 -17.91322 -17.91322 -16.45122 -16.45122 -13.4935 -13.4935 -13.3992 -13.3992 -6.4805 -6.4805 -6.102 -9.579 -7.7635 -9.161 -10.6095 -7.165 -5.4195 -7.7665 -5.5135 
-25.7805 -21.9639 -28.6385 -21.2562 -21.2562 -21.6745 -21.6745 -18.2439 -18.9765 -18.9765 -13.0804 -19.2819 -17.216 -22.63492 -22.63492 -32.60464 -24.33944 -31.90444 -19.73472 -24.07682 -11.9071 -24.93602 -16.97542 -21.44942 -16.64372 -18.35972 -6.19 -17.7192 -13.753 -24.123 -19.207 -31.55012 -21.92612 -26.57062 -16.81422 -30.08294 -17.91322 -22.19472 -16.45122 -25.66322 -13.4935 -18.6277 -13.3992 -15.5317 -6.4805 -7.5825 -9.579 -11.5397 -9.161 -12.1792 -10.6295 -7.3535 -8.7075 -7.7665 
-3.8655 0 -3.691 0 -7.7005 0 -4.1985 0 -4.422 -3.8745 0 -12.16972 0 -3.502 -4.28 0 -3.5455 -4.28 0 -5.936 0 -12.16972 0 -8.373 0 -3.9465 0 -12.16972 0 -4.474 0 -4.034 0 -3.9885 0 -8.151 0 -4.6445 0 -7.152 0 -4.2815 0 -8.265 0 -4.348 0 -4.4465 -1.756 -3.676 -2.4945 -1.4985 -3.959 -3.8935 -1.4985 -5.3085 -4.191 
-3.8655 -3.691 -3.691 -7.7005 -7.7005 -4.1985 -4.1985 -4.422 -5.133501 -3.8745 -12.16972 -12.16972 -3.502 -4.844 -4.28 -3.5455 -5.0385 -4.28 -5.936 -5.936 -12.16972 -12.16972 -8.373 -8.373 -3.9465 -3.9465 -12.16972 -12.16972 -4.474 -4.474 -4.034 -4.034 -3.9885 -3.9885 -8.151 -8.151 -4.6445 -4.6445 -7.152 -7.152 -4.2815 -4.2815 -8.265 -8.265 -4.348 -4.348 -4.4465 -6.102 -5.918 -6.278 -3.9315 -5.5 -7.882 -5.0685 -6.114 -6.580501 
-5.532001 -3.691 -12.3233 -7.7005 -12.2876 -4.1985 -7.697001 -5.133501 -5.133501 -17.55262 -12.16972 -15.67172 -4.844 -4.844 -5.6915 -5.0385 -5.0385 -10.884 -5.936 -18.98472 -12.16972 -20.54272 -8.373 -12.8061 -3.9465 -16.97542 -12.16972 -16.64372 -4.474 -6.19 -4.034 -6.1245 -3.9885 -13.1843 -8.151 -13.3051 -4.6445 -7.9915 -7.152 -8.988501 -4.2815 -13.4935 -8.265 -13.3992 -4.348 -6.4805 -6.102 -9.579 -7.7635 -7.745501 -7.638 -9.828 -9.044001 -10.4115 -7.836501 
-5.532001 -12.3233 -12.3233 -12.2876 -12.2876 -7.697001 -8.403 -5.133501 -20.54522 -17.55262 -15.67172 -17.01372 -4.844 -6.6695 -5.7875 -5.0385 -12.5899 -10.884 -18.98472 -18.98472 -20.54272 -20.54272 -12.8061 -12.8061 -16.97542 -16.97542 -16.64372 -16.64372 -6.19 -6.19 -6.1245 -6.1245 -13.1843 -13.1843 -13.3051 -13.3051 -7.9915 -7.9915 -8.988501 -8.988501 -13.4935 -13.4935 -13.3992 -13.3992 -6.4805 -7.5825 -9.579 -11.5397 -9.161 -10.287 -12.3674 -10.763 -14.5026 -12.134 
-16.1399 -12.3233 -16.9104 -12.2876 -15.7861 -8.403 -8.403 -20.54522 -20.54522 -21.05462 -17.01372 -17.01372 -6.6695 -6.8155 -5.7875 -12.5899 -12.5899 -23.93272 -18.98472 -27.35772 -20.54272 -24.97582 -12.8061 -25.83502 -16.97542 -21.44942 -16.64372 -18.35972 -6.19 -8.081 -6.1245 -17.1911 -13.1843 -18.3384 -13.3051 -16.6521 -7.9915 -11.646 -8.988501 -19.4287 -13.4935 -18.6277 -13.3992 -15.5317 -7.5825 -12.0747 -11.5397 -12.9372 -11.8567 -15.0164 -13.3024 -16.2216 -16.2251 
-3.8655 0 -3.691 0 -4.592 0 -4.685 0 -4.422 -3.8375 0 -4.4805 -4.6675 0 -3.502 -4.28 0 -3.5455 -4.28 0 -4.763 0 -7.4485 0 -7.239 0 -3.9465 0 -6.965 -3.6415 -4.474 0 -4.034 0 -3.9885 0 -2.688 -4.247 0 -12.16972 0 -4.6445 0 -4.5275 -4.2815 0 -4.7 0 -4.348 0 -4.4465 -1.756 -3.676 -2.4945 -1.4985 -3.959 -2.9705 -2.742 -4.6665 -5.3085 -4.191 -3.9495 
-3.8655 -3.691 -3.691 -4.592 -4.592 -4.685 -4.685 -4.422 -6.837001 -3.8375 -4.4805 -4.682 -4.6675 -3.502 -4.844 -4.28 -3.5455 -5.0385 -4.28 -4.763 -4.763 -7.4485 -7.4485 -7.239 -7.239 -3.9465 -3.9465 -6.965 -11.4323 -9.6335 -4.474 -4.034 -4.034 -3.9885 -3.9885 -2.688 -4.249001 -4.247 -12.16972 -12.16972 -4.6445 -4.6445 -4.5275 -6.847 -4.2815 -4.7 -4.7 -4.348 -4.348 -4.4465 -6.102 -5.918 -6.278 -3.9315 -5.5 -6.136 -4.601501 -8.771501 -10.1185 -6.580501 -6.4575 
-5.532001 -3.691 -5.8005 -4.592 -6.0065 -4.685 -6.634501 -6.837001 -6.837001 -7.0935 -4.682 -4.682 -7.689 -4.844 -4.844 -5.6915 -5.0385 -5.0385 -8.355 -4.763 -8.3415 -7.4485 -15.5865 -7.239 -10.9315 -3.9465 -10.9315 -11.4323 -17.4243 -9.6335 -6.19 -4.034 -6.1245 -3.9885 -4.886 -4.249001 -4.249001 -17.54252 -12.16972 -16.81422 -4.6445 -4.9955 -6.847 -6.847 -7.2675 -4.7 -7.309 -4.348 -6.4805 -6.102 -9.579 -7.7635 -7.745501 -7.638 -7.304501 -7.8235 -11.4012 -14.3507 -10.7555 -9.863001 
-5.532001 -5.8005 -5.8005 -6.0065 -6.0065 -6.634501 -8.296 -6.837001 -7.513 -7.1045 -4.682 -7.6915 -9.502501 -4.844 -6.6695 -5.7875 -5.0385 -9.986 -8.355 -8.3415 -8.3415 -15.5865 -15.5865 -10.9315 -10.9315 -10.9315 -15.3988 -17.4243 -17.4243 -11.3495 -6.19 -6.1245 -6.1245 -4.886 -5.6825 -4.249001 -17.58192 -17.54252 -16.81422 -16.81422 -4.9955 -7.82 -6.847 -9.117001 -7.2675 -7.309 -7.309 -6.4805 -7.5825 -9.579 -11.5397 -9.161 -10.287 -8.887501 -9.065001 -14.8322 -16.9804 -14.9877 -14.038 
-7.567 -5.8005 -6.9145 -6.0065 -8.089 -8.296 -8.296 -7.513 -7.517001 -7.1045 -7.6915 -9.505501 -9.502501 -6.6695 -6.8155 -5.7875 -9.986 -9.986 -12.5275 -8.3415 -18.2259 -15.5865 -19.279 -10.9315 -17.9165 -15.3988 -21.3908 -17.4243 -19.1403 -11.3495 -8.081 -6.1245 -7.025001 -5.6825 -5.6825 -17.58192 -17.58192 -22.18702 -16.81422 -17.16522 -7.82 -7.82 -9.117001 -9.117001 -8.286 -7.309 -9.7755 -7.5825 -12.0747 -11.5397 -12.9372 -11.8567 -11.5365 -10.9572 -16.2571 -20.4114 -17.6174 -18.2702 
