-4.759 
n/a 
n/a 
n/a 
n/a 
-4.759 
n/a 
n/a 
n/a 
n/a 
-4.759 
n/a 
n/a 
n/a 
n/a 
-4.759 
n/a 
n/a 
n/a 
n/a 
-3.4225 -3.468 -1.7565 -3.676 0 -4.251 -3.4225 -3.468 0 -5.214 0 
-3.628 -4.7385 -4.4345 -3.676 -4.251 -8.095 -3.628 -3.468 -3.482 -3.482 
-5.001 -5.0245 -4.4345 -8.102 -8.095 -8.249001 -3.628 -6.1995 -3.482 
-5.036 -5.0245 -8.954 -12.1812 -8.249001 -8.249001 -6.231 -6.1995 
-5.036 -9.136001 -13.4086 -12.3352 -8.249001 -11.93 -6.231 
-3.4225 -3.468 -1.7565 -3.676 -2.4285 -4.7935 -5.214 0 
-3.628 -4.7385 -4.4345 -6.1955 -7.347001 -9.814001 -3.482 
-5.001 -5.0245 -6.8325 -12.069 -12.9501 -9.976001 
-5.036 -7.079 -13.4204 -17.6721 -12.9501 
-7.085 -14.3193 -19.0235 -17.6721 
-3.4225 -3.468 -1.7565 -3.676 0 -4.7935 -3.849 -3.4225 -3.468 0 -5.214 
-3.628 -4.7385 -4.4345 -3.676 -4.7935 -6.2965 -7.817 -3.628 -3.468 -3.482 
-5.001 -5.0245 -4.4345 -8.599001 -6.2965 -10.5051 -8.484501 -3.628 -6.1995 
-5.036 -5.0245 -8.861001 -9.336 -10.5051 -11.1726 -8.484501 -6.231 
-5.036 -9.0065 -9.589001 -14.2034 -11.1726 -11.1726 -11.3927 
-3.4225 -3.468 -1.7565 -3.676 0 -4.251 -3.4225 -4.4175 0 -5.214 
-3.628 -4.7385 -4.4345 -3.676 -4.251 -8.095 -7.318 -4.4175 -3.482 
-5.001 -5.0245 -4.4345 -8.102 -8.095 -12.4079 -7.318 -8.322001 
-5.036 -5.0245 -8.954 -12.1812 -12.4079 -12.4079 -9.438001 
-5.036 -9.136001 -13.4086 -16.4941 -12.4079 -14.5279 
