-4.759 
n/a 
n/a 
n/a 
n/a 
-4.759 
n/a 
n/a 
n/a 
n/a 
-4.759 
n/a 
n/a 
n/a 
n/a 
-4.759 
n/a 
n/a 
n/a 
n/a 
-1.4985 -4.677 -1.7565 -4.3055 -21.92572 -2.186 -4.99 -1.934 -8.958501 0 -6.204 -5.447 0 
-5.4395 -5.666 -6.1225 -27.33782 -24.65432 -5.502 -5.477 -11.8989 -8.958501 -6.204 -6.238501 -5.447 
-6.02 -8.251 -29.61902 -30.06642 -27.97032 -5.947001 -16.1645 -11.8989 -15.6499 -6.238501 -6.238501 
-8.722501 -32.31852 -32.34762 -33.38242 -28.41532 -16.7399 -16.1645 -18.5903 -15.6844 -6.238501 
-32.78302 -35.04712 -35.66362 -33.82742 -39.20822 -16.7399 -22.8559 -18.6248 -15.6844 
-10.136 -12.16972 0 -8.958501 0 -6.204 -5.447 0 
-22.53472 -12.16972 -8.958501 -8.958501 -6.204 -6.238501 -5.447 
-22.53472 -21.12822 -8.958501 -15.6499 -6.238501 -6.238501 
-31.49322 -21.12822 -15.6499 -15.6844 -6.238501 
-31.49322 -27.81962 -15.6844 -15.6844 
-8.958501 -21.12822 0 -6.204 -5.447 0 
-30.57412 -21.12822 -6.204 -6.238501 -5.447 
-30.57412 -27.81962 -6.238501 -6.238501 
-37.26552 -27.85412 -6.238501 
-37.30002 -27.85412 
-5.585 -5.4685 -12.16972 0 -10.707 0 -6.204 -5.447 0 
-11.9483 -18.35762 -12.16972 -10.707 -10.707 -6.204 -6.238501 -5.447 
-24.83742 -18.35762 -22.87672 -10.707 -16.911 -6.238501 -6.238501 
-24.83742 -29.06462 -22.87672 -16.911 -16.9455 -6.238501 
-35.54442 -29.06462 -29.08072 -16.9455 -16.9455 
