-4.759 
n/a 
n/a 
n/a 
n/a 
-4.759 
n/a 
n/a 
n/a 
n/a 
-4.759 
n/a 
n/a 
n/a 
n/a 
-4.759 
n/a 
n/a 
n/a 
n/a 
-2.264 -1.4985 -3.502 -3.355 -3.3715 -3.1385 -3.152 -4.024 -2.356 -3.8675 0 -1.934 -5.648 -1.756 -5.6305 -3.1385 -4.368 -1.7695 -7.6945 -3.152 -2.3615 -3.319 -3.098 
-2.9195 -4.5955 -7.241 -7.6315 -4.712501 -5.219 -5.7885 -6.2375 -7.2445 -3.8675 -1.934 -7.493001 -7.7705 -8.109 -9.7095 -7.802001 -5.5235 -9.448501 -10.884 -6.5585 -4.9575 -6.8415 
-5.75 -7.432 -11.9547 -8.796 -6.542 -8.005 -7.954 -11.98 -7.2445 -5.6555 -7.493001 -8.481501 -9.7255 -12.6 -14.4284 -9.286501 -13.6551 -12.813 -14.2905 -9.2895 -8.567 
-8.573501 -12.6151 -13.1192 -10.7257 -9.406501 -10.7335 -13.8149 -11.98 -9.13 -12.1583 -8.481501 -10.6237 -14.7827 -17.3189 -15.9129 -17.4607 -17.0196 -16.2195 -17.0215 -13.0186 
-14.1316 -13.7796 -15.0489 -13.5902 -12.1262 -16.5944 -13.8149 -13.8655 -15.675 -13.1468 -10.6237 -15.6809 -19.5016 -18.8034 -24.0871 -20.8252 -20.4261 -18.9505 -20.7506 
-3.3715 -2.688 -7.9965 -3.319 0 -4.015 -1.934 -1.4985 -3.502 -3.892 -2.4945 -4.044 -3.402 -4.1645 -3.458 -6.9545 -1.756 -5.6305 -2.871 -3.859 -1.7565 -3.1385 -5.7565 -1.934 -4.018 -3.892 -2.4945 -3.1495 -3.319 -1.7565 -3.1385 -3.098 0 -2.3345 -1.4985 -3.498 -1.7565 -2.3335 -4.153 -3.3715 -4.2125 -5.309 -2.4945 -4.0555 -3.0365 0 
-5.665501 -10.1 -12.0551 -3.319 -4.015 -6.139501 -2.6125 -4.5955 -6.717 -6.212501 -7.614501 -6.9785 -7.3395 -7.5655 -11.1847 -9.9785 -8.109 -9.3745 -5.348001 -5.23 -4.388 -7.9635 -7.5895 -5.5135 -7.643001 -6.212501 -5.377501 -6.5325 -4.165 -4.388 -6.344 -3.098 -2.3345 -3.233 -4.0295 -4.005 -4.314 -7.389 -7.083 -6.688001 -7.115 -7.1465 -8.481001 -7.014 -3.0365 
-13.7279 -14.3152 -12.0551 -9.003 -6.139501 -6.615 -5.258 -7.564 -9.425 -11.5559 -9.375001 -9.822001 -10.9873 -15.8076 -14.2087 -16.7111 -12.265 -12.0275 -5.528 -7.4705 -8.9525 -9.579 -11.6236 -10.0815 -10.004 -9.472 -8.952001 -6.6315 -6.8725 -7.738 -6.344 -5.214 -3.233 -5.098 -4.188 -6.2245 -7.798501 -10.01 -9.572001 -9.410501 -9.263 -13.4968 -11.5105 -7.014 
-17.9431 -14.3152 -17.7391 -11.3405 -6.615 -9.085 -7.887001 -9.718 -14.8992 -13.3164 -12.3423 -13.4698 -19.2294 -18.8316 -20.9413 -20.8671 -14.918 -12.2075 -7.7675 -12.6372 -10.76 -13.6499 -16.1916 -12.4425 -13.3459 -13.0691 -9.046 -8.1105 -10.218 -7.738 -8.198 -5.896 -5.098 -5.1255 -6.2885 -8.366501 -10.218 -12.4878 -12.5047 -11.6663 -15.7971 -16.5263 -11.5105 
-17.9431 -19.9992 -20.0766 -11.816 -9.085 -11.8644 -9.889001 -15.2702 -16.6597 -16.2837 -15.9901 -21.7119 -22.2534 -25.5642 -25.0973 -23.5201 -15.098 -14.447 -13.0878 -14.4447 -14.8309 -18.2179 -18.5526 -15.7844 -16.943 -13.1631 -10.329 -10.749 -10.218 -10.118 -9.584001 -8.444 -5.1255 -7.2375 -8.375001 -10.9026 -12.6958 -15.4205 -14.7605 -18.2004 -18.8266 -16.5263 
-3.6885 -2.688 -3.1385 -4.3235 -3.135 -5.309 -3.152 -4.024 -1.7695 -3.502 -3.892 -2.3345 -1.4985 -3.8675 -4.1175 -3.458 -5.648 -1.756 -5.6305 -3.1385 -3.0695 -3.152 -4.024 -1.7695 -7.896501 -1.934 -2.9705 -2.341 -2.3345 -2.461 -3.1385 -3.152 -1.7565 -2.3615 -4.0455 -3.098 -3.436 -1.4985 -5.309 -3.0465 -3.2295 -1.4985 -4.2125 -3.1385 -4.3195 -1.4985 -5.4535 -1.7565 -1.4985 -5.309 -3.1385 0 
-6.834001 -5.555 -6.759 -7.713 -7.904 -6.841 -5.7885 -4.5525 -5.535 -6.717 -6.1545 -3.233 -4.976 -8.620501 -7.254001 -8.570001 -7.7705 -8.109 -9.7095 -4.286 -4.8015 -5.7885 -4.5525 -10.181 -9.972501 -4.051 -6.715 -5.215 -5.5125 -5.666 -5.219 -5.8025 -3.523 -6.115 -7.292001 -7.009 -4.213 -6.3065 -8.3275 -5.547501 -3.844 -5.357 -6.7555 -6.974 -5.1515 -6.1595 -7.2425 -2.4195 -6.3065 -8.854 -3.1385 
-10.0874 -9.455501 -9.512501 -12.7614 -8.941501 -9.0585 -6.1485 -8.085501 -9.3325 -9.201 -7.293 -6.7935 -10.078 -11.765 -12.7364 -8.645 -9.7255 -12.6 -10.9124 -5.8625 -7.3865 -6.1485 -13.4626 -12.257 -12.0859 -7.674 -10.0855 -7.562 -7.2805 -8.298 -8.1745 -7.863 -7.241 -8.881001 -11.5344 -7.719 -9.3075 -9.190001 -10.2805 -6.447001 -8.182 -7.5065 -10.19 -8.409 -8.4335 -7.6095 -7.895 -7.093501 -10.0605 -8.854 
-13.9879 -12.1664 -14.5793 -13.7989 -11.3 -9.3335 -9.0445 -12.375 -11.9169 -9.899 -11.1097 -12.1989 -13.4137 -17.2474 -12.8114 -9.757001 -14.7827 -13.8029 -12.4889 -8.7255 -7.759501 -15.194 -15.5386 -14.3704 -15.7089 -11.1339 -12.4325 -9.806801 -10.9047 -11.4467 -10.1595 -10.233 -10.185 -13.2892 -12.2444 -12.9981 -12.284 -11.4192 -11.577 -11.0504 -10.688 -10.717 -11.625 -11.7566 -10.199 -8.109501 -12.8316 -10.9727 -10.0605 
-16.6988 -17.2332 -15.6168 -16.1574 -11.575 -12.3431 -13.4714 -14.9594 -12.6149 -13.8029 -16.5151 -15.5346 -18.8961 -17.3224 -13.9234 -14.9134 -15.9856 -15.3794 -15.3519 -9.082001 -16.9524 -17.27 -17.652 -17.9934 -19.1688 -13.4809 -14.6773 -13.431 -14.0534 -13.4317 -12.5295 -13.177 -14.5932 -13.9992 -17.5235 -15.9746 -14.5132 -12.7157 -16.1804 -13.5564 -13.8985 -12.152 -14.9726 -13.5221 -10.5505 -13.1315 -16.7108 -10.9727 
-3.849 -2.688 -5.5085 -4.3235 -1.7695 -3.502 -3.152 -4.024 -2.5045 -4.1645 -2.264 -1.4985 -4.1175 -1.7565 -1.4985 -3.8675 
-5.9145 -7.416501 -9.1155 -6.1985 -5.535 -7.285501 -5.7885 -6.181 -6.7415 -6.268001 -2.9195 -4.6915 -4.7545 -2.4195 -4.976 
-10.76 -10.459 -11.3567 -9.3795 -9.3955 -10.107 -7.976 -11.2396 -8.8575 -6.781 -4.9245 -4.851 -5.4205 -5.5525 
-13.8025 -12.7002 -14.5377 -13.4896 -12.2532 -12.4441 -13.1376 -13.3556 -9.2755 -8.359 -4.9575 -5.4755 -8.265 
-16.0437 -15.8812 -18.6478 -16.3473 -14.5903 -17.6057 -15.2536 -13.7736 -10.8437 -8.382 -5.606501 -8.295 
