-4.759 
n/a 
n/a 
n/a 
n/a 
-4.759 
n/a 
n/a 
n/a 
n/a 
-4.759 
n/a 
n/a 
n/a 
n/a 
-4.759 
n/a 
n/a 
n/a 
n/a 
-4.004 0 -3.1495 -3.4795 0 -3.6955 -2.9905 -1.7565 -2.985 -3.9775 -1.7695 -3.213 -1.756 -2.4945 -3.383 -4.6085 -2.7455 -2.985 -4.7175 -1.7565 -3.7865 -4.4705 -1.934 -1.4985 -3.158 -3.225 0 -3.279 0 -1.7565 -4.4785 -4.3665 -4.8855 -2.6165 -1.7695 -2.674 -3.5385 -2.3615 -2.7415 -1.8085 -3.3785 -4.17 0 
-4.004 -3.1495 -5.004 -3.4795 -3.6955 -5.013 -3.6185 -3.9355 -5.413 -5.81 -4.1345 -4.5875 -4.2725 -4.732 -5.803 -7.3615 -4.943 -7.2745 -5.1725 -5.1075 -7.082 -5.6755 -2.6125 -4.178 -5.5645 -3.225 -3.279 -3.279 -1.7565 -6.56 -8.702001 -8.331501 -6.106 -4.153 -3.8225 -5.8635 -6.114 -4.455 -3.891 -4.831 -6.757 -4.17 
-7.4065 -5.004 -5.004 -7.222 -5.013 -5.6435 -5.5065 -6.4505 -6.711 -8.601001 -5.6855 -6.8655 -6.35 -6.4385 -8.456 -8.738 -10.1675 -8.076 -5.8345 -7.565001 -7.8425 -6.644 -5.265 -6.5275 -5.5645 -6.421 -3.279 -5.815 -6.56 -9.192 -12.8682 -9.715 -6.115001 -5.8265 -6.48 -8.05 -7.7175 -5.248 -6.724 -7.005 -6.757 
-8.360001 -5.004 -8.117001 -8.898001 -5.6435 -7.283 -6.9405 -7.373 -8.974001 -9.920501 -7.903501 -8.702001 -8.058001 -9.178 -9.8915 -14.1447 -10.6274 -9.0425 -7.855 -7.9985 -9.2185 -9.74 -7.2915 -6.5275 -9.1695 -6.421 -5.815 -9.7705 -9.192 -13.6226 -14.2517 -9.731501 -7.782001 -7.622 -8.6415 -9.7225 -8.4785 -8.382 -8.873501 -7.005 
-8.360001 -8.117001 -9.876 -9.8545 -7.283 -8.7275 -8.286 -10.142 -10.048 -12.2087 -10.0635 -10.238 -10.717 -10.2705 -15.2982 -14.6046 -11.5939 -9.826 -8.212501 -9.465 -12.6739 -11.9005 -7.2915 -9.838 -9.1695 -8.910501 -9.7705 -12.4893 -13.6226 -15.0061 -14.2682 -11.4909 -8.8535 -9.624001 -10.074 -10.515 -11.7205 -10.7245 -8.873501 
-4.574 -2.4945 -3.9535 -9.049001 -1.934 -4.955 -2.985 -4.7175 -4.4705 0 -2.985 -3.4985 0 -1.4985 -3.17 -3.699 -4.68 -1.934 -3.676 -2.229 -3.9775 -2.4945 0 -3.279 0 -4.269 -2.4945 -3.8245 -3.4945 -3.8335 -1.934 -3.225 
-6.5325 -6.6715 -11.0465 -11.046 -6.272 -6.525001 -7.2745 -6.7215 -4.4705 -2.985 -5.424 -3.4985 -1.4985 -3.7115 -4.663 -8.955 -6.131001 -4.7985 -4.593 -6.2865 -5.936501 -2.4945 -3.279 -3.279 -4.269 -6.0385 -5.751 -6.611 -7.491 -5.6 -4.879 
-11.2705 -14.4987 -13.0435 -15.384 -7.638 -8.706501 -9.065001 -6.7215 -8.1025 -5.424 -5.424 -5.7885 -3.7115 -4.8395 -9.824 -10.1945 -9.995001 -6.2055 -8.183001 -7.824 -5.936501 -7.001501 -3.279 -7.955 -6.0385 -8.571 -8.163 -10.298 -8.957001 -9.113501 
-19.0977 -16.4957 -17.3815 -16.75 -10.025 -10.3225 -9.065001 -11.1409 -10.7845 -5.424 -7.0605 -7.714 -4.8395 -9.935 -11.0635 -14.1311 -11.4594 -9.063001 -9.828 -7.824 -10.575 -7.001501 -7.955 -10.298 -8.571 -11.3018 -12.3244 -12.0428 -12.8009 
-21.0947 -20.8337 -18.7475 -19.137 -11.6926 -10.3225 -13.668 -13.8229 -10.7845 -7.0605 -9.1875 -9.062 -9.935 -11.1745 -15.0001 -15.5955 -14.3169 -10.954 -9.828 -12.6415 -10.575 -9.828001 -10.298 -12.8305 -11.3018 -15.4632 -14.0692 -15.8867 
-3.1015 -1.8085 -3.193 -12.16972 -4.0225 -2.9905 -1.7565 -2.985 -2.8195 0 -4.0035 -2.985 -3.4985 0 -3.074 -3.937 -3.948 -3.5865 -4.4705 -1.756 -5.029 -3.4975 -4.326 -4.832 -1.934 -3.225 -3.468 -4.347 -2.7455 -3.279 0 -1.7565 -4.4785 -6.435 -4.928 -2.7415 -3.557 0 
-5.0505 -4.46 -16.38072 -16.19222 -5.2715 -3.6185 -3.9355 -5.347 -2.8195 -4.0035 -6.156 -5.424 -3.4985 -3.074 -6.669001 -7.441 -7.7365 -6.2815 -5.7325 -6.3895 -8.993501 -7.587501 -8.5105 -6.4335 -4.879 -7.6575 -7.509501 -8.092501 -6.653 -3.279 -1.7565 -6.56 -8.966501 -10.9575 -7.728001 -5.094501 -3.557 
-7.5835 -18.25072 -20.40322 -17.44122 -5.718 -5.5065 -6.396501 -5.347 -7.268001 -6.156 -8.35 -5.424 -7.093 -6.669001 -9.790501 -11.8009 -10.096 -7.4905 -11.352 -10.2535 -13.5199 -12.2626 -10.135 -9.3465 -8.920501 -12.2178 -11.6014 -12.4526 -6.653 -5.815 -6.56 -10.304 -13.7468 -13.7575 -9.589001 -5.094501 
-21.73562 -22.27322 -21.65222 -17.88772 -7.4875 -7.3915 -6.396501 -9.312 -9.312 -8.35 -8.35 -8.563001 -11.1796 -9.790501 -14.2372 -14.1604 -11.305 -13.4318 -15.216 -15.0373 -18.195 -13.8871 -13.1776 -13.4226 -13.605 -16.3097 -15.9615 -12.4526 -7.8605 -9.7705 -10.304 -15.2551 -16.5468 -15.6185 -9.589001 
-25.75812 -23.52222 -22.09872 -19.65722 -10.181 -7.3915 -10.442 -10.61 -11.709 -8.35 -11.6934 -12.8692 -14.3011 -14.2372 -16.5967 -15.3694 -17.2463 -17.2958 -19.9998 -19.7124 -19.8195 -16.9297 -17.2537 -18.1071 -17.6969 -20.6698 -15.9615 -13.6601 -12.3002 -13.6013 -15.2551 -18.0551 -18.4078 -15.6185 
-3.5485 0 -5.42 -4.4715 0 -4.685 -2.5195 -4.0225 -2.9905 -1.7565 -2.985 -4.4705 -1.756 -3.6705 0 -3.074 -5.029 -5.0915 -2.3345 -5.4565 -1.7695 -2.489 -4.082 -4.6385 -1.934 -3.4975 -3.8475 -4.326 -4.68 0 -1.934 -3.225 0 -3.279 0 -4.4785 -4.8045 -3.152 -6.435 -2.3615 -2.186 -1.8085 -3.8225 -5.179 
-3.5485 -5.42 -8.6845 -4.4715 -4.685 -5.093 -6.39 -5.2715 -3.6185 -3.9355 -6.290501 -5.575 -5.2025 -3.6705 -3.074 -8.0465 -9.6945 -8.164001 -7.650001 -7.481 -3.1405 -7.929 -7.629001 -6.39 -5.3805 -5.271 -8.4925 -7.768001 -4.68 -1.934 -4.879 -3.225 -3.279 -3.279 -4.4785 -6.0975 -7.2355 -8.155001 -9.1555 -3.5005 -3.164 -4.8095 -9.298 
-8.231001 -8.6845 -8.6845 -9.124001 -5.093 -9.189501 -7.5425 -5.718 -5.5065 -7.1245 -7.125 -9.1225 -5.2025 -7.3485 -8.0465 -13.348 -12.8828 -13.8061 -9.748501 -9.631001 -8.941001 -9.8585 -8.3765 -10.513 -6.761 -10.233 -12.3225 -7.768001 -6.131001 -4.879 -4.879 -6.421 -3.279 -8.036 -6.0975 -8.487 -10.485 -10.2865 -9.789001 -4.179 -5.723 -10.5745 
-11.6937 -8.6845 -13.435 -9.437 -9.189501 -10.5235 -8.1895 -7.4875 -7.5635 -7.9045 -10.66 -9.1225 -8.98 -12.8266 -13.348 -16.5363 -18.5249 -15.9046 -12.0437 -15.6083 -11.0059 -11.0452 -12.8397 -11.8935 -11.0184 -14.2276 -12.3225 -9.232 -9.149 -4.879 -8.384001 -6.421 -8.036 -9.605 -8.487 -11.8745 -12.6165 -10.92 -10.6375 -6.5835 -11.9268 
-11.6937 -13.435 -13.748 -13.5805 -10.5235 -11.1705 -9.698501 -9.188001 -8.293501 -11.5083 -10.66 -13.1338 -14.5381 -18.1281 -16.5363 -22.1784 -20.6234 -18.1998 -18.021 -17.6732 -12.1926 -15.5084 -14.2202 -16.1509 -15.013 -14.2276 -13.7865 -12.4156 -9.149 -8.384001 -8.384001 -11.567 -9.605 -12.7087 -11.8745 -14.006 -13.25 -11.7685 -13.042 -13.1695 
