-4.759 
n/a 
n/a 
n/a 
n/a 
-4.759 
n/a 
n/a 
n/a 
n/a 
-4.759 
n/a 
n/a 
n/a 
n/a 
-4.759 
n/a 
n/a 
n/a 
n/a 
-2.847 -3.6205 -1.7565 -3.6515 -3.251 -3.819 -1.4985 -4.4655 -3.152 -2.264 -2.0935 -1.4985 -3.8275 0 
-6.284 -5.2835 -5.625 -5.427 -6.688001 -4.844 -5.35 -7.813001 -5.3555 -5.126 -2.9725 -4.726 -3.8275 
-7.9855 -8.593 -6.962 -8.486501 -7.7735 -9.0835 -9.185 -10.459 -8.198501 -6.039001 -6.304 -4.726 
-10.6215 -9.889501 -10.6335 -9.567501 -12.1884 -12.7701 -11.8762 -13.302 -9.097 -9.777 -6.304 
-11.918 -13.5008 -11.7145 -13.9824 -15.875 -15.4613 -14.7192 -14.2005 -12.9146 -9.777 
-3.0365 -2.4945 -4.1395 -4.9285 -1.7565 -3.7345 -3.251 -3.819 -1.4985 -4.4655 -2.0935 -3.8275 -2.186 -3.43 
-3.688 -7.087501 -8.838501 -5.4325 -5.835001 -5.697001 -6.688001 -4.844 -5.35 -5.376 -5.919001 -5.669 -4.64 
-8.574501 -10.243 -9.173 -9.375501 -7.724 -8.981001 -7.7735 -9.0835 -6.8265 -7.857 -7.8925 -8.446501 
-10.31 -10.4195 -13.3018 -11.2257 -11.241 -10.243 -12.1884 -10.177 -8.7565 -9.269501 -10.419 
-10.4865 -14.7725 -15.152 -14.7427 -12.503 -14.6579 -13.2819 -12.286 -10.1105 -11.9654 
-1.4985 -2.95 -1.7695 -3.396 -2.7415 -3.383 -3.644 -3.819 -3.9535 -1.4985 -4.4655 -2.0935 -1.4985 -3.8275 0 
-3.9285 -4.11 -4.699 -6.012 -4.8365 -5.271 -7.864 -7.1675 -5.435 -5.35 -5.376 -2.9725 -4.726 -3.8275 
-5.049 -6.4355 -8.745501 -8.373 -6.985001 -8.689 -11.5181 -8.028501 -8.849001 -6.8265 -5.919001 -6.304 -4.726 
-7.0305 -10.4345 -11.2499 -10.9549 -8.915501 -12.7899 -12.3791 -11.6055 -9.5115 -7.2955 -8.872001 -6.304 
-11.4341 -13.6099 -13.8318 -12.8854 -14.174 -13.6509 -15.9561 -12.268 -9.814501 -9.854 -8.872001 
-1.8085 -3.8275 -2.186 -2.6165 -1.934 -3.251 
-5.421 -5.669 -3.5105 -4.552 -5.727 
-7.26 -6.78 -5.3075 -8.806001 
-8.466001 -8.739 -10.494 
-10.5225 -14.2873 
