-4.759 
n/a 
n/a 
n/a 
n/a 
-4.759 
n/a 
n/a 
n/a 
n/a 
-4.759 
n/a 
n/a 
n/a 
n/a 
-4.759 
n/a 
n/a 
n/a 
n/a 
-2.3615 -3.882 -4.3195 -8.5135 -5.213 0 -18.7575 -3.277 -3.436 -2.5045 -6.502 0 -1.756 -2.5045 -3.228 -8.9165 -3.277 -7.071 -2.4265 -4.116 
-6.111 -6.213 -13.9884 -14.4317 -5.213 -18.8087 -20.7187 -5.4395 -6.3895 -8.873 -6.502 -1.756 -4.604 -5.1825 -13.6795 -10.7025 -10.3225 -9.101 -7.012501 
-8.252501 -16.0441 -19.9066 -14.4317 -24.9223 -20.7187 -22.8812 -8.075001 -13.2322 -8.873 -8.517 -4.604 -6.58 -15.7446 -15.4655 -17.748 -12.3525 -13.8742 
-18.391 -21.9623 -19.9066 -34.141 -26.8323 -22.8812 -25.5167 -15.0183 -13.2322 -10.093 -11.5928 -6.58 -17.4809 -17.5306 -22.511 -19.778 -17.1257 
-24.3092 -21.9623 -39.6159 -36.051 -28.9948 -25.5167 -32.46 -15.0183 -14.4522 -13.1688 -13.5688 -17.4809 -19.2669 -24.5761 -24.541 -24.5512 
-2.3335 -3.321 -4.3325 -1.7695 -3.519 -1.4985 -5.213 -1.7565 -8.5135 -1.756 -3.321 -2.5045 -9.097501 -3.748 -3.277 -3.393 0 -3.321 -2.5045 -3.228 -4.164 -3.222 -1.4985 -5.213 -6.502 0 -3.321 -4.362 -3.748 -3.277 -3.251 -4.857 -3.4045 0 
-5.860001 -7.002501 -6.028 -4.951 -5.0755 -5.7165 -6.552001 -9.6285 -10.1995 -4.0055 -5.8425 -10.569 -10.7925 -5.8405 -4.243 -3.393 -3.321 -5.8425 -5.1825 -5.7365 -6.4655 -3.7835 -5.7165 -9.1485 -6.502 -3.321 -8.241 -6.6615 -5.8405 -5.885 -8.299001 -6.62 -3.4045 
-10.757 -7.805 -6.9095 -5.8085 -9.6085 -6.839001 -15.2812 -11.5023 -12.449 -6.422 -14.369 -13.3423 -12.0418 -6.2535 -4.243 -6.8585 -5.8425 -7.5605 -9.0565 -10.4505 -7.4225 -8.121 -10.0266 -9.1485 -10.304 -8.241 -10.543 -8.394501 -8.634501 -10.27 -9.885501 -6.62 
-11.5595 -8.603001 -7.663 -9.819501 -10.478 -15.9512 -17.155 -13.7518 -14.8655 -14.9117 -17.8435 -15.122 -12.2348 -6.2535 -7.201 -9.296 -7.5605 -11.8809 -10.586 -11.4075 -12.1086 -12.6353 -10.0266 -13.1249 -15.224 -10.543 -12.276 -11.4703 -13.4465 -12.0835 -9.885501 
-12.3575 -9.199 -11.8518 -11.0602 -19.5902 -17.825 -19.4045 -16.1683 -23.3552 -18.3862 -18.882 -15.315 -12.2348 -8.846001 -9.684501 -11.0998 -11.8809 -13.4104 -11.543 -16.0936 -16.6229 -12.6353 -14.003 -18.0449 -17.526 -12.276 -15.3518 -16.2823 -15.26 -12.0835 
-3.2615 -2.3335 -4.267 -1.7695 -8.5135 -3.4625 -9.097501 -8.8715 -3.2615 -3.498 -6.4925 -2.3335 -3.59 -3.737 -7.882 -4.362 -4.144 
-5.0495 -6.9705 -6.9425 -11.1415 -12.6812 -11.851 -16.547 -12.1745 -7.0065 -10.5975 -9.540501 -5.777 -7.4395 -12.7924 -12.592 -7.149 
-9.969001 -9.415501 -16.8161 -15.3092 -22.2203 -21.6108 -21.5032 -16.4761 -14.868 -14.0753 -13.2622 -9.505001 -16.7935 -17.5024 -15.379 
-12.414 -19.2953 -20.9838 -24.8483 -30.8295 -26.2348 -25.2458 -24.3376 -18.3458 -17.797 -16.9902 -18.9514 -21.5035 -20.2894 
-22.2938 -23.463 -30.5229 -33.4575 -35.4535 -29.9774 -33.1073 -27.8154 -22.0675 -21.525 -26.4366 -23.6614 -24.2905 
-2.3335 -6.957 -3.918 -1.756 -4.5485 -1.8085 -5.213 -3.849 -8.5135 0 -3.321 -2.5045 -1.4985 -3.498 -1.7565 -9.097501 -5.727 -4.5485 -6.4925 -1.756 -3.321 -6.454 -10.1085 -3.693 -4.116 -1.756 -10.0455 
-9.609 -11.4204 -6.752 -6.2885 -5.7685 -6.431001 -8.292001 -10.3545 -8.5135 -3.321 -5.8425 -3.1915 -4.0295 -4.005 -10.1505 -13.001 -10.1935 -10.4945 -8.488501 -4.0055 -10.181 -17.2333 -14.9135 -7.974 -5.8665 -12.8101 
-14.434 -14.2544 -9.394501 -6.962 -10.1305 -9.201501 -15.3621 -10.3545 -12.5397 -5.8425 -6.3715 -4.454 -4.188 -14.2818 -15.9761 -19.3718 -16.7008 -12.4905 -10.575 -11.3051 -20.9603 -21.8543 -19.3863 -10.089 -17.725 
-17.268 -16.8969 -9.967501 -11.4316 -13.1218 -16.3632 -15.3621 -14.3807 -15.0612 -6.3715 -7.0145 -4.526 -14.6665 -19.6118 -21.9429 -25.7844 -18.6968 -14.577 -17.8746 -22.0844 -25.5813 -26.3271 -21.5013 -22.1961 
-19.9105 -17.4699 -14.5117 -14.4229 -20.2835 -16.3632 -19.3883 -16.9022 -15.5902 -7.0145 -7.1905 -14.9236 -19.9409 -25.5786 -28.2477 -27.7804 -20.7833 -21.8766 -28.6539 -26.7054 -30.0541 -28.4421 -33.6084 
