-4.759 
n/a 
n/a 
n/a 
n/a 
-4.759 
n/a 
n/a 
n/a 
n/a 
-4.759 
n/a 
n/a 
n/a 
n/a 
-4.759 
n/a 
n/a 
n/a 
n/a 
-1.4985 -3.7805 -4.6985 -4.1165 -2.186 -3.3715 -5.513 0 
-4.8195 -8.3135 -9.255001 -6.183001 -6.375501 -7.756001 -5.513 
-9.2425 -13.0396 -11.8741 -11.1765 -9.830001 -7.756001 
-14.165 -15.6587 -16.8676 -14.631 -9.830001 
-16.7841 -20.6522 -20.3221 -14.631 
-4.1625 -4.445 -2.186 -3.6215 -7.8145 -6.014 -3.469 0 
-9.17 -6.3895 -5.7995 -12.4444 -14.3931 -7.526501 -3.469 
-11.2755 -10.281 -15.0282 -19.023 -15.9056 -7.526501 
-15.167 -19.5097 -21.6068 -20.5355 -15.9056 
-24.3957 -26.0883 -23.1193 -20.5355 
-3.7805 -3.7345 -5.0485 -2.186 -3.3715 -3.3935 -6.116 -4.653 
-7.5835 -9.176001 -6.6725 -6.375501 -7.9175 -8.354501 -8.762 
-13.4926 -10.8474 -10.389 -10.586 -13.2541 -11.3209 
-15.164 -14.5639 -14.9467 -15.9226 -16.2205 
-18.8805 -19.1216 -20.2833 -18.889 
-2.4265 -2.8645 -3.3935 -4.323 -4.0205 -1.756 -4.8665 
-4.1435 -6.728 -6.234 -9.363501 -5.399 -6.4065 
-8.0415 -10.168 -11.8999 -10.8104 -8.548 
-11.6301 -16.1563 -13.3468 -13.9594 
-17.6184 -17.6032 -16.4958 
