-4.759 
n/a 
n/a 
n/a 
n/a 
-4.759 
n/a 
n/a 
n/a 
n/a 
-4.759 
n/a 
n/a 
n/a 
n/a 
-4.759 
n/a 
n/a 
n/a 
n/a 
-3.999 0 -3.4605 -3.5125 
-3.999 -3.4605 -7.408 
-7.379 -7.408 
-11.7681 
n/a 
-3.32 0 -3.16 -2.9775 -3.5125 
-3.32 -3.16 -4.6715 -5.164001 
-7.263 -4.6715 -8.539001 
-8.211 -8.539001 
-12.6633 
-3.7595 0 -3.5125 -1.7565 -3.5025 
-3.7595 -3.5125 -4.312 -5.2375 
-7.298501 -4.312 -7.940001 
-8.880501 -7.940001 
-12.7443 
-3.999 0 -3.5125 -1.7565 -3.5025 
-3.999 -3.5125 -4.312 -5.2375 
-7.6445 -4.312 -7.940001 
-8.5555 -7.940001 
-12.6755 
