-4.759 
n/a 
n/a 
n/a 
n/a 
-4.759 
n/a 
n/a 
n/a 
n/a 
-4.759 
n/a 
n/a 
n/a 
n/a 
-4.759 
n/a 
n/a 
n/a 
n/a 
-3.5455 -4.684 -4.153 -1.4985 -3.962 -10.2775 -3.8735 -2.7415 -4.368 -1.7695 -4.065 -3.034 -2.925 -5.2725 -9.370001 
-8.567501 -5.274 -5.544001 -4.324 -15.3125 -14.297 -6.64 -5.909 -5.5235 -6.2135 -8.033 -4.4 -7.0965 -15.3941 
-8.8745 -6.609 -8.4215 -15.7383 -19.332 -17.0635 -10.0607 -7.781001 -9.1365 -10.5181 -8.661 -7.8665 -17.4173 
-9.909 -9.589001 -20.0596 -19.7578 -22.0985 -20.4842 -11.9327 -11.5744 -14.0649 -11.1461 -10.4945 -18.2441 
-13.0306 -21.2747 -24.0791 -22.5243 -25.5192 -22.3562 -15.7261 -16.5028 -14.6929 -12.9796 -21.8233 
-2.5045 -1.8085 -3.777 -1.7565 -4.0035 -3.4985 -3.2295 -1.4985 -8.337001 -4.6825 -1.934 -1.4985 -4.684 -4.153 0 -4.0995 -4.1865 -4.5175 -2.7415 -3.9595 -3.2295 -2.3345 -1.4985 -4.065 -5.228 
-3.3625 -4.3955 -4.411 -5.5145 -6.354 -5.0165 -3.844 -9.344001 -9.747501 -6.343501 -2.6125 -5.553 -5.274 -4.153 -4.0995 -7.9065 -9.0835 -7.526501 -5.2105 -5.7385 -5.662 -3.233 -4.824 -9.334 
-4.4445 -4.6235 -7.4135 -7.8405 -7.92 -5.554 -12.4219 -9.999001 -11.4663 -6.8605 -6.1695 -5.7765 -5.274 -9.154501 -7.9065 -13.3625 -12.2523 -10.1425 -6.7925 -6.2195 -6.2935 -6.0125 -9.842001 
-4.6725 -7.5525 -10.485 -9.202001 -8.6265 -14.5893 -13.0769 -11.7686 -11.9833 -8.5865 -6.261 -5.7765 -10.4035 -13.1835 -13.3625 -16.5313 -14.8683 -10.756 -6.909 -6.729 -8.5395 -11.4959 
-7.574 -10.513 -12.1951 -9.714001 -17.8002 -15.2443 -14.8465 -12.2856 -13.7093 -8.637001 -6.261 -10.621 -14.4325 -18.6395 -16.5313 -19.1473 -15.4818 -10.8725 -7.327 -8.6835 -14.3277 
-2.3345 -3.737 -1.4985 -6.483 -4.6825 -1.7695 -4.938 -1.934 -4.684 -4.153 0 -4.3435 -3.716 -4.1865 -3.9655 -3.4985 -3.251 -4.368 -1.7695 -1.4985 -4.2285 -1.7565 -7.746 0 
-5.275 -4.7615 -7.096001 -7.482 -6.7485 -6.508501 -6.8275 -6.7445 -5.274 -4.153 -4.3435 -6.661 -8.241501 -7.5495 -6.923 -7.406 -5.6405 -5.5235 -2.7955 -5.116 -5.173501 -9.0115 -7.746 
-6.228 -10.875 -7.672 -9.389501 -11.9519 -8.158001 -12.1952 -6.864 -5.274 -8.138 -6.661 -11.4255 -12.1549 -11.2034 -9.865001 -9.8485 -6.338 -6.206 -7.0775 -5.219 -13.3081 -9.0115 
-12.3795 -11.451 -9.482 -14.8641 -13.6014 -13.7317 -12.3147 -6.864 -9.292 -10.9045 -11.4255 -15.3389 -15.8088 -14.1454 -12.3625 -10.546 -7.01 -10.4265 -7.409 -13.461 -13.3081 
-12.9555 -13.261 -14.9842 -16.5136 -19.1751 -13.8512 -12.3147 -11.432 -12.1527 -15.669 -15.3389 -18.9928 -18.7508 -16.6429 -13.06 -11.218 -11.2737 -10.4475 -15.7348 -13.461 
-2.3345 -5.643 -1.4985 -6.483 -5.611 0 -1.4985 -7.746 -4.0875 -1.4985 -3.962 -3.8735 -3.325 -2.985 -3.4985 -1.934 -4.684 -4.153 
-7.3055 -6.8935 -7.096001 -8.495501 -5.611 -1.4985 -8.2875 -10.1465 -5.0195 -4.324 -8.398001 -7.2555 -5.788 -6.239 -5.373 -6.7445 -5.274 
-8.0895 -12.894 -10.354 -8.495501 -7.3 -8.2875 -10.494 -11.2327 -7.495 -8.7915 -12.1502 -9.5865 -6.919 -7.706501 -10.107 -6.864 
-14.236 -16.152 -10.354 -10.078 -14.5384 -10.494 -11.5802 -13.7082 -12.2785 -12.7015 -14.4812 -10.704 -8.276501 -12.8443 -10.2705 
-17.494 -16.152 -11.9365 -17.3164 -16.7449 -11.5802 -14.0557 -18.4917 -16.1885 -15.0325 -15.5987 -12.0615 -13.6027 -13.0078 
