-4.759 
n/a 
n/a 
n/a 
n/a 
-4.759 
n/a 
n/a 
n/a 
n/a 
-4.759 
n/a 
n/a 
n/a 
n/a 
-4.759 
n/a 
n/a 
n/a 
n/a 
-3.992 -3.4155 0 -2.186 -1.8085 -3.7075 -1.7565 -5.692 -3.598 -3.9495 -3.936 -1.4985 -3.5025 -2.4285 -2.8965 -3.5965 -4.103 0 
-5.623 -3.4155 -2.186 -3.164 -4.8725 -4.51 -6.689001 -8.470501 -7.8675 -7.2135 -4.263 -4.16 -5.828 -4.1405 -6.135 -6.0085 -4.103 
-5.623 -5.702001 -3.164 -6.2625 -5.4405 -7.865001 -9.2355 -9.8675 -11.7617 -7.855 -6.317 -5.962501 -7.133 -7.257 -8.139501 -6.0085 
-7.5655 -6.606 -6.2625 -6.6375 -8.5435 -9.496501 -9.892501 -14.3251 -12.4032 -8.755501 -8.199 -7.247001 -8.551001 -9.193501 -8.139501 
-8.690001 -9.349501 -6.6375 -9.607 -9.8645 -9.897 -14.4283 -14.9666 -13.3037 -10.494 -9.52 -8.7405 -9.427501 -9.193501 
-6.143001 -3.757 -3.951 0 -4.5125 0 -4.357 -1.4985 -2.9195 -3.3255 -3.992 -4.0865 
-8.1975 -7.7405 -3.951 -4.5125 -4.5125 -4.357 -5.343 -4.4535 -6.993 -6.733001 -5.9695 
-12.8467 -7.7405 -8.533501 -4.5125 -6.9795 -5.343 -8.006001 -8.116 -9.986 -9.058001 
-13.1869 -12.7704 -8.533501 -6.9795 -8.759001 -8.006001 -12.2579 -11.3524 -12.7578 
-18.2168 -12.7704 -9.79 -8.759001 -11.8786 -12.2579 -15.4943 -14.1242 
-2.7275 -3.4155 -3.757 -4.352 -4.0045 -3.2955 -3.563 -2.4285 -4.357 -1.8085 -3.4155 -1.934 -4.2735 0 
-3.6065 -8.0065 -8.156 -7.073 -7.6575 -8.168 -6.2085 -6.222 -5.393001 -5.721 -5.5865 -6.9265 -4.2735 
-8.576 -12.6927 -11.5772 -11.7952 -13.0154 -10.8265 -10.139 -7.198 -8.773001 -7.168 -11.5564 -6.9265 
-13.6024 -16.1139 -16.2994 -17.1531 -15.6739 -14.757 -11.115 -10.4675 -9.785001 -13.8245 -11.5564 
-17.0236 -20.8361 -21.6573 -19.8116 -19.6044 -15.733 -14.3845 -12.0099 -16.8743 -13.8245 
-3.1725 -2.186 -1.756 -1.7695 -4.304 -4.352 -5.7775 -4.078 -1.7695 -3.929 -2.9195 -3.951 0 -4.5125 0 -1.756 -4.357 
-5.5235 -5.029 -3.963 -4.9335 -8.505001 -7.4975 -10.1345 -5.835 -6.9905 -8.01 -7.062 -3.951 -4.5125 -4.5125 -1.756 -5.6465 
-8.263 -6.9635 -7.2835 -9.296 -12.1667 -12.5177 -11.8915 -11.9604 -11.1755 -12.5585 -7.062 -8.533501 -4.5125 -6.12 -5.6465 
-10.9651 -10.733 -11.9282 -13.0649 -17.1869 -14.2747 -18.0169 -16.1454 -15.724 -12.5585 -12.0863 -8.533501 -6.12 -6.2235 
-14.7346 -15.3777 -15.6971 -18.0851 -18.9439 -20.4001 -22.2019 -20.6939 -15.724 -17.5828 -12.0863 -9.45 -6.2235 
