-4.759 
n/a 
n/a 
n/a 
n/a 
-4.759 
n/a 
n/a 
n/a 
n/a 
-4.759 
n/a 
n/a 
n/a 
n/a 
-4.759 
n/a 
n/a 
n/a 
n/a 
-2.857 -4.898 -2.7415 0 -1.4985 -3.8665 -3.188 -2.186 -3.1125 -4.9345 0 -2.4285 0 -3.3435 0 0 -2.186 -3.1125 -4.3895 
-7.345 -7.4425 -2.7415 -1.4985 -4.915 -5.907001 -5.1175 -6.9115 -6.24 -4.9345 -2.4285 -2.4285 -3.3435 -3.3435 0 -2.186 -6.9115 -7.551001 
-9.272 -7.4425 -4.063 -4.915 -6.018 -7.4995 -9.8365 -10.1595 -6.24 -6.4575 -2.4285 -6.1295 -3.3435 -3.3435 -2.186 -6.9115 -11.5592 
-9.272 -8.7875 -7.359 -6.018 -7.538 -12.5225 -13.2661 -10.1595 -7.494 -6.4575 -6.1295 -6.1295 -3.3435 -4.9685 -6.9115 -11.5592 
-10.7646 -12.1031 -9.655001 -7.538 -12.5682 -15.9521 -13.2661 -11.4535 -7.494 -11.2569 -6.1295 -6.1295 -4.9685 -9.742001 -11.5592 
-3.9745 -3.188 -2.4285 -3.3435 -1.4985 -4.7725 -1.7565 -4.4585 -2.186 -5.1055 -2.871 
-7.5375 -6.0275 -6.1295 -5.0885 -5.849501 -6.4595 -5.2735 -5.890501 -7.0495 -8.539001 
-11.0914 -8.606001 -8.4075 -10.503 -6.652 -10.2789 -6.7705 -10.8938 -10.5535 
-13.6699 -10.5745 -13.956 -11.3055 -10.5418 -11.7759 -12.0812 -14.3978 
-15.6384 -16.123 -14.7585 -15.1953 -12.0388 -17.0866 -15.5852 
-2.857 -3.3435 -2.186 -3.383 -4.3895 -3.115 -3.8665 -3.188 0 
-4.717 -4.9685 -4.438 -6.552 -7.771501 -7.054 -5.907001 -3.188 
-6.2435 -7.1485 -7.5845 -9.5105 -11.9485 -10.7175 -5.907001 
-8.236501 -10.7412 -10.4105 -13.7279 -15.612 -10.7175 
-12.011 -13.5672 -14.6279 -17.3914 -15.612 
-3.9745 -2.8645 -4.8385 -4.7905 
-6.438 -6.913 -11.0145 
-10.9833 -14.2622 
-18.3325 
n/a 
