-4.759 
n/a 
n/a 
n/a 
n/a 
-4.759 
n/a 
n/a 
n/a 
n/a 
-4.759 
n/a 
n/a 
n/a 
n/a 
-4.759 
n/a 
n/a 
n/a 
n/a 
-3.2615 -4.129 -1.934 -4.567 -4.681 
-6.357 -5.628 -7.3365 -8.873501 
-8.132 -11.9387 -12.3298 
-14.6325 -16.932 
-19.6258 
-3.321 -2.9805 -2.7415 -3.685 -2.5045 -1.8085 -4.567 0 
-5.175 -4.004 -8.179001 -5.0275 -3.3625 -5.671 -4.567 
-6.6175 -9.621 -9.366001 -5.5675 -6.7475 -5.671 
-12.4045 -10.9976 -9.817 -9.710001 -6.7475 
-13.7811 -11.4486 -13.9595 -9.710001 
-3.882 -2.9805 -3.9535 -1.7695 -3.685 -2.5045 -1.8085 -4.567 0 
-5.755 -5.607 -5.098001 -4.9795 -5.0275 -3.3625 -5.671 -4.567 
-7.98 -6.528501 -7.889 -5.608 -5.5675 -6.7475 -5.671 
-8.833 -9.0325 -9.061501 -6.047 -9.710001 -6.7475 
-11.4272 -10.259 -9.495001 -9.9375 -9.710001 
-2.9805 -3.9535 -3.091 -3.912 -2.5045 -4.567 0 
-5.607 -6.091001 -5.292 -5.647 -7.2445 -4.567 
-6.646501 -6.654 -6.3275 -10.5135 -7.2445 
-7.147 -7.219501 -10.66 -10.5135 
-7.7175 -11.9718 -10.66 
