-4.759 
n/a 
n/a 
n/a 
n/a 
-4.759 
n/a 
n/a 
n/a 
n/a 
-4.759 
n/a 
n/a 
n/a 
n/a 
-4.759 
n/a 
n/a 
n/a 
n/a 
-1.934 -3.539 -3.0605 0 -3.676 -2.7415 -4.9375 -5.1845 -4.5675 -4.045 
-5.011 -5.469 -3.0605 -3.676 -6.2495 -6.499001 -11.0145 -9.911 -9.5765 
-7.9085 -5.469 -7.8255 -6.2495 -10.2925 -13.451 -15.741 -14.92 
-7.9085 -11.4356 -11.095 -10.2925 -17.3095 -18.1775 -20.75 
-14.3335 -14.7051 -15.138 -17.3095 -22.036 -23.1865 
-3.539 -8.245001 -9.778501 -4.045 -4.467 -1.4985 -12.16972 
-10.6375 -19.3019 -13.9087 -9.623501 -6.4475 -14.76202 
-23.7372 -24.2573 -19.4872 -12.0494 -20.05142 
-27.8674 -29.8358 -21.9131 -25.65332 
-33.4459 -32.2617 -35.51702 
-3.539 -3.0605 0 -4.045 -1.7565 -5.1845 -3.11 -3.3435 -4.5675 -2.4945 -4.9985 -2.3345 -4.0375 -3.676 0 
-5.469 -3.0605 -4.045 -4.939 -6.580501 -8.9305 -7.0435 -8.564001 -7.0795 -6.6255 -6.4645 -6.7165 -8.08 -3.676 
-5.469 -7.9645 -4.939 -10.4182 -11.1695 -13.1034 -13.0878 -11.2996 -11.5459 -7.706 -10.757 -11.4626 -8.08 
-11.5746 -8.994 -10.4182 -15.0072 -15.3424 -19.1477 -15.8234 -15.766 -12.6264 -12.6361 -15.5031 -11.4626 
-12.6041 -14.548 -15.0072 -19.1801 -21.3867 -21.8833 -20.2898 -16.8465 -17.5565 -17.3822 -15.5031 
-3.539 -3.0605 0 -8.863001 -12.16972 -3.8495 -2.229 -4.256 -3.152 -3.9595 -3.2295 -2.3345 -1.4985 -3.4225 -4.39 
-5.469 -3.0605 -8.863001 -21.61672 -16.01922 -5.4325 -5.993 -6.554 -5.4355 -5.7385 -5.662 -3.233 -3.9655 -4.7525 
-5.469 -12.4721 -21.61672 -25.46622 -17.60222 -8.6075 -7.7585 -8.924 -7.2205 -6.2195 -6.2935 -5.532 -5.0455 
-16.0822 -25.22582 -25.46622 -27.04922 -20.77722 -10.5904 -10.1765 -9.366 -7.47 -6.729 -8.748 -6.2125 
-28.83592 -29.07532 -27.04922 -30.22422 -22.76012 -13.0084 -10.53 -9.4775 -7.824 -8.8715 -9.4965 
