-4.759 
n/a 
n/a 
n/a 
n/a 
-4.759 
n/a 
n/a 
n/a 
n/a 
-4.759 
n/a 
n/a 
n/a 
n/a 
-4.759 
n/a 
n/a 
n/a 
n/a 
-3.1385 -2.925 -4.567 -3.115 -12.16972 0 -2.742 -8.2615 -2.3615 -3.7075 
-5.268001 -5.994 -6.026 -16.06032 -12.16972 -2.742 -10.4345 -10.0545 -5.029 
-8.379001 -7.482501 -19.40412 -16.06032 -14.91172 -10.4345 -12.2275 -12.8162 
-9.509501 -21.08342 -19.40412 -18.80232 -22.60422 -12.2275 -14.9892 
-23.18242 -21.08342 -22.14612 -26.49482 -24.39722 -14.9892 
-2.4265 -2.186 -4.3895 -2.3345 -1.4985 -4.809 -3.8315 -1.7695 -4.2765 -4.477 -1.756 -2.847 -4.9285 -1.7565 -3.8255 -4.7505 0 
-3.292 -5.817 -4.6785 -3.233 -5.13 -6.122 -6.460001 -4.5005 -7.493501 -5.615 -4.6065 -7.2315 -5.4325 -5.2035 -6.2345 -4.7505 
-7.055501 -5.9315 -5.48 -7.573 -6.2815 -7.7295 -8.627001 -7.625 -8.4645 -8.72 -9.3345 -8.319 -6.425 -7.182001 -6.2345 
-7.143 -6.717 -9.4115 -8.1555 -7.955501 -10.075 -9.571001 -8.564501 -11.9251 -13.5936 -9.962501 -9.573 -7.4115 -7.182001 
-7.923501 -10.6735 -10.1576 -9.974501 -10.1335 -11.019 -10.225 -12.1115 -16.7987 -14.2216 -11.2985 -10.6431 -7.4115 
-3.0365 -2.186 -2.847 -4.2055 -2.0935 -6.5035 -3.0415 -3.1385 -3.0695 -3.013 -2.6165 -3.465 -1.7695 -5.7565 -3.8185 -2.3615 0 
-3.66 -4.1045 -5.938 -5.6535 -7.806 -9.212001 -5.8815 -4.286 -5.0395 -3.724 -5.012 -3.665 -6.022 -10.361 -5.304501 -2.3615 
-4.256001 -6.8535 -7.160501 -10.3165 -10.8279 -12.147 -7.1265 -6.0635 -5.350501 -5.289001 -5.2075 -8.370001 -10.494 -11.847 -5.304501 
-6.8625 -7.863 -12.0173 -13.3384 -13.7629 -13.392 -8.886001 -6.362 -6.786 -5.499001 -9.592 -13.213 -11.98 -11.847 
-7.868501 -12.864 -15.0392 -16.2734 -15.0079 -15.1515 -9.192 -7.622 -6.949 -9.903001 -14.4716 -14.699 -11.98 
-2.3615 -3.3755 -2.186 -4.3895 -2.3345 -1.4985 -4.809 -3.8315 -3.0695 -3.1425 -3.115 -1.7695 -4.2765 -4.477 0 
-4.8525 -5.5045 -5.817 -4.6785 -3.233 -5.13 -6.122 -7.368501 -4.9795 -4.228 -3.974 -4.5005 -7.493501 -4.477 
-6.58 -9.5655 -5.9315 -5.48 -7.573 -6.2815 -8.067 -9.094001 -5.877 -4.321 -6.962 -7.625 -7.493501 
-10.66 -10.1695 -6.717 -9.4115 -8.1555 -8.132001 -9.9585 -10.5535 -5.9505 -7.268 -10.749 -7.625 
-11.264 -10.955 -10.6735 -10.1576 -10.3052 -10.06 -11.5794 -10.6155 -8.720501 -11.1574 -10.749 
