-4.759 
n/a 
n/a 
n/a 
n/a 
-4.759 
n/a 
n/a 
n/a 
n/a 
-4.759 
n/a 
n/a 
n/a 
n/a 
-4.759 
n/a 
n/a 
n/a 
n/a 
-1.934 -5.476 0 -3.676 -3.918 -3.883 -3.4635 -2.356 -3.277 0 
-6.7475 -5.476 -3.676 -7.797 -8.4505 -6.796 -6.265 -4.76 -3.277 
-6.7475 -9.861 -7.797 -13.1163 -11.8397 -9.727501 -9.703001 -4.76 
-10.609 -14.078 -13.1163 -16.5055 -14.7712 -13.3135 -9.703001 
-14.826 -19.3973 -16.5055 -19.437 -18.3572 -13.3135 
-1.934 -5.476 -3.676 -4.098 -3.883 
-6.7475 -9.861 -7.3935 -9.025 
-10.609 -13.6745 -12.8561 
-14.4225 -19.1371 
-19.8851 
-3.4975 -3.918 -8.2025 -2.356 -4.179 -1.934 -1.4985 -3.158 -5.476 
-8.844001 -13.5669 -11.0141 -6.634501 -5.5045 -2.6125 -4.178 -8.321 
-18.7737 -16.3785 -15.2926 -8.026 -6.040501 -5.265 -8.5155 
-21.5853 -20.657 -16.6841 -8.5835 -9.233001 -8.882 
-25.8638 -22.0485 -17.2416 -12.0444 -12.9176 
-3.5455 -5.476 -2.229 0 -1.4985 -2.985 -2.229 -4.4905 -3.883 -3.9675 -2.356 -2.4265 
-9.335001 -8.356501 -2.229 -1.4985 -4.1115 -3.482 -6.9855 -9.731501 -7.524 -6.949 -4.606501 
-12.3227 -8.356501 -4.123 -4.1115 -4.1465 -9.529 -12.6201 -13.3725 -11.2975 -9.915501 
-12.3227 -10.5621 -7.226 -4.1465 -9.6315 -15.1024 -16.2611 -17.146 -14.264 
-14.5283 -13.6651 -7.392 -9.6315 -15.2467 -18.7434 -20.0346 -20.1125 
