-4.759 
n/a 
n/a 
n/a 
n/a 
-4.759 
n/a 
n/a 
n/a 
n/a 
-4.759 
n/a 
n/a 
n/a 
n/a 
-4.759 
n/a 
n/a 
n/a 
n/a 
-4.98 0 -1.4985 -4.121 -1.7565 -5.1845 0 -5.0235 -2.5045 -1.4985 -4.634 -1.7565 -6.3215 -9.819 -9.3955 
-4.98 -1.4985 -5.189 -5.211 -6.580501 -5.1845 -5.0235 -7.026501 -3.1915 -5.466001 -6.2255 -7.9375 -17.0289 -19.5771 
-6.9005 -5.189 -5.738501 -11.1596 -6.580501 -10.634 -7.026501 -7.344 -6.3195 -6.5415 -13.0941 -18.9439 -26.787 
-10.609 -5.738501 -11.8149 -11.1596 -12.873 -12.637 -7.344 -10.9256 -7.2615 -13.6695 -24.1005 -28.702 
-11.1585 -11.8149 -11.8149 -17.4521 -14.876 -12.9545 -10.9256 -11.8676 -14.5981 -24.6759 -33.8586 
-1.934 -1.4985 -4.8135 -1.7565 -6.3215 -12.16972 -12.16972 0 -5.1845 -4.121 0 -5.2915 -3.8825 
-2.6125 -5.4845 -6.0305 -7.9375 -19.37962 -24.33944 -12.16972 -5.1845 -9.392 -4.121 -5.2915 -9.842001 
-6.955 -6.236001 -12.7891 -21.29462 -31.54934 -24.33944 -17.35422 -9.392 -9.392 -9.068501 -9.842001 
-7.8085 -13.1422 -26.14622 -33.46434 -31.54934 -29.52394 -21.56172 -9.392 -14.4891 -13.587 
-14.9991 -26.49932 -38.31594 -33.46434 -36.73384 -33.73144 -21.56172 -14.4891 -19.0076 
0 -12.16972 0 -5.2915 -3.557 -1.934 -1.4985 -4.8135 -1.7565 -6.3215 -12.16972 -3.6445 0 
-12.16972 -12.16972 -5.2915 -8.3665 -4.4175 -2.6125 -5.4845 -6.0305 -7.9375 -19.37962 -15.81422 -3.6445 
-12.16972 -17.46122 -8.3665 -8.749001 -4.9675 -6.955 -6.236001 -12.7891 -21.29462 -23.02412 -15.81422 
-17.46122 -20.53622 -8.749001 -9.54 -9.1185 -7.8085 -13.1422 -26.14622 -24.93912 -23.02412 
-20.53622 -20.91872 -9.54 -13.7236 -9.9755 -14.9991 -26.49932 -29.79072 -24.93912 
-4.98 0 -12.16972 0 0 -5.1845 -4.121 0 -5.2915 -1.934 -1.4985 -4.8135 -1.7565 -6.3215 -10.3635 -4.1365 
-4.98 -12.16972 -12.16972 0 -5.1845 -9.392 -4.121 -5.2915 -6.7705 -2.6125 -5.4845 -6.0305 -7.9375 -10.8025 -14.5924 
-17.70532 -12.16972 -12.16972 -5.1845 -9.392 -9.392 -9.068501 -6.7705 -7.3005 -6.955 -6.236001 -12.7891 -12.7175 -15.0314 
-17.70532 -12.16972 -17.35422 -9.392 -9.392 -14.4891 -10.2935 -7.3005 -9.9775 -7.8085 -13.1422 -17.5691 -16.9464 
-17.70532 -17.35422 -21.56172 -9.392 -14.4891 -15.7141 -10.7285 -9.9775 -10.9664 -14.9991 -17.9222 -21.798 
