-4.759 
n/a 
n/a 
n/a 
n/a 
-4.759 
n/a 
n/a 
n/a 
n/a 
-4.759 
n/a 
n/a 
n/a 
n/a 
-4.759 
n/a 
n/a 
n/a 
n/a 
-8.241 -4.088 -9.233001 0 -9.716001 -9.0445 0 -6.319 -12.16972 -4.763 0 
-12.7184 -14.2512 -9.233001 -9.716001 -18.9981 -9.0445 -6.319 -19.20312 -16.93272 -4.763 
-22.8816 -14.2512 -19.4934 -18.9981 -18.9981 -15.5017 -19.20312 -23.96612 -16.93272 
-22.8816 -24.5116 -28.7755 -18.9981 -25.4553 -28.38582 -23.96612 -23.96612 
-33.142 -33.7937 -28.7755 -25.4553 -38.33942 -33.14882 -23.96612 
-12.16972 -1.756 -9.716001 -12.16972 
-13.92572 -12.4806 -22.12332 
-24.65032 -24.88792 
-37.05764 
n/a 
0 -4.088 -9.233001 0 0 0 -11.0905 -9.0445 0 0 0 -6.319 -12.16972 0 -2.5685 -2.4945 -7.231 0 
-4.088 -14.2512 -9.233001 0 0 -11.0905 -20.135 -9.0445 0 0 -6.319 -19.20312 -12.16972 -2.5685 -5.3665 -9.448 -7.231 
-14.2512 -14.2512 -9.233001 0 -11.0905 -20.135 -20.135 -9.0445 0 -6.319 -19.20312 -19.20312 -14.73822 -5.3665 -12.51 -9.448 
-14.2512 -14.2512 -9.233001 -11.0905 -20.135 -20.135 -20.135 -9.0445 -6.319 -19.20312 -19.20312 -21.77162 -17.53622 -12.51 -12.51 
-14.2512 -14.2512 -20.8679 -20.135 -20.135 -20.135 -20.135 -15.5017 -19.20312 -19.20312 -21.77162 -24.56962 -24.67972 -12.51 
-8.693001 0 -4.088 -9.233001 0 0 0 -11.0905 -9.0445 0 0 -6.319 -3.074 -4.346 0 
-8.693001 -4.088 -14.2512 -9.233001 0 0 -11.0905 -20.135 -9.0445 0 -6.319 -9.769 -7.9525 -4.346 
-13.142 -14.2512 -14.2512 -9.233001 0 -11.0905 -20.135 -20.135 -9.0445 -6.319 -9.769 -14.6475 -7.9525 
-23.3052 -14.2512 -14.2512 -9.233001 -11.0905 -20.135 -20.135 -20.135 -15.5017 -9.769 -14.6475 -14.6475 
-23.3052 -14.2512 -14.2512 -20.8679 -20.135 -20.135 -20.135 -26.5922 -18.9517 -14.6475 -14.6475 
