-4.759 
n/a 
n/a 
n/a 
n/a 
-4.759 
n/a 
n/a 
n/a 
n/a 
-4.759 
n/a 
n/a 
n/a 
n/a 
-4.759 
n/a 
n/a 
n/a 
n/a 
-15.807 -12.16972 -4.677 0 -4.805 -5.804 0 
-28.53232 -16.84672 -4.677 -4.805 -8.7925 -4.165 
-33.20932 -16.84672 -9.7005 -7.9715 -7.9715 
-33.20932 -21.87022 -13.194 -7.9715 
-38.23282 -25.36372 -13.194 
-15.807 -12.16972 -4.677 0 -4.805 -4.747 0 
-28.53232 -16.84672 -4.677 -4.805 -9.908001 -4.546 
-33.20932 -16.84672 -9.7005 -8.177 -8.177 
-33.20932 -21.87022 -13.3995 -8.177 
-38.23282 -25.56922 -13.3995 
-10.827 -12.16972 -4.677 -2.7415 -4.0835 -1.934 -1.4985 -3.158 -4.805 -4.747 0 
-22.99672 -16.84672 -6.6965 -5.341001 -4.6245 -2.6125 -4.178 -8.047501 -9.908001 -4.546 
-27.67372 -18.86622 -7.6005 -5.919 -5.907001 -5.265 -8.391001 -10.559 -8.177 
-29.69322 -19.77022 -8.1055 -6.6355 -8.024501 -9.0695 -9.935 -9.851501 
-30.59722 -20.27522 -8.629 -8.382501 -10.434 -10.5745 -9.935 
-15.807 -12.16972 -4.677 0 -1.934 -8.281501 -3.158 0 
-28.53232 -16.84672 -4.677 -1.934 -11.2219 -10.4855 -3.158 
-33.20932 -16.84672 -6.2735 -11.2219 -13.4259 -10.4855 
-33.20932 -18.44322 -16.0318 -13.4259 -13.4259 
-34.80582 -28.20152 -18.2358 -13.4259 
