-4.759 
n/a 
n/a 
n/a 
n/a 
-4.759 
n/a 
n/a 
n/a 
n/a 
-4.759 
n/a 
n/a 
n/a 
n/a 
-4.759 
n/a 
n/a 
n/a 
n/a 
-2.925 -3.0465 -4.0655 -1.7695 -4.7665 -1.4985 -3.9115 -3.3235 -1.934 -4.3135 -3.5065 -2.925 -2.674 -1.8085 -4.3125 -4.257 -1.7565 -3.6215 -2.871 -3.748 -4.744 -1.7695 -4.7615 0 -3.952 -3.6215 -1.756 -3.5895 -4.1155 -1.7695 -3.277 -2.186 -4.51 -4.2595 0 
-5.1415 -5.3595 -4.4155 -5.3 -5.663 -5.578 -7.785 -5.0795 -4.826 -7.576 -5.2335 -4.1785 -3.63 -4.6875 -7.736 -5.552 -5.7815 -6.243 -5.5815 -7.785 -6.331 -5.0705 -4.7615 -3.952 -6.01 -5.212501 -4.8625 -7.887 -5.746 -4.619 -5.384 -5.325 -6.0005 -4.2595 
-7.684501 -5.915501 -7.7165 -6.061501 -8.655 -9.385 -8.628 -6.2805 -7.8725 -9.149 -6.434 -5.191 -6.0395 -7.8975 -8.179 -9.085 -7.873 -7.6915 -8.827001 -9.182 -10.2645 -5.0705 -9.0795 -6.01 -7.1235 -8.561501 -9.242001 -8.699 -9.460501 -6.6295 -8.356501 -6.593 -6.0005 
-7.95 -9.741501 -8.5035 -8.913 -12.6096 -10.524 -8.689 -8.971001 -9.262001 -10.5335 -7.481501 -7.271501 -9.331 -8.314 -11.91 -11.3069 -8.639501 -11.219 -10.335 -13.2109 -10.2645 -10.064 -11.5567 -7.1235 -10.1675 -13.1024 -10.055 -12.7133 -11.6432 -9.606001 -9.355 -6.593 
-12.1688 -10.4445 -11.5148 -12.9068 -13.7486 -10.6515 -11.3391 -10.2285 -10.6225 -11.581 -9.601001 -10.426 -9.781 -12.081 -14.1319 -12.0734 -12.2318 -12.727 -14.3639 -13.2109 -15.258 -12.628 -12.6702 -10.1675 -14.7084 -13.9154 -14.2289 -14.896 -14.6197 -10.6903 -9.355 
-1.4985 -5.2795 -3.152 -3.8535 -3.383 -4.253 -3.433 -1.4985 -4.795 -3.152 -3.135 -4.5445 -1.756 -3.737 -3.277 -4.5055 0 -3.952 0 -4.1685 -4.0415 -2.186 -4.2595 
-6.519501 -6.989 -5.945001 -6.524 -8.9185 -7.186 -4.3795 -5.712 -6.4475 -5.6895 -8.050501 -6.3795 -5.2025 -5.6055 -7.131001 -4.5055 -3.952 -3.952 -4.1685 -8.6385 -6.436501 -5.239 
-7.991001 -9.173 -8.578501 -13.0179 -11.9307 -8.154 -8.587501 -7.29 -10.001 -10.075 -9.7995 -9.6975 -6.641 -10.275 -7.131001 -9.051001 -3.952 -8.469 -8.6385 -11.5043 -9.17 
-9.937 -11.8199 -15.3408 -16.0301 -12.8987 -12.4436 -9.373501 -10.6735 -14.5705 -12.3766 -13.1495 -11.2042 -11.5563 -10.275 -12.2863 -9.051001 -8.469 -13.2666 -11.5043 -14.2378 
-12.6243 -18.5822 -18.353 -16.9981 -17.1883 -13.2296 -12.8234 -15.243 -16.8721 -15.7266 -14.6562 -16.1195 -11.5563 -15.2369 -12.2863 -14.0216 -13.2666 -16.1324 -14.2378 
-1.4985 -3.6885 -1.7565 -8.4045 -3.3715 -3.748 -4.257 -3.711 0 -3.737 -3.277 -4.0655 -1.7695 -3.7455 -1.756 -4.1685 -3.277 -4.7665 -3.43 -3.277 -1.7695 -3.685 -4.253 -2.0935 -4.4655 
-4.307 -5.0885 -9.7185 -12.0976 -7.7165 -8.248 -6.821 -3.711 -3.737 -5.6055 -6.9145 -4.4155 -5.423501 -5.3295 -5.6285 -5.681001 -9.433001 -8.937 -5.7705 -4.261 -4.9795 -7.9575 -6.705501 -6.3615 
-5.2585 -13.5957 -13.4246 -16.4426 -12.5119 -11.2674 -6.821 -7.383 -5.6055 -8.5345 -7.41 -8.470501 -7.025001 -9.092501 -6.684 -12.5714 -13.6661 -11.7077 -7.7705 -6.977 -8.9265 -11.0698 -10.6215 
-13.8755 -17.3018 -17.7696 -21.238 -15.5313 -11.2674 -10.955 -8.922001 -8.5345 -8.874001 -10.5535 -9.901001 -10.733 -10.3685 -13.763 -16.8045 -16.4368 -13.7077 -10.8067 -10.5635 -11.764 -14.9858 
-17.5816 -21.6468 -22.565 -24.2574 -15.5313 -15.4014 -12.494 -12.0122 -8.874001 -12.3031 -12.4014 -13.7218 -12.009 -17.8793 -17.9961 -19.5752 -18.4368 -16.7439 -14.3932 -13.401 -15.68 
-1.756 -1.756 -4.0515 -4.0415 -2.4945 -4.186 -5.1255 -3.0415 -3.1495 -5.5635 -3.8125 -2.4945 -1.7695 -2.489 -5.054 -1.934 -4.3135 
-5.389 -5.3365 -7.3455 -5.673 -6.212 -7.467 -7.7515 -6.0705 -8.297501 -7.974 -5.9015 -4.6835 -3.1405 -5.7705 -5.9605 -4.826 
-9.4165 -8.521 -10.5035 -9.303 -10.4505 -10.0575 -10.4945 -11.4213 -9.9455 -9.416 -7.784 -5.0085 -6.2945 -6.6505 -8.7255 
-12.6204 -11.8796 -14.1335 -13.7869 -13.041 -12.8005 -15.8453 -13.0693 -11.3875 -11.4481 -7.8955 -7.976501 -7.1995 -9.1945 
-15.979 -15.5096 -18.6174 -16.3774 -15.784 -18.1513 -17.4933 -14.5113 -13.4196 -11.5596 -9.3855 -8.7635 -9.81 
