-4.759 
n/a 
n/a 
n/a 
n/a 
-4.759 
n/a 
n/a 
n/a 
n/a 
-4.759 
n/a 
n/a 
n/a 
n/a 
-4.759 
n/a 
n/a 
n/a 
n/a 
-1.934 -6.04 -2.229 -3.8745 -2.871 -3.355 -1.7565 -1.4985 -5.1845 -5.641 -2.8645 -3.1125 -4.6275 0 -2.4265 -8.361501 -2.3335 -10.6015 -2.8645 -4.1975 -4.2695 -3.115 -12.16972 -12.16972 -12.16972 0 
-7.1995 -7.873001 -7.057 -7.522 -5.7015 -3.725 -2.4195 -6.5205 -12.1199 -8.036501 -3.5345 -6.129001 -4.6275 -2.4265 -10.0475 -9.380001 -14.1258 -13.466 -8.508 -7.2285 -6.768001 -16.06032 -24.33944 -24.33944 -12.16972 
-8.838 -13.3066 -9.589001 -10.621 -5.995 -4.0515 -7.2335 -14.1713 -14.5154 -8.259001 -6.6435 -6.129001 -6.478 -10.0475 -11.6544 -21.2583 -16.9903 -19.1095 -11.9288 -10.2135 -19.82352 -28.23004 -36.50916 -24.33944 
-14.7384 -15.8386 -13.5454 -10.9145 -6.272 -9.147 -15.0515 -16.5668 -14.7379 -12.1756 -6.6435 -8.111501 -14.6278 -11.6544 -23.5327 -24.1228 -22.6338 -22.5303 -14.9138 -23.41082 -31.99324 -40.39976 -36.50916 
-17.2704 -19.795 -13.8389 -11.1915 -11.8343 -17.1064 -17.447 -16.7893 -18.6545 -12.1756 -8.589001 -16.9411 -16.2347 -23.5327 -26.3972 -29.7663 -26.0546 -25.5153 -28.11112 -35.58054 -44.16296 -40.39976 
-1.8085 -5.1845 -4.893 -3.557 -1.934 -6.04 -3.8375 -4.603 -2.7455 -2.871 -1.7565 -1.4985 -6.864 -4.0965 -2.229 -3.891 -3.32 -10.8905 -12.16972 -12.16972 0 
-7.2815 -11.3719 -8.9825 -4.4175 -7.1995 -7.703001 -9.486 -7.0275 -5.3835 -3.5385 -2.4195 -7.8675 -8.968 -6.387001 -6.024 -7.5415 -15.4905 -23.66482 -24.33944 -12.16972 
-13.8033 -15.4614 -9.441001 -9.073001 -9.2345 -13.9641 -12.3269 -9.258501 -6.2715 -3.7675 -8.476001 -9.1125 -11.4519 -9.715 -9.136001 -19.9806 -28.26482 -35.83454 -24.33944 
-17.8928 -15.9199 -14.0727 -11.3158 -15.6938 -16.805 -14.5579 -10.224 -6.575 -10.5975 -9.797501 -11.6464 -14.7799 -12.8644 -21.8069 -32.75492 -40.43454 -35.83454 
-18.3513 -20.5516 -16.3155 -17.7751 -18.5347 -19.036 -15.5234 -10.5625 -13.6206 -11.919 -12.3314 -14.9744 -17.9293 -25.5353 -34.58122 -44.92464 -40.43454 
-5.1845 -7.805501 -3.355 -3.557 -2.5045 -12.16972 -5.213 -5.746 -6.579 -12.16972 -12.16972 -3.8905 -2.7455 -1.4985 -6.09 -8.3435 -3.8565 -3.942 
-14.2844 -11.6205 -8.007001 -4.962 -15.36922 -17.38272 -10.8215 -11.1415 -19.26532 -24.33944 -16.06022 -6.3355 -3.637 -7.880501 -15.0471 -12.4974 -7.0905 
-18.0994 -16.2725 -9.745001 -18.34672 -20.58222 -22.99122 -16.217 -23.82782 -31.43504 -28.22994 -18.50522 -7.014 -10.3815 -17.2716 -19.201 -15.7314 
-22.7514 -18.0105 -23.31412 -23.55972 -26.19072 -28.38672 -28.90332 -35.99754 -35.32554 -30.67494 -19.18372 -14.0431 -19.7726 -21.4255 -22.435 
-24.4894 -31.57962 -28.52712 -29.16822 -31.58622 -41.07304 -41.07304 -39.88804 -37.77054 -31.35344 -26.21282 -23.4342 -23.9265 -24.6595 
-3.3255 -1.4985 -3.8625 -2.489 -3.557 -1.934 -9.9545 -2.7295 -2.7765 -3.0465 -3.3715 -3.509 -2.7455 -6.864 -2.229 -3.0435 -4.638 0 
-3.8945 -5.431 -7.478001 -4.467 -4.4175 -12.8949 -12.8098 -4.065 -4.5705 -6.554 -6.54 -5.192 -9.327001 -8.205501 -5.0405 -7.4855 -4.638 
-7.994 -8.5 -10.6215 -5.022 -15.6242 -15.7502 -14.1453 -5.635 -7.723001 -9.323501 -7.5 -12.3819 -11.3847 -11.8992 -9.72 -7.4855 
-11.4318 -11.8041 -11.1765 -16.5649 -18.4795 -17.0857 -15.7153 -8.7475 -10.2855 -10.1905 -15.1415 -14.4396 -15.0784 -16.5787 -9.72 
-14.7359 -12.3591 -22.7194 -19.4202 -19.815 -18.6557 -18.8278 -11.5052 -11.5889 -17.7922 -17.1992 -18.1333 -19.7579 -16.5787 
