-4.759 
n/a 
n/a 
n/a 
n/a 
-4.759 
n/a 
n/a 
n/a 
n/a 
-4.759 
n/a 
n/a 
n/a 
n/a 
-4.759 
n/a 
n/a 
n/a 
n/a 
-9.251 -3.5155 -2.4945 -3.9285 -1.4985 -4.373 0 
-13.2249 -5.4445 -5.071 -5.3205 -5.0385 -4.373 
-15.1539 -8.0105 -6.7845 -8.7515 -5.0385 
-17.7199 -9.515 -10.354 -8.7515 
-19.2244 -13.3273 -10.354 
-2.8635 -12.16972 -3.074 -3.152 -3.9285 -1.934 -1.4985 -4.7485 
-15.23542 -15.24372 -6.198 -5.8345 -4.3695 -2.6125 -5.63 
-18.30942 -18.36772 -8.342 -6.0645 -4.6845 -6.6965 
-21.43342 -20.51172 -8.5385 -6.254 -8.9125 
-23.57742 -20.70822 -8.9395 -10.194 
-9.412001 0 -3.152 -3.5155 -3.9285 -1.934 -3.091 -4.373 0 
-9.412001 -3.152 -5.719 -7.396501 -4.3695 -4.2105 -6.539001 -4.373 
-12.8296 -5.719 -8.798 -7.897 -7.128 -7.587 -6.539001 
-15.3966 -8.798 -9.002501 -10.3675 -10.4855 -7.587 
-18.4756 -9.002501 -11.6142 -13.725 -10.4855 
-12.16972 -4.4725 -3.5155 -1.7565 -3.277 -1.934 -3.091 -4.373 
-16.64222 -7.7415 -4.8955 -4.25 -4.5955 -4.2105 -6.539001 
-19.91122 -8.905001 -5.762 -5.781 -6.692 -7.587 
-21.07472 -9.3905 -7.3315 -7.712 -10.0965 
-21.56022 -10.3685 -9.327001 -11.2319 
