-4.759 
n/a 
n/a 
n/a 
n/a 
-4.759 
n/a 
n/a 
n/a 
n/a 
-4.759 
n/a 
n/a 
n/a 
n/a 
-4.759 
n/a 
n/a 
n/a 
n/a 
-2.4265 -2.8645 -4.296 -2.9705 -2.186 -3.43 -1.7565 -4.202 0 
-4.1435 -9.048 -7.468 -3.89 -4.64 -4.9095 -5.504 -4.202 
-10.2695 -12.427 -8.16 -6.3955 -5.662001 -6.703 -5.504 
-13.8335 -13.119 -10.4765 -7.323 -7.6545 -6.703 
-14.5255 -15.4355 -11.404 -9.222 -7.6545 
-1.4985 -4.569 -2.4945 -1.934 -1.4985 -5.367 0 -8.345 -2.4945 -3.43 -2.5195 -6.8715 0 
-5.3805 -6.9915 -4.2645 -2.6125 -6.6905 -5.367 -8.345 -11.2809 -4.758 -5.0385 -9.1165 -6.8715 
-7.375 -8.802501 -4.935 -7.829501 -6.6905 -14.6558 -11.2809 -13.5444 -5.9835 -12.4461 -9.1165 
-9.3325 -9.6555 -10.2225 -7.829501 -16.6125 -17.5917 -13.5444 -14.7699 -13.7161 -12.4461 
-10.2145 -14.9708 -10.2225 -17.9403 -19.5484 -19.8552 -14.7699 -22.5025 -13.7161 
-1.4985 -4.0455 -1.7565 -3.3435 -2.264 -1.4985 -3.16 -2.186 -2.664 -4.5545 -3.5025 -3.4105 -4.367 -2.915 -2.7455 -6.1575 -1.756 -5.0425 0 -4.296 -2.3345 -5.819 -2.5195 -3.6215 -1.4985 -3.188 
-5.133 -5.615 -4.4105 -5.2695 -2.9195 -4.0625 -5.883 -3.8555 -5.4025 -8.323501 -6.9425 -7.626 -6.287 -4.0865 -8.9515 -7.036 -6.157 -5.0425 -4.296 -4.81 -7.418 -7.6685 -5.0095 -4.094 -3.619 
-6.107501 -6.021501 -6.2295 -5.7295 -4.6215 -6.143001 -7.3435 -6.224501 -9.0465 -10.2925 -9.5935 -9.057501 -6.759 -9.340001 -9.282001 -9.127501 -6.157 -9.6915 -4.81 -9.747001 -8.85 -8.879001 -5.0575 -4.561 
-6.346001 -8.621501 -6.86 -7.808 -6.7745 -7.644001 -9.409 -10.163 -10.5435 -12.9435 -9.602 -9.2875 -9.559501 -9.456 -9.451 -9.127501 -10.411 -10.018 -9.747001 -9.87 -9.622001 -8.8865 -5.2845 
-8.885501 -9.142501 -9.2025 -9.6995 -8.276501 -9.443501 -14.1419 -11.66 -13.1945 -12.952 -9.606 -9.6155 -9.562 -9.475 -9.451 -13.5415 -10.7375 -15.03 -9.87 -9.878 -9.625001 -8.971001 
-4.202 -4.4525 -1.7695 -4.202 
-10.335 -5.610001 -6.604001 
-11.5791 -10.451 
-16.4201 
n/a 
