-4.759 
n/a 
n/a 
n/a 
n/a 
-4.759 
n/a 
n/a 
n/a 
n/a 
-4.759 
n/a 
n/a 
n/a 
n/a 
-4.759 
n/a 
n/a 
n/a 
n/a 
-6.3215 -2.9705 -2.7415 -1.934 -1.4985 -3.4985 -1.7565 -7.044 -3.8405 -9.758 -2.5195 -4.208 -1.7695 -4.536 -4.153 -1.756 -3.325 -1.4985 -3.4985 -1.7565 -5.066 -9.758 -2.5195 -4.536 -1.7695 -4.79 -4.153 0 -2.7415 -3.325 -1.4985 -3.4985 -1.7565 -4.883 -6.6115 -2.5195 -4.795 -1.7695 -1.4985 -4.129 -1.7565 -4.767 -4.153 0 
-9.3295 -4.512 -4.5155 -2.6125 -4.798 -4.622 -9.0725 -11.4123 -14.6009 -12.3853 -6.384 -6.456 -6.7995 -6.7585 -5.6875 -5.198 -3.898 -4.798 -4.622 -6.270501 -16.0598 -12.3853 -7.0345 -6.942 -7.161001 -6.2405 -4.153 -2.7415 -5.7585 -3.898 -4.798 -4.622 -6.432001 -9.110001 -8.98 -7.375501 -7.0305 -2.7955 -5.424 -6.9015 -7.110001 -5.9645 -4.153 
-10.4275 -6.4075 -5.133 -5.8135 -5.425 -12.608 -13.5874 -22.1727 -17.2282 -16.2498 -7.5915 -8.0395 -8.677 -8.313001 -9.059501 -5.9855 -5.8625 -5.425 -9.432501 -17.7545 -18.6871 -16.9003 -7.859 -8.498 -8.369 -6.2405 -6.495 -5.7585 -6.248 -5.8625 -5.425 -9.673 -10.4675 -11.7033 -14.1166 -7.999001 -7.8925 -6.577 -7.337501 -12.8024 -7.597001 -5.9645 
-12.323 -7.0455 -8.486 -6.535501 -13.6534 -17.1229 -24.3478 -24.8 -21.0927 -17.4573 -8.703 -10.0405 -10.7025 -11.8322 -9.389001 -7.6265 -5.8915 -10.4779 -21.7707 -20.3818 -23.2021 -17.7248 -8.5675 -10.0855 -8.369 -8.5845 -9.6385 -6.248 -7.6545 -5.8915 -10.3955 -13.8475 -13.0608 -16.8399 -14.7401 -9.7995 -12.6452 -8.502001 -13.5586 -13.2894 -7.597001 
-12.961 -10.275 -9.0065 -14.9683 -18.1683 -27.8833 -26.9751 -28.6645 -22.3002 -18.5688 -10.9694 -12.1824 -14.2217 -12.1617 -11.144 -7.65 -11.4184 -22.8161 -24.398 -24.8968 -24.0266 -18.4333 -10.7596 -10.0855 -10.9066 -11.8132 -10.117 -7.6545 -7.687 -10.7025 -14.57 -16.4408 -18.1974 -17.4634 -16.5406 -14.543 -14.5702 -14.8581 -14.0456 -13.2894 
-6.3215 -2.9705 -2.7415 -1.934 -1.4985 -3.4985 -1.7565 -7.044 -3.8405 -9.758 -2.5195 -4.208 -1.7695 -4.536 -4.153 -1.756 -2.7415 -3.325 -1.4985 -3.4985 -1.7565 -5.066 -12.16972 -2.5195 -4.536 -1.7695 -4.79 -4.153 -2.7415 -3.325 -1.4985 -3.4985 -1.7565 -4.883 -6.6115 -2.5195 -4.795 -1.7695 -4.193 -1.7565 -4.767 -4.153 0 
-9.3295 -4.512 -4.5155 -2.6125 -4.798 -4.622 -9.0725 -11.4123 -14.6009 -12.3853 -6.384 -6.456 -6.7995 -6.7585 -5.6875 -4.4655 -5.7585 -3.898 -4.798 -4.622 -6.270501 -18.47152 -14.68922 -7.0345 -6.942 -7.161001 -6.2405 -6.495 -5.7585 -3.898 -4.798 -4.622 -6.432001 -9.110001 -8.98 -7.375501 -7.0305 -6.375 -4.7225 -7.110001 -5.9645 -4.153 
-10.4275 -6.4075 -5.133 -5.8135 -5.425 -12.608 -13.5874 -22.1727 -17.2282 -16.2498 -7.5915 -8.0395 -8.677 -8.313001 -7.329501 -7.5065 -6.248 -5.8625 -5.425 -9.432501 -20.16622 -20.99102 -19.20422 -7.859 -8.498 -8.369 -8.5845 -9.6385 -6.248 -5.8625 -5.425 -9.673 -10.4675 -11.7033 -14.1166 -7.999001 -12.4896 -7.026 -9.314501 -7.597001 -5.9645 
-12.323 -7.0455 -8.486 -6.535501 -13.6534 -17.1229 -24.3478 -24.8 -21.0927 -17.4573 -8.703 -10.0405 -10.7025 -9.56 -10.3745 -7.921 -7.6545 -5.8915 -10.4779 -24.18242 -22.68572 -25.50602 -20.02872 -8.5675 -10.0855 -10.9066 -11.8132 -10.117 -7.6545 -5.8915 -10.3955 -13.8475 -13.0608 -16.8399 -14.7401 -14.4187 -13.1406 -11.751 -9.4785 -7.597001 
-12.961 -10.275 -9.0065 -14.9683 -18.1683 -27.8833 -26.9751 -28.6645 -22.3002 -18.5688 -10.9694 -12.1824 -11.9495 -12.6622 -10.789 -9.215501 -7.687 -11.4184 -25.22782 -26.70192 -27.20072 -26.33052 -20.73722 -10.7596 -12.7873 -14.1353 -12.2917 -11.5235 -7.687 -10.7025 -14.57 -16.4408 -18.1974 -17.4634 -21.1598 -15.0697 -17.8656 -11.915 -9.4785 
-1.4985 -8.3415 -3.152 -2.871 -1.7565 -1.4985 -3.7825 -5.1845 -6.3075 0 -1.4985 -2.8965 -3.54 -3.4625 -6.864 0 -7.462 -1.756 -7.680501 0 0 -2.9705 -5.1605 -3.502 -3.8735 -3.834 -1.4985 -4.751 -4.153 -4.3755 0 
-8.610001 -9.904 -6.058001 -3.5385 -2.4195 -4.8035 -8.943501 -9.824 -6.3075 -1.4985 -3.928 -6.0455 -7.453 -11.046 -6.864 -7.462 -9.3815 -9.3885 -7.680501 0 -2.9705 -7.283 -8.5235 -6.2275 -7.88 -4.5435 -5.714001 -6.173501 -7.023001 -4.3755 
-10.238 -12.8736 -6.303 -3.7675 -5.425 -10.0605 -13.8874 -9.824 -7.5495 -3.928 -6.093 -8.269 -15.1763 -11.046 -9.861 -9.3815 -17.2196 -9.3885 -7.680501 -2.9705 -7.283 -10.064 -10.139 -10.019 -8.5865 -7.7255 -6.5705 -9.1335 -7.023001 
-13.2076 -13.1186 -6.4455 -6.196 -10.4345 -15.0044 -13.8874 -11.2592 -10.4265 -6.093 -8.276501 -16.0737 -15.1763 -14.043 -10.085 -17.2196 -17.2196 -9.3885 -11.1415 -7.283 -10.064 -11.5775 -13.9305 -10.569 -11.9959 -8.386001 -9.436001 -9.1335 
-13.4526 -13.2611 -9.0185 -11.3493 -15.3784 -15.0044 -15.3226 -14.1362 -12.5915 -8.276501 -16.0852 -16.0737 -18.1733 -14.267 -18.2933 -17.2196 -17.2196 -12.9723 -15.454 -10.064 -11.5775 -15.369 -14.4805 -13.9784 -12.6564 -10.6465 -9.436001 
-2.5195 -2.1715 -4.747 -4.732 -4.536 -4.153 -6.3215 -2.7415 -2.356 -6.933001 -3.8405 -9.758 0 -2.5195 -4.536 -1.7695 -4.79 -4.153 -2.4265 -2.7415 -2.356 -3.9785 -3.7515 -9.758 -1.756 -2.5195 -4.795 -1.7695 -1.4985 -3.584 -1.7565 -4.767 -4.153 -2.4265 -2.7415 -1.934 -1.4985 -3.4985 -1.7565 -4.883 -6.6115 0 
-4.909 -7.166 -9.470501 -8.580001 -6.7585 -10.3045 -9.058001 -5.5325 -9.5395 -8.9175 -14.6009 -9.758 -2.5195 -7.0345 -6.942 -7.161001 -6.2405 -6.195001 -3.681 -5.5325 -6.696 -6.294 -14.6255 -10.674 -4.774 -7.375501 -7.0305 -2.7955 -4.755 -4.8765 -7.110001 -5.9645 -6.195001 -3.681 -4.5155 -2.6125 -4.798 -4.622 -6.432001 -9.110001 -6.6115 
-9.8055 -11.442 -13.5775 -11.4803 -13.6218 -13.041 -12.0396 -13.1384 -11.6526 -19.7507 -14.6009 -12.3853 -7.0345 -7.859 -8.498 -8.369 -8.046 -6.804501 -6.3115 -10.281 -8.521 -17.4876 -15.5415 -13.692 -9.535501 -7.999001 -7.8925 -5.851501 -5.043 -10.1555 -7.597001 -7.798501 -6.804501 -5.489 -5.133 -5.8135 -5.425 -9.673 -10.4675 -9.110001 
-14.8329 -16.0936 -16.576 -18.3436 -16.3583 -16.0226 -19.6455 -15.2515 -22.4858 -19.7507 -17.2282 -16.9003 -7.859 -8.5675 -10.0855 -10.2375 -8.503501 -9.871 -11.3278 -12.106 -19.8588 -18.4036 -18.5595 -18.4535 -10.183 -9.7995 -11.9197 -6.022 -10.5225 -10.6545 -10.074 -8.229 -8.576501 -6.016 -8.486 -6.535501 -10.3955 -13.8475 -10.4675 
-19.4595 -18.9939 -23.4393 -21.0801 -19.3399 -23.6285 -21.7586 -26.0847 -22.4858 -22.378 -21.7432 -17.7248 -8.5675 -10.7596 -12.1182 -10.7944 -11.7084 -14.9929 -13.1528 -23.4438 -20.7748 -21.4216 -23.321 -19.101 -11.9835 -13.8175 -12.0902 -11.8485 -11.0215 -13.1315 -10.6395 -9.801001 -9.116 -9.435 -9.0065 -11.7104 -14.57 -13.8475 
