-4.759 
n/a 
n/a 
n/a 
n/a 
-4.759 
n/a 
n/a 
n/a 
n/a 
-4.759 
n/a 
n/a 
n/a 
n/a 
-4.759 
n/a 
n/a 
n/a 
n/a 
-4.024 -2.985 -5.3695 -2.4285 -4.809 -3.989 -4.302 -3.3255 -1.4985 -3.5765 -3.9115 
-6.806 -7.073 -6.8775 -7.2505 -8.59 -8.554501 -7.4145 -3.8945 -5.732 -7.567 
-11.369 -9.2665 -12.7809 -10.233 -13.3583 -11.8346 -7.946 -8.908501 -8.499001 
-13.5625 -15.2335 -15.7634 -15.0013 -16.6384 -12.3661 -13.2492 -11.9221 
-19.5295 -18.216 -20.5317 -18.2814 -17.1699 -17.6693 -16.2628 
-4.31 -3.681 -1.756 -4.896 -2.7765 -2.489 -4.236 -3.3195 0 
-6.777501 -5.339 -6.4525 -7.071001 -3.495 -5.3765 -7.7145 -3.3195 
-9.519001 -9.113001 -8.804501 -7.443001 -5.5885 -9.007 -7.7145 
-13.2822 -11.5378 -9.099 -9.840001 -9.096001 -9.007 
-15.707 -11.8323 -11.5858 -13.3475 -9.096001 
-4.809 -4.414 -1.756 -4.374 -1.7695 -3.275 -2.985 -4.2115 0 
-9.2255 -5.3535 -5.311 -5.7805 -4.3605 -6.3105 -6.1915 -4.2115 
-10.276 -7.3465 -6.3765 -9.6245 -6.691 -9.690001 -6.1915 
-12.269 -8.8555 -10.4765 -12.0156 -10.022 -9.690001 
-13.778 -13.0449 -13.3168 -15.3466 -10.022 
-4.647 -2.7765 -3.5765 -3.2615 -3.322 -1.4985 -3.4025 -1.934 -3.308 -4.398 0 
-7.021 -6.418 -7.1705 -7.197001 -4.2895 -5.701 -4.945 -5.954 -7.011 -4.398 
-11.1095 -10.3745 -11.674 -8.494 -7.1115 -6.961501 -8.973001 -9.653 -7.011 
-15.066 -14.878 -12.971 -10.4585 -8.3365 -11.3751 -12.7298 -9.653 
-19.5695 -16.175 -14.9355 -12.2535 -12.9105 -15.1319 -12.7298 
