-4.759 
n/a 
n/a 
n/a 
n/a 
-4.759 
n/a 
n/a 
n/a 
n/a 
-4.759 
n/a 
n/a 
n/a 
n/a 
-4.759 
n/a 
n/a 
n/a 
n/a 
-2.7455 -4.055 -3.543 -4.5385 -1.7565 -1.4985 -3.995 -2.229 -4.285 -4.35 -2.186 -4.954 -2.3345 -5.057 -1.7565 -3.4715 0 -6.982 0 -1.756 -2.8965 -3.8195 -2.3345 -5.057 -1.7565 -5.189 -1.756 -4.7715 0 -6.614 0 -1.756 -1.4985 -5.057 -1.7565 -1.4985 -3.599 0 -4.6985 0 
-7.41 -6.9635 -4.669 -5.173 -2.4195 -4.712 -5.324 -6.3755 -6.4325 -5.8735 -6.504001 -5.698 -6.9215 -5.9645 -4.699 -3.4715 -6.982 -6.982 -1.756 -3.751 -5.3235 -6.2655 -6.9215 -5.9645 -6.421 -6.1265 -6.537 -4.7715 -6.614 -6.614 -1.756 -3.0405 -6.0135 -5.9645 -2.4195 -4.6155 -3.599 -4.6985 -4.6985 
-8.958 -7.347001 -5.1795 -5.6295 -5.2205 -5.586 -7.772501 -9.088 -8.087501 -9.874001 -6.782001 -10.9598 -9.308001 -8.624001 -4.699 -9.4805 -6.982 -7.8205 -3.751 -6.188 -7.918 -11.4205 -9.308001 -10.6735 -7.147501 -7.998 -6.537 -10.1635 -6.614 -7.717 -3.0405 -7.6095 -6.383501 -7.0845 -5.663001 -4.6155 -7.821 -4.6985 
-9.050501 -7.7475 -5.634501 -8.361501 -6.115 -7.958001 -10.5425 -10.127 -12.1884 -9.9545 -12.2102 -13.3463 -12.3827 -8.624001 -10.3675 -9.4805 -7.8205 -10.228 -6.188 -8.6715 -13.2832 -13.807 -14.4322 -10.7405 -8.663 -7.998 -12.393 -10.1635 -7.717 -8.5515 -7.6095 -8.047 -7.304501 -10.2535 -5.663001 -8.98 -7.821 
-9.179501 -8.330501 -8.3625 -8.387501 -8.615001 -10.6465 -11.5815 -14.6975 -12.2689 -15.5065 -14.5967 -16.421 -12.3827 -14.4635 -10.3675 -10.444 -10.228 -13.0492 -8.6715 -14.2007 -15.6697 -18.9312 -14.4992 -10.766 -8.663 -14.0932 -12.393 -11.3907 -8.5515 -13.3769 -8.047 -9.177 -10.503 -10.2535 -9.964001 -8.98 
-1.4985 -3.995 -2.186 -4.96 -1.7565 -4.055 0 -1.7565 -4.4505 -3.4715 -1.7565 -5.059 -1.756 -2.8965 -3.9035 -3.115 -5.5025 0 -9.1625 -1.756 -4.6425 -3.4715 -2.9705 -2.186 -3.699 -2.0935 -4.6975 -2.0935 -3.8245 -3.681 0 
-4.712 -5.7465 -5.5865 -5.1815 -6.219 -4.055 -1.7565 -5.6655 -5.952 -6.065001 -6.89 -6.0995 -3.751 -5.4185 -6.951 -9.269001 -5.5025 -9.1625 -10.068 -5.872 -5.203001 -6.2135 -3.89 -4.636 -5.118 -6.6455 -6.524 -5.878 -6.1385 -3.681 
-6.1195 -8.59 -5.648 -9.289001 -6.219 -6.264501 -5.6655 -7.1595 -8.223001 -9.726501 -7.5815 -8.3645 -6.2585 -7.977 -13.2644 -9.269001 -15.651 -10.068 -14.184 -6.703 -7.8525 -6.876 -6.618001 -5.6355 -10.1895 -8.7045 -10.513 -8.017 -6.1385 
-8.8365 -8.685 -9.545501 -9.289001 -8.467501 -10.8035 -7.1595 -9.516001 -10.3285 -10.1455 -9.9325 -10.5975 -9.561001 -14.9068 -13.2644 -19.5535 -16.5565 -14.184 -15.015 -9.4595 -8.3365 -9.3795 -7.1495 -10.688 -12.3041 -12.9855 -12.652 -8.017 
-8.963501 -12.8565 -9.545501 -11.6805 -13.2243 -12.2975 -9.516001 -11.6945 -10.4615 -12.6797 -12.2193 -14.6884 -16.598 -14.9068 -23.5489 -20.459 -20.6725 -15.015 -17.7715 -10.369 -11.1746 -9.892501 -12.2228 -12.8026 -16.5851 -15.1245 -12.652 
-3.995 -3.486 -4.055 0 -3.098 -4.4505 -3.4715 -1.756 -3.486 -3.355 -2.186 -3.873 -1.756 -2.5685 -4.2225 -2.645 -3.321 -4.541 
-8.7205 -8.749001 -4.055 -3.098 -8.0275 -5.952 -4.7575 -6.2845 -6.8615 -5.3935 -6.752 -5.114 -4.2335 -6.213 -7.022 -5.660501 -8.5115 
-14.3127 -8.749001 -8.192501 -8.0275 -8.922501 -7.206 -9.790001 -9.844 -8.9065 -9.0935 -7.2505 -7.562 -7.846001 -9.3085 -9.661001 -10.674 
-14.3127 -12.9103 -13.3748 -8.922501 -9.8365 -12.6065 -13.4671 -11.9982 -12.7955 -10.781 -10.286 -10.733 -10.6095 -12.2175 -14.8777 
-18.474 -18.0926 -14.2698 -9.8365 -15.8026 -16.2836 -15.6213 -15.8872 -14.483 -13.8165 -13.6816 -13.4965 -13.5185 -17.4342 
-3.1435 -3.1125 -4.54 -2.3345 -5.812 -4.1115 -4.644 0 -6.384501 0 -4.6425 -4.644 -2.9705 -2.186 -3.699 -2.0935 -3.8245 -5.164 0 
-5.939 -6.334001 -5.9925 -8.0245 -7.6645 -7.596001 -4.644 -6.384501 -6.384501 -4.6425 -7.9045 -6.928 -3.89 -4.636 -5.118 -5.878 -6.658 -5.164 
-9.998 -7.272501 -12.3607 -9.885 -10.5745 -7.596001 -10.784 -6.384501 -11.9718 -7.9045 -10.3285 -8.281 -6.618001 -5.6355 -8.915 -8.501 -6.658 
-11.0133 -13.8911 -14.2212 -12.9836 -10.5745 -14.0814 -10.784 -11.9718 -15.2338 -10.3285 -11.6815 -10.564 -7.1495 -9.6085 -11.9004 -8.501 
-17.6319 -15.7516 -17.3198 -12.9836 -17.0599 -14.0814 -16.3713 -15.2338 -17.6578 -11.6815 -13.9645 -10.776 -11.1433 -12.5667 -11.9004 
