-4.759 
n/a 
n/a 
n/a 
n/a 
-4.759 
n/a 
n/a 
n/a 
n/a 
-4.759 
n/a 
n/a 
n/a 
n/a 
-4.759 
n/a 
n/a 
n/a 
n/a 
-10.5585 0 -12.16972 0 -9.443501 -8.6765 
-11.0145 -12.16972 -12.16972 -9.443501 -10.5535 
-23.68582 -12.16972 -21.61322 -10.5535 
-23.68582 -21.61322 -22.72322 
-33.12932 -22.72322 
-10.5585 0 -6.5875 0 0 -8.254001 -8.6765 
-11.0145 -6.5875 -6.5875 0 -8.254001 -9.026001 
-13.33 -6.5875 -6.5875 -8.254001 -9.026001 
-13.33 -6.5875 -15.7711 -9.026001 
-13.33 -15.7711 -16.5431 
-10.5585 0 -6.5875 0 0 -6.2665 -8.6765 
-11.0145 -6.5875 -6.5875 0 -6.2665 -9.3345 
-13.33 -6.5875 -6.5875 -6.2665 -9.3345 
-13.33 -6.5875 -13.7836 -9.3345 
-13.33 -13.7836 -16.8516 
-2.1715 -8.387 0 -6.5875 0 0 -8.254001 -8.6765 
-11.0145 -8.387 -6.5875 -6.5875 0 -8.254001 -9.026001 
-11.0145 -10.7025 -6.5875 -6.5875 -8.254001 -9.026001 
-13.33 -10.7025 -6.5875 -15.7711 -9.026001 
-13.33 -10.7025 -15.7711 -16.5431 
