-4.759 
n/a 
n/a 
n/a 
n/a 
-4.759 
n/a 
n/a 
n/a 
n/a 
-4.759 
n/a 
n/a 
n/a 
n/a 
-4.759 
n/a 
n/a 
n/a 
n/a 
-1.934 -4.4675 -1.756 -4.1855 -9.6365 0 -3.502 -4.317 -4.9225 -1.756 -4.3665 -4.657 
-5.652 -6.0795 -6.391 -14.2596 -9.6365 -3.502 -5.926 -7.686501 -6.156 -6.423 -7.768001 
-6.6085 -7.349 -16.9115 -14.2596 -13.2647 -5.926 -8.734 -8.900001 -10.199 -10.2645 
-8.366501 -18.0013 -16.9115 -17.8878 -15.6887 -8.734 -10.5425 -13.0738 -14.3157 
-19.3116 -18.0013 -20.5397 -20.3118 -18.4967 -10.5425 -14.7163 -17.1905 
-1.934 -4.4675 -2.229 -1.756 -4.1855 -2.229 -3.3715 -8.27 0 -3.502 -4.317 -3.1385 -1.756 -5.742 0 -3.9535 -4.1655 -3.0365 -1.934 -3.3715 0 
-5.652 -5.793 -4.366 -6.391 -5.8465 -5.877501 -10.1995 -8.27 -3.502 -5.926 -7.0565 -4.6325 -7.307 -5.742 -3.9535 -7.0065 -7.1105 -5.238 -4.622 -3.3715 
-7.7135 -6.8525 -7.5515 -7.4935 -8.366501 -12.9533 -10.1995 -12.1988 -5.926 -8.274 -8.4455 -9.592501 -7.307 -9.238 -7.0065 -9.661 -8.281 -8.009501 -4.622 
-8.9145 -7.5785 -7.557 -9.658 -15.6745 -12.9533 -14.1283 -14.6228 -8.274 -9.7135 -13.5973 -9.592501 -10.9808 -12.446 -9.661 -10.624 -11.3981 -8.009501 
-9.5605 -7.581501 -9.6715 -17.058 -15.6745 -16.8821 -16.5523 -16.9708 -9.7135 -14.9063 -13.5973 -13.3761 -14.1888 -15.1005 -10.624 -13.7411 -11.3981 
-2.5195 -4.4675 -1.7695 -4.1855 0 -3.17 -1.7565 -1.4985 -2.688 -5.0375 -3.152 -8.27 0 -2.8965 -3.502 -4.317 -3.1385 -1.756 -5.742 0 
-6.433 -6.188 -6.322001 -4.1855 -3.17 -4.179 -2.4195 -3.702 -6.699501 -7.041501 -10.784 -8.27 -2.8965 -6.759 -5.926 -7.0565 -4.6325 -7.307 -5.742 
-6.727 -7.6815 -6.322001 -7.684 -4.179 -4.497 -4.636 -7.696 -8.6035 -15.0755 -10.784 -11.5933 -6.759 -7.896501 -8.274 -8.4455 -9.592501 -7.307 
-7.906 -7.6815 -9.2325 -8.269 -4.497 -6.886 -8.324 -9.112 -16.6933 -15.0755 -14.1073 -15.4558 -7.896501 -10.3745 -9.7135 -13.5973 -9.592501 
-7.906 -10.7175 -9.681001 -8.5185 -6.886 -9.418 -9.750001 -17.2208 -16.6933 -18.3988 -17.9698 -16.5933 -10.3745 -11.814 -14.9063 -13.5973 
-2.688 -5.0375 -1.934 -4.4675 -1.756 -4.1855 0 -3.152 -1.934 -4.015 -8.27 0 -2.8965 -3.502 -4.317 -3.1385 0 -1.756 -5.742 0 
-6.699501 -6.217 -5.652 -6.0795 -6.391 -4.1855 -3.152 -4.9115 -4.6075 -13.2948 -8.27 -2.8965 -6.759 -5.926 -7.0565 -3.1385 -1.756 -7.307 -5.742 
-7.967 -9.694501 -6.6085 -7.349 -6.391 -7.484 -4.9115 -8.366 -14.0765 -13.2948 -11.5933 -6.759 -7.896501 -8.274 -7.0565 -4.6325 -7.307 -7.307 
-11.6303 -10.6905 -8.366501 -7.349 -8.591001 -9.3725 -8.366 -17.9402 -14.0765 -16.6181 -15.4558 -7.896501 -10.3745 -8.274 -8.4455 -9.592501 -7.307 
-12.6263 -12.4485 -8.366501 -9.4685 -10.3745 -12.862 -17.9402 -17.9402 -17.3998 -20.4806 -16.5933 -10.3745 -10.3745 -9.7135 -13.5973 -9.592501 
