-4.759 
n/a 
n/a 
n/a 
n/a 
-4.759 
n/a 
n/a 
n/a 
n/a 
-4.759 
n/a 
n/a 
n/a 
n/a 
-4.759 
n/a 
n/a 
n/a 
n/a 
-2.925 -3.5155 -3.6845 -4.2705 -1.7695 -3.7825 -4.799 0 -8.1145 0 -5.3125 0 0 -7.953001 0 -5.306 0 0 -7.344501 0 -5.2455 0 0 -7.332 0 -4.8065 0 
-5.5835 -7.202 -6.205 -5.587 -5.3295 -6.857 -4.799 -8.1145 -8.1145 -5.3125 -5.3125 0 -7.953001 -7.953001 -5.306 -5.306 0 -7.344501 -7.344501 -5.2455 -5.2455 0 -7.332 -7.332 -4.8065 -4.8065 
-8.2145 -9.537001 -6.542 -8.088 -9.200001 -6.857 -10.0255 -8.1145 -13.9096 -5.3125 -5.3125 -7.953001 -7.953001 -11.136 -5.306 -5.306 -7.344501 -7.344501 -11.08 -5.2455 -5.2455 -7.332 -7.332 -12.7031 -4.8065 
-10.6771 -9.7 -9.378501 -9.566 -9.200001 -10.396 -10.0255 -13.9096 -13.9096 -5.3125 -10.2985 -7.953001 -11.136 -11.136 -5.306 -10.233 -7.344501 -11.08 -11.08 -5.2455 -13.2637 -7.332 -12.7031 -12.7031 
-10.8401 -12.8931 -11.0621 -9.566 -12.8196 -10.396 -16.3422 -13.9096 -13.9096 -10.2985 -10.2985 -11.136 -11.136 -11.136 -10.233 -10.233 -11.08 -11.08 -11.08 -13.2637 -13.2637 -12.7031 -12.7031 
-1.934 -3.739 0 -2.925 -3.251 -2.543 -4.799 0 -8.1145 0 -5.3125 0 0 -7.953001 0 -4.5255 0 0 -7.344501 0 -5.2455 0 -1.756 -7.332 0 -4.8065 0 
-5.3175 -3.739 -2.925 -4.617 -6.4915 -7.6025 -4.799 -8.1145 -8.1145 -5.3125 -5.3125 0 -7.953001 -7.953001 -4.5255 -4.5255 0 -7.344501 -7.344501 -5.2455 -5.2455 -1.756 -9.021501 -7.332 -4.8065 -4.8065 
-5.3175 -6.482 -4.617 -7.876 -8.684 -7.6025 -10.0255 -8.1145 -13.9096 -5.3125 -5.3125 -7.953001 -7.953001 -13.0381 -4.5255 -4.5255 -7.344501 -7.344501 -11.08 -5.2455 -7.057 -9.021501 -9.021501 -12.7031 -4.8065 
-7.87 -8.5915 -7.876 -9.251 -8.684 -13.1688 -10.0255 -13.9096 -13.9096 -5.3125 -10.2985 -7.953001 -13.0381 -13.0381 -4.5255 -12.2578 -7.344501 -11.08 -11.08 -7.057 -10.2695 -9.021501 -14.4876 -12.7031 
-10.1855 -11.9853 -9.251 -9.251 -14.4553 -13.1688 -16.3422 -13.9096 -13.9096 -10.2985 -10.2985 -13.0381 -13.0381 -13.0381 -12.2578 -12.2578 -11.08 -11.08 -12.8915 -10.2695 -10.2695 -14.4876 -14.4876 
-3.882 -2.925 -3.251 -3.7825 -4.799 -4.281 -8.1145 0 -5.3125 0 0 -7.953001 0 -5.306 0 -7.344501 0 -5.2455 0 0 -7.332 0 -4.8065 0 
-6.1415 -4.617 -6.1975 -6.857 -8.1745 -12.7121 -8.1145 -5.3125 -5.3125 0 -7.953001 -7.953001 -5.306 -5.306 -7.344501 -7.344501 -5.2455 -5.2455 0 -7.332 -7.332 -4.8065 -4.8065 
-7.663 -7.4345 -7.8015 -9.394001 -16.7346 -12.7121 -13.9096 -5.3125 -5.3125 -7.953001 -7.953001 -11.136 -5.306 -10.233 -7.344501 -11.08 -5.2455 -5.2455 -7.332 -7.332 -12.7031 -4.8065 
-10.287 -8.484 -10.159 -18.2721 -16.7346 -18.5072 -13.9096 -5.3125 -10.2985 -7.953001 -11.136 -11.136 -10.233 -10.233 -11.08 -11.08 -5.2455 -13.2637 -7.332 -12.7031 -12.7031 
-11.3815 -11.0657 -19.0371 -18.2721 -22.5297 -18.5072 -13.9096 -10.2985 -10.2985 -11.136 -11.136 -16.063 -10.233 -14.6697 -11.08 -11.08 -13.2637 -13.2637 -12.7031 -12.7031 
-3.291 -3.3855 -4.3465 -4.2705 -1.7695 -3.7825 -4.799 -8.1145 -5.3125 -7.953001 -5.306 -8.840501 -5.2455 -8.063001 -4.8065 
-6.9825 -5.936 -6.078501 -5.587 -5.3295 -6.857 -10.0255 -13.9096 -10.2985 -11.136 -14.7757 -14.2828 -13.9947 -13.3959 
-9.4335 -6.951 -6.1835 -8.088 -9.200001 -10.396 -16.3422 -18.8956 -14.6059 -20.6057 -20.218 -23.032 -19.3276 
-10.5659 -7.06 -8.665501 -9.566 -12.8196 -16.8523 -21.3282 -23.203 -24.0756 -26.048 -28.9672 -28.3649 
-10.6749 -9.3485 -9.705501 -13.1982 -19.2759 -21.8383 -25.6356 -32.6727 -29.5179 -34.7972 -34.3001 
