-4.759 
n/a 
n/a 
n/a 
n/a 
-4.759 
n/a 
n/a 
n/a 
n/a 
-4.759 
n/a 
n/a 
n/a 
n/a 
-4.759 
n/a 
n/a 
n/a 
n/a 
-12.16972 -9.707001 -12.16972 -12.16972 -12.16972 -12.16972 0 
-21.87672 -22.17472 -24.33944 -24.33944 -24.33944 -12.16972 
-34.34444 -34.34444 -36.50916 -36.50916 -24.33944 
-46.51416 -46.51416 -48.67888 -36.50916 
-58.68388 -58.68388 -48.67888 
-1.4985 -3.473 -1.7565 -12.16972 -1.756 -12.16972 0 
-5.1495 -4.7225 -14.87542 -13.92572 -14.93432 -12.16972 
-6.0175 -18.35342 -16.63142 -27.10404 -14.93432 
-20.71022 -20.10942 -29.80974 -27.10404 
-22.46622 -33.28774 -29.80974 
-12.16972 0 -12.16972 -2.186 -4.9385 -1.934 -3.6185 
-12.16972 -12.16972 -14.35572 -6.113 -5.7735 -6.4945 
-24.33944 -14.35572 -18.28272 -6.876501 -8.509501 
-26.52544 -18.28272 -19.04622 -10.172 
-30.45244 -19.04622 -22.34172 
-6.8715 -2.8645 -8.086 -3.2495 -6.237 -2.186 -5.082 -9.979 -1.756 -7.419 -9.979 
-9.362 -10.8215 -12.1145 -7.838 -7.356 -7.7065 -16.0632 -11.7768 -9.47 -18.0014 
-17.4852 -14.85 -16.6995 -9.653501 -13.7575 -19.0483 -17.861 -19.4908 -20.2452 
-21.5137 -19.435 -17.9845 -15.3218 -25.3913 -20.8461 -25.575 -30.266 
-26.0987 -20.72 -24.3588 -26.8828 -27.1891 -28.5601 -36.3502 
