-4.759 
n/a 
n/a 
n/a 
n/a 
-4.759 
n/a 
n/a 
n/a 
n/a 
-4.759 
n/a 
n/a 
n/a 
n/a 
-4.759 
n/a 
n/a 
n/a 
n/a 
-3.2615 -4.7325 -2.5685 -3.091 -4.6555 0 -8.842501 -4.351 -3.251 -1.7695 -8.908 
-6.1645 -6.532 -5.3505 -6.7045 -4.6555 -8.842501 -13.4429 -6.97 -3.664 -10.7175 
-8.203501 -8.3975 -8.0795 -6.7045 -14.7888 -13.4429 -16.0619 -7.119501 -13.1132 
-9.165501 -10.4115 -8.0795 -17.3842 -19.3892 -16.0619 -16.2114 -16.8699 
-11.4275 -10.4115 -18.8554 -21.9846 -22.0082 -16.2114 -25.9618 
-3.2615 -5.9875 -2.5685 -1.4985 -4.6555 -8.165 -3.6955 -3.251 -1.7695 -7.449 
-7.740001 -7.719 -3.7015 -5.724501 -14.1113 -12.2357 -4.9205 -3.664 -9.874001 
-9.283001 -8.2675 -7.451 -15.9007 -18.182 -13.4607 -5.5275 -12.2697 
-10.01 -12.4962 -18.1902 -19.9714 -19.407 -14.0677 -14.6458 
-14.5391 -23.2354 -22.2609 -21.1964 -20.014 -23.186 
-3.2615 -3.966 -2.5685 -1.4985 -4.045 -2.9805 -6.3305 -7.172 -1.756 -3.693 -3.918 -2.356 -3.091 -4.284 -7.449 0 
-7.83 -6.0865 -3.7015 -5.334001 -7.3485 -9.1215 -14.5371 -9.040501 -5.153501 -7.728001 -6.205501 -4.513 -4.863 -10.862 -7.449 
-10.298 -7.226 -6.8585 -8.415001 -13.8365 -17.6507 -16.4056 -12.591 -9.316501 -9.089001 -8.246 -5.7775 -11.7526 -10.862 
-11.4375 -10.586 -9.8125 -14.9258 -22.3657 -19.5192 -19.9561 -16.754 -10.661 -11.1857 -9.588501 -12.9453 -11.7526 
-14.7975 -13.54 -16.3775 -23.455 -24.2342 -23.0697 -24.1191 -18.0985 -12.7577 -12.5282 -16.8673 -12.9453 
-2.5045 -3.228 0 -6.754 0 -8.842501 -5.5105 -3.091 -4.8825 0 -1.756 -4.351 -3.251 -1.7695 -7.449 
-5.1825 -3.228 -6.754 -6.754 -8.842501 -14.6024 -7.825001 -6.9745 -4.8825 -1.756 -5.659 -6.97 -3.664 -9.874001 
-5.1825 -10.7665 -6.754 -16.3017 -14.6024 -16.9169 -8.779501 -6.9745 -6.168 -5.659 -7.9915 -7.119501 -12.2697 
-12.8316 -10.7665 -16.3017 -22.0616 -16.9169 -17.8714 -8.779501 -7.8065 -9.563001 -7.9915 -8.1415 -16.0264 
-12.8316 -20.3142 -22.0616 -24.3761 -17.8714 -17.8714 -9.2045 -10.4105 -11.9591 -8.1415 -17.0684 
