-4.759 
n/a 
n/a 
n/a 
n/a 
-4.759 
n/a 
n/a 
n/a 
n/a 
-4.759 
n/a 
n/a 
n/a 
n/a 
-4.759 
n/a 
n/a 
n/a 
n/a 
-1.4985 -3.0105 -6.318 -2.674 -3.6845 -1.4985 -4.4445 -1.7565 -3.5645 -4.0955 -4.2655 -1.7695 -2.489 -5.286 0 -2.9705 -2.8645 -4.157 -4.2815 -1.7695 -1.4985 -3.158 -4.1855 -2.9705 -2.7415 -4.922 0 0 
-5.157001 -9.312 -9.892 -7.4205 -4.8155 -5.4015 -5.1695 -4.9395 -6.563 -6.586 -6.4415 -3.1405 -8.080501 -4.508 -2.9705 -4.6335 -5.4365 -7.2985 -4.4915 -2.7955 -4.178 -6.3675 -7.107 -4.512 -7.4805 -4.059 0 
-11.9787 -12.9018 -14.6385 -8.5965 -8.916 -5.565 -7.743001 -7.8715 -8.3465 -8.397 -7.5225 -8.642 -7.9165 -8.0255 -4.6335 -7.302001 -8.481501 -7.5065 -5.0185 -6.1225 -7.503 -9.460501 -8.171 -9.351001 -7.4215 -4.059 
-15.5685 -17.6483 -15.8145 -12.7886 -9.137501 -7.9755 -11.1126 -9.932501 -10.533 -9.3725 -13.3138 -8.601001 -10.733 -9.578501 -7.302001 -10.66 -8.5995 -7.9045 -7.238501 -8.691501 -9.812 -10.3555 -13.2667 -9.390501 -7.4215 
-20.315 -18.8243 -20.0066 -13.0101 -11.6672 -11.4313 -13.1736 -12.175 -11.5085 -15.3732 -13.3138 -11.7097 -12.286 -12.4926 -10.66 -10.725 -8.986 -9.804501 -9.352501 -11.2701 -10.589 -15.4512 -13.2667 -9.390501 
-1.934 -3.0105 -3.5085 -4.4345 -1.7565 -3.5645 -5.003 -2.186 -5.286 0 0 -1.934 -4.1855 -2.3615 -2.7415 -2.5045 -4.922 0 0 
-4.827 -5.5005 -6.891 -4.719 -4.9395 -6.8015 -7.134501 -7.557 -4.508 0 -1.934 -5.408 -6.7565 -4.455 -5.0365 -6.290501 -4.059 0 
-7.8195 -10.304 -7.3895 -7.2735 -8.026501 -8.767 -12.7737 -7.497 -4.508 -1.934 -5.408 -7.502501 -8.158501 -6.967 -10.156 -7.052001 -4.059 
-13.0388 -10.8025 -9.932501 -10.3035 -9.6295 -14.406 -12.7737 -7.497 -6.981 -5.408 -7.502501 -8.7045 -10.7575 -11.3545 -9.662001 -7.052001 
-13.5373 -13.3455 -12.9625 -11.9065 -15.4175 -14.406 -12.7737 -9.432 -9.792001 -7.502501 -8.7045 -11.3619 -15.3332 -11.5427 -9.662001 
-2.264 -3.0105 -5.003 -3.5085 -7.6875 -2.186 -3.6215 -5.286 0 -3.299 -2.5045 -2.4265 -2.186 0 -2.3615 -1.934 -4.1855 -4.157 -1.7695 -4.922 0 0 
-5.783501 -8.762501 -9.509001 -12.1786 -9.415501 -5.7995 -8.172501 -4.508 -3.299 -5.551001 -4.228 -3.292 -2.186 -2.3615 -4.886 -5.408 -8.364 -5.6485 -6.3805 -4.059 0 
-12.7079 -13.5169 -18.2843 -13.9066 -13.0814 -9.7305 -8.256001 -8.345 -5.551001 -7.174 -4.900001 -3.292 -4.4675 -4.886 -8.873 -9.194501 -9.514 -9.095 -6.548 -4.059 
-17.4623 -22.2922 -20.0123 -17.5725 -16.7924 -9.5105 -12.5432 -11.7206 -7.174 -7.751501 -4.900001 -5.796 -6.845 -8.873 -12.8069 -9.7115 -12.721 -8.8555 -6.548 
-26.2376 -24.0202 -23.6782 -21.2835 -16.7924 -13.8365 -15.9188 -13.6422 -7.751501 -7.751501 -7.3555 -8.519 -11.0196 -12.8069 -13.3239 -12.9185 -12.721 -8.8555 
-1.934 -3.0105 -3.158 -3.5085 -4.2655 -1.7695 -4.174 -5.286 0 -2.3615 -4.1855 -3.158 -4.922 0 
-4.827 -6.226 -6.1945 -8.9405 -6.4415 -5.6635 -8.347 -4.508 -2.3615 -8.0135 -7.298 -7.1025 -4.059 
-8.028501 -8.8605 -11.9671 -11.4077 -10.66 -11.3195 -9.072001 -7.600501 -8.0135 -11.3644 -12.6506 -7.648001 
-10.9816 -14.7875 -14.4343 -15.6262 -16.6446 -11.6481 -12.3097 -13.6435 -11.3644 -16.717 -12.6506 
-16.9086 -17.2547 -18.6528 -21.6108 -16.6446 -14.8858 -18.3527 -16.9944 -16.717 -16.717 
