-4.759 
n/a 
n/a 
n/a 
n/a 
-4.759 
n/a 
n/a 
n/a 
n/a 
-4.759 
n/a 
n/a 
n/a 
n/a 
-4.759 
n/a 
n/a 
n/a 
n/a 
-2.9805 -3.5095 -3.091 -9.4 -3.074 -4.811 -1.756 -3.7555 -2.4285 -5.4335 -1.4985 -4.0965 -2.5195 -4.374 
-6.650001 -6.2925 -13.7845 -13.0795 -8.835501 -5.948 -5.2875 -7.4675 -7.9865 -6.2375 -5.3165 -6.936501 -6.809 
-8.5345 -17.5208 -17.3704 -19.0688 -10.249 -9.0345 -9.598001 -13.6835 -9.0555 -9.772 -7.756001 -11.669 
-19.8902 -20.9243 -23.3597 -20.4823 -13.3355 -13.4892 -16.2564 -14.7525 -12.67 -12.7095 -12.8707 
-23.2937 -26.9136 -24.7732 -23.5688 -17.7902 -20.1476 -17.3254 -18.367 -15.6075 -17.8242 
-2.9805 -3.998 -2.186 -4.4455 -1.756 -3.091 -3.1385 -4.544 -1.4985 -4.0965 -2.5195 -3.595 
-5.516 -6.1505 -7.626 -5.7155 -4.2995 -5.796 -8.068001 -5.429 -5.3165 -6.936501 -5.5205 
-8.5315 -12.0451 -9.202001 -7.002501 -6.8245 -10.674 -9.214001 -10.1145 -7.756001 -9.1245 
-14.7151 -13.6211 -10.649 -10.1265 -11.8007 -11.82 -13.9899 -12.5082 -9.4195 
-16.2911 -15.0681 -13.773 -15.1027 -12.9467 -16.5959 -16.3836 -14.1717 
-3.135 -5.515 -2.674 -3.4765 -6.1275 -3.1495 -8.071501 -2.5045 -3.882 -4.874 -1.756 -6.697001 -2.5045 -4.2235 -3.9535 0 
-7.121 -6.748 -5.7815 -8.887 -8.5045 -9.923 -9.897001 -7.137501 -7.6 -6.1495 -7.654 -8.4805 -6.778 -6.426001 -3.9535 
-7.940501 -9.401001 -10.1425 -10.523 -10.7335 -10.7065 -10.7375 -9.326 -8.604 -10.733 -9.277 -10.6475 -8.3055 -6.426001 
-9.674001 -10.7345 -10.74 -10.75 -10.76 -10.762 -10.764 -10.4865 -10.7335 -10.7595 -10.7335 -10.7555 -8.3055 
-10.735 -10.761 -10.7665 -10.7765 -10.7865 -10.7885 -10.7905 -10.7495 -10.76 -10.786 -10.76 -10.7555 
-2.9805 -4.2425 -2.857 -4.6825 -1.7695 -4.972 -1.7695 -4.5315 -1.756 -5.735 
-7.245 -7.104 -7.620501 -6.7485 -8.114 -7.437 -7.611501 -5.5845 -7.815001 
-9.9505 -12.1965 -9.6665 -13.5574 -10.7495 -13.7806 -8.2705 -12.8143 
-15.043 -14.2425 -16.4668 -16.1929 -17.0931 -14.4396 -15.9591 
-17.089 -21.0428 -19.1023 -22.5365 -17.7521 -22.1282 
