-4.759 
n/a 
n/a 
n/a 
n/a 
-4.759 
n/a 
n/a 
n/a 
n/a 
-4.759 
n/a 
n/a 
n/a 
n/a 
-4.759 
n/a 
n/a 
n/a 
n/a 
-4.1205 -8.971001 -8.054001 -4.4305 -1.756 -3.7375 -3.769 -3.152 -4.5025 -2.0935 -6.407001 0 
-9.913501 -15.875 -12.8205 -6.0485 -6.0675 -6.164001 -5.830501 -6.352 -5.6995 -8.803 -6.407001 
-18.3041 -20.3966 -14.4385 -11.0298 -7.8105 -7.909 -8.369 -7.778501 -13.3028 -8.803 
-22.1136 -22.8176 -19.4198 -12.7728 -9.594501 -10.6313 -10.238 -15.4752 -13.3028 
-24.9748 -27.7989 -21.1628 -14.5568 -12.347 -12.5003 -17.9347 -15.4752 
-4.1205 -2.791 -3.757 -5.824 -4.4305 -1.756 -3.7375 -3.769 -5.5305 -6.407001 -2.5045 -1.4985 -3.535 -4.0195 -2.0935 -3.8275 
-6.574 -6.0255 -7.2795 -5.986001 -6.0485 -6.0675 -6.164001 -8.474501 -13.1371 -8.440001 -3.583 -4.255 -6.5805 -5.5855 -5.919001 
-7.2775 -8.7895 -7.285 -7.652 -11.0298 -7.8105 -11.3091 -16.0641 -15.1701 -9.342501 -5.9615 -6.651501 -7.633 -8.3 
-9.9615 -8.7915 -8.635501 -13.2617 -12.7728 -13.0298 -18.8987 -18.0971 -16.0726 -11.7632 -7.848001 -7.6975 -10.733 
-9.966001 -10.2435 -14.3878 -15.0047 -17.9921 -20.6194 -20.9317 -18.9996 -18.4933 -13.6497 -8.764001 -10.8485 
-4.1205 -5.9795 -3.468 0 -3.757 -5.824 -4.4305 -1.756 -3.769 -5.5305 -1.4985 -6.407001 -6.4975 0 
-10.0345 -6.864 -3.468 -3.757 -7.2795 -5.986001 -6.0485 -4.496 -8.474501 -6.476 -8.284 -13.8385 -6.4975 
-10.1775 -6.864 -6.798 -7.2795 -7.285 -7.652 -7.7315 -9.197001 -8.9075 -13.7511 -16.2345 -13.8385 
-10.1775 -9.885 -9.073 -7.285 -8.635501 -9.842501 -12.8033 -9.7095 -16.2752 -21.7016 -16.2345 
-13.1985 -12.4062 -9.075001 -8.635501 -10.434 -14.9143 -13.3158 -17.118 -24.2257 -21.7016 
-4.1205 -3.4225 -3.676 -3.757 -8.582001 -4.4305 -1.756 -3.769 -2.186 -3.074 -1.934 
-6.933001 -7.8135 -7.16 -13.386 -10.0285 -6.0485 -4.496 -6.059501 -4.156 -4.93 
-11.8244 -11.8359 -17.27 -14.8325 -11.9417 -7.7315 -6.999001 -8.031501 -6.1545 
-15.8468 -21.9459 -18.7165 -16.7457 -13.6247 -10.434 -8.89 -9.859001 
-25.9568 -23.3924 -20.6297 -18.4287 -16.3272 -12.5904 -10.7869 
