-4.759 
n/a 
n/a 
n/a 
n/a 
-4.759 
n/a 
n/a 
n/a 
n/a 
-4.759 
n/a 
n/a 
n/a 
n/a 
-4.759 
n/a 
n/a 
n/a 
n/a 
-5.42 -3.691 -2.4265 -2.8645 -1.8085 -4.1 -1.756 -2.4265 -2.186 -4.0885 -3.098 -1.4985 -3.4185 -1.7565 -3.3715 -3.4225 -3.468 -1.756 -4.37 -1.934 -1.4985 -3.8275 0 
-9.771 -6.4005 -4.1435 -3.9785 -5.4445 -5.774 -3.949 -3.292 -5.8685 -8.2145 -4.514 -5.019 -4.2475 -4.845 -7.8225 -3.628 -4.7175 -5.5395 -4.568501 -2.6125 -4.726 -3.8275 
-13.0413 -7.773 -5.1925 -7.7485 -7.318501 -7.6315 -4.7355 -7.743501 -9.585501 -9.8485 -8.028501 -6.382501 -7.3655 -8.9505 -8.182501 -4.925 -9.306 -5.672 -5.054 -5.815001 -4.726 
-14.4138 -8.802501 -9.1715 -9.865001 -8.7795 -8.267 -8.8885 -11.4987 -11.3415 -13.532 -9.482 -9.671 -12.135 -9.408501 -9.492001 -9.550501 -9.37 -6.328 -8.251501 -5.815001 
-15.4433 -12.9519 -11.5398 -11.3532 -9.4075 -12.6286 -12.8839 -13.2547 -15.025 -14.9855 -12.8339 -14.5527 -12.593 -10.4955 -14.6681 -9.635 -9.988 -9.9665 -8.251501 
-3.4775 -9.947001 -4.251 -1.7695 -5.268 -2.664 -8.256001 -3.8275 -2.229 0 
-14.3905 -14.2578 -6.290501 -7.489501 -9.202001 -12.1384 -12.3007 -6.368 -2.229 
-18.7013 -16.2973 -12.4117 -11.4001 -18.8688 -16.1831 -14.8412 -6.368 
-20.7408 -22.4185 -16.3223 -21.0669 -22.9135 -18.7236 -14.8412 
-26.862 -26.3291 -25.9891 -25.1116 -25.454 -18.7236 
-3.4775 -8.4825 -1.756 -2.8965 -7.4505 
-12.926 -10.0475 -3.751 -8.3985 
-14.491 -12.4157 -9.3695 
-16.8592 -18.0342 
-22.4777 
-3.1015 -3.691 -4.4715 -4.267 -2.356 -2.8965 -3.59 -2.229 -4.0415 -4.348 -1.7695 -4.319 -2.0935 0 
-7.2255 -8.448501 -9.411501 -6.6445 -4.4085 -5.941 -4.966 -5.372 -6.2215 -5.641 -4.9595 -5.385 -2.0935 
-12.816 -13.6411 -10.4865 -9.066 -8.4165 -7.551001 -7.373 -7.187 -7.4895 -7.506001 -5.9995 -5.385 
-18.0086 -14.7161 -13.502 -13.1322 -9.214001 -9.721001 -8.967 -8.441501 -9.3485 -8.945001 -5.9995 
-19.0836 -17.7316 -17.5682 -13.9297 -11.4694 -11.315 -10.127 -10.176 -11.0739 -8.945001 
