-4.759 
n/a 
n/a 
n/a 
n/a 
-4.759 
n/a 
n/a 
n/a 
n/a 
-4.759 
n/a 
n/a 
n/a 
n/a 
-4.759 
n/a 
n/a 
n/a 
n/a 
-4.079 -3.16 -2.186 -1.4985 -3.6705 -12.16972 
-7.9445 -5.883 -3.339 -5.144 -17.27442 
-9.6705 -7.0045 -7.1735 -19.55372 
-11.6586 -11.4398 -21.74242 
-16.0939 -26.00872 
-1.934 -4.9595 0 -3.432 -2.186 -1.8085 -4.3435 -1.7565 -3.16 
-7.603 -4.9595 -3.432 -5.681 -3.164 -6.6235 -5.325 -5.1555 
-7.603 -10.2385 -5.681 -6.3555 -8.0535 -7.797 -7.9285 
-13.0744 -12.4875 -6.3555 -12.1324 -8.6435 -10.7325 
-15.3234 -13.162 -12.1324 -12.7224 -12.2836 
-4.079 -3.6785 -2.9825 -2.186 -3.5795 -1.934 -3.16 
-6.6475 -7.516 -4.449 -7.236501 -5.5965 -5.4145 
-10.7982 -9.7725 -10.3815 -8.454 -9.507001 
-13.0547 -15.8414 -11.599 -12.5433 
-19.1236 -17.0589 -15.6883 
-4.079 0 -3.432 -2.186 -1.4985 -4.3435 -1.7565 -3.5025 
-4.079 -3.432 -5.681 -3.339 -5.6925 -5.325 -5.2375 
-8.9975 -5.681 -6.511 -7.4475 -5.9175 -7.9905 
-11.4413 -6.511 -11.6501 -7.7325 -8.369 
-12.2713 -11.6501 -11.9351 -10.5975 
