-4.759 
n/a 
n/a 
n/a 
n/a 
-4.759 
n/a 
n/a 
n/a 
n/a 
-4.759 
n/a 
n/a 
n/a 
n/a 
-4.759 
n/a 
n/a 
n/a 
n/a 
-4.251 -3.691 -4.5635 -2.645 -3.264 -1.7565 -5.3305 -1.934 -4.152 -4.717 -3.1575 -1.934 -3.9655 -4.717 0 
-9.378 -6.902 -7.2685 -6.818001 -3.6125 -7.101 -6.555 -5.5915 -5.678501 -8.361 -4.974 -5.6155 -6.071 -4.717 
-12.7784 -10.5745 -12.0605 -6.996001 -7.9055 -8.3735 -7.9575 -8.2665 -9.316501 -9.84 -7.903501 -9.079 -6.071 
-16.4509 -15.3665 -12.2385 -11.8058 -9.1435 -9.9624 -9.387501 -12.2703 -10.9859 -13.0405 -11.5812 -9.079 
-21.2429 -15.5445 -17.0483 -13.0438 -10.892 -11.3924 -14.0621 -13.9397 -14.1864 -16.7182 -11.5812 
-1.934 -3.8225 0 -3.691 -3.2955 -1.7695 -3.973 -2.645 -5.3305 -1.934 -4.152 -4.625 -3.4765 -3.1575 -3.9655 -4.625 -3.4765 0 
-5.219 -3.8225 -3.691 -7.653 -3.9425 -4.609 -6.3885 -7.451 -6.555 -5.5915 -6.4115 -5.4755 -6.8935 -7.618501 -6.818 -5.4755 -3.4765 
-5.219 -8.8915 -7.653 -8.603001 -7.6515 -6.936501 -8.530001 -8.3725 -7.9575 -8.718 -6.622001 -9.357 -10.733 -10.6806 -6.97 -5.4755 
-10.1635 -13.1389 -8.603001 -12.6994 -9.4865 -9.066001 -8.998 -10.3502 -10.085 -9.4715 -10.459 -13.3211 -13.7951 -10.8326 -6.97 
-14.5391 -14.0889 -12.6994 -14.5344 -11.984 -9.755001 -11.7165 -12.4777 -11.2973 -13.4231 -14.4231 -16.3832 -13.9471 -10.8326 
-4.251 -3.691 -3.9955 -3.3715 -5.3305 -1.934 -4.152 -9.420501 -3.034 -4.2815 -2.356 -3.9655 -4.625 0 
-9.378 -7.56 -6.7795 -7.813001 -6.555 -5.5915 -14.6937 -12.9641 -5.568 -4.868001 -6.6555 -6.818 -4.625 
-13.4364 -10.5548 -8.871 -9.066 -7.9575 -16.4018 -18.2373 -15.4981 -6.111001 -8.981501 -10.543 -6.818 
-16.4312 -12.6463 -9.512501 -10.5285 -21.3738 -19.9454 -20.7713 -16.0411 -10.264 -13.0426 -10.543 
-18.5227 -13.2878 -11.0238 -23.9448 -24.9174 -22.4794 -21.3143 -20.1941 -14.3251 -13.0426 
-4.251 0 -4.0745 -2.356 -3.9655 -4.717 0 -3.691 -4.5635 -2.645 -5.3305 -1.934 -4.152 -4.717 0 
-4.251 -4.0745 -5.622 -6.6555 -6.071 -4.717 -3.691 -6.902 -7.2685 -7.451 -6.555 -5.5915 -5.678501 -4.717 
-8.6035 -5.622 -10.298 -9.9355 -6.071 -7.5185 -6.902 -10.5745 -9.607501 -8.3725 -7.9575 -8.2665 -5.678501 
-9.691501 -10.298 -13.814 -9.9355 -9.469501 -9.3325 -10.5745 -12.9135 -11.0178 -10.3502 -9.387501 -8.2665 
-14.7759 -13.814 -13.814 -13.8336 -11.6297 -13.7052 -12.9135 -14.3238 -12.9955 -11.7802 -9.387501 
