-4.759 
n/a 
n/a 
n/a 
n/a 
-4.759 
n/a 
n/a 
n/a 
n/a 
-4.759 
n/a 
n/a 
n/a 
n/a 
-4.759 
n/a 
n/a 
n/a 
n/a 
-3.676 -3.4225 -3.468 0 -1.4985 -3.468 -2.4945 -1.4985 -2.8965 -3.8225 -3.9915 
-5.612 -3.628 -3.468 -1.4985 -5.0815 -5.546 -3.9315 -3.928 -6.1905 -6.214 
-5.738 -3.628 -5.1095 -5.0815 -6.748 -7.216001 -6.5375 -7.4645 -7.3655 
-5.738 -5.3795 -7.753 -6.748 -8.338501 -10.1265 -9.3035 -9.535501 
-8.517 -8.4895 -8.8015 -8.338501 -11.4358 -12.8925 -11.4827 
-3.4975 -3.4225 -3.468 0 -1.4985 -3.468 -2.4945 -3.074 -3.9915 -3.9285 -1.934 -3.683 -6.58 0 
-6.9375 -3.628 -3.468 -1.4985 -5.0815 -5.546 -4.4205 -7.403501 -7.5055 -4.3695 -5.8605 -8.52 -6.58 
-7.14 -3.628 -5.1095 -5.0815 -6.748 -7.341001 -8.771 -11.3115 -7.917 -8.961 -8.6995 -8.52 
-7.14 -5.3795 -7.753 -6.748 -8.6625 -12.0181 -13.2676 -11.723 -12.9069 -11.9586 -8.6995 
-9.208 -8.4895 -8.8015 -8.6625 -13.5568 -16.5147 -13.6791 -16.7129 -15.9045 -11.9586 
0 -3.4975 -3.4225 -3.468 0 -1.756 0 -1.4985 -3.468 0 -2.4945 -3.074 -3.8225 -3.989 -3.9915 
-3.4975 -6.9375 -3.628 -3.468 -1.756 -1.756 -1.4985 -5.0815 -3.468 -2.4945 -4.4205 -6.6225 -8.017 -8.036 
-6.9375 -7.14 -3.628 -4.7175 -1.756 -3.0405 -5.0815 -5.0815 -5.546 -4.4205 -7.095 -11.431 -12.6046 
-7.14 -7.14 -4.925 -4.7175 -3.0405 -6.498 -5.0815 -6.748 -7.341001 -7.095 -11.9025 -16.0186 
-7.14 -9.422501 -4.925 -5.6555 -6.498 -6.498 -6.748 -8.6625 -10.3421 -11.9025 -16.4901 
-3.4975 -3.4225 -3.468 0 -1.4985 -3.468 -2.4945 -3.074 -1.934 -2.9645 0 
-6.9375 -3.628 -3.468 -1.4985 -5.0815 -5.546 -4.4205 -4.93 -5.036 -2.9645 
-7.14 -3.628 -5.1095 -5.0815 -6.748 -7.341001 -6.3525 -7.79 -5.036 
-7.14 -5.3795 -7.753 -6.748 -8.6625 -9.1545 -8.275001 -7.79 
-9.208 -8.4895 -8.8015 -8.6625 -10.2915 -11.226 -8.275001 
