-4.759 
n/a 
n/a 
n/a 
n/a 
-4.759 
n/a 
n/a 
n/a 
n/a 
-4.759 
n/a 
n/a 
n/a 
n/a 
-4.759 
n/a 
n/a 
n/a 
n/a 
-5.214 0 -3.68 0 -3.676 -2.4945 -2.8965 -3.8225 -3.6185 
-3.482 -3.68 -3.68 -3.676 -6.278 -5.387 -6.1905 -7.6715 
-8.211 -3.68 -7.146501 -6.278 -10.0255 -8.088501 -10.341 
-8.211 -7.146501 -10.4883 -10.0255 -12.8274 -12.4878 
-10.575 -10.4883 -14.2358 -12.8274 -17.2267 
-5.214 0 -7.0225 0 0 -3.074 -3.676 -2.4945 -3.9285 -1.934 -2.8965 -3.8225 -4.017 0 
-3.482 -5.066 -5.066 0 -3.074 -7.843 -6.278 -5.071 -4.3695 -4.391 -6.1905 -6.809501 -4.017 
-8.427501 -4.9465 -4.9465 -3.074 -7.843 -11.0796 -9.0795 -5.383 -6.670001 -8.0745 -8.507 -6.809501 
-8.159 -4.9465 -8.422501 -7.843 -11.0796 -13.8811 -9.496 -7.3795 -10.9219 -10.4185 -8.507 
-8.479 -8.422501 -13.6361 -11.0796 -13.8811 -14.2976 -11.4805 -12.1522 -13.2659 -10.4185 
-5.214 0 -7.0225 -1.756 -3.676 -2.4945 -2.8965 -3.8225 -3.275 
-3.482 -5.066 -7.960001 -5.918 -6.278 -5.387 -6.1905 -6.659 
-8.427501 -7.342 -12.102 -7.7635 -10.0255 -8.088501 -8.686001 
-9.644501 -10.35 -12.3161 -11.7594 -12.8274 -10.2135 
-14.2275 -12.316 -16.3119 -14.5613 -14.9524 
-2.791 0 -3.68 -1.756 -3.676 -3.152 -3.074 -3.9285 -1.934 -2.8965 -3.3785 -4.017 0 
-2.791 -3.68 -5.3775 -5.918 -6.868 -5.0635 -5.4325 -4.3695 -4.391 -6.077001 -7.296 -4.017 
-6.6615 -5.3775 -9.255 -8.2565 -8.751 -7.083 -6.131 -6.670001 -7.797 -9.436501 -7.296 
-8.929501 -9.255 -11.7177 -10.138 -10.6345 -7.396 -8.4725 -9.765501 -11.9485 -9.436501 
-13.2506 -11.7177 -13.5992 -12.0215 -10.9475 -10.05 -11.7362 -14.2436 -11.9485 
