-4.759 
n/a 
n/a 
n/a 
n/a 
-4.759 
n/a 
n/a 
n/a 
n/a 
-4.759 
n/a 
n/a 
n/a 
n/a 
-4.759 
n/a 
n/a 
n/a 
n/a 
-4.25 -1.4985 -3.989 -1.7565 -3.5485 
-6.1515 -5.1705 -6.1085 -4.837 
-9.801001 -6.5325 -9.448501 
-11.3316 -9.737 
-14.5361 
-7.04 -12.16972 0 -1.7695 -4.052 -1.4985 -4.6625 -2.5195 -3.5485 
-19.70772 -12.16972 -1.7695 -4.393 -4.752 -5.8395 -7.3795 -6.362 
-19.70772 -13.93922 -4.393 -4.9985 -8.2635 -8.578 -11.5564 
-21.47722 -16.56272 -4.9985 -8.462001 -11.5106 -13.0771 
-24.10072 -17.16822 -8.462001 -11.7443 -16.0097 
-7.04 -12.16972 0 -1.7695 -3.5185 -1.4985 -4.963 -2.264 -4.004 
-19.70772 -12.16972 -1.7695 -4.134 -4.9765 -7.0065 -7.180501 -6.613 
-19.70772 -13.93922 -4.134 -5.28 -10.4035 -10.553 -12.1605 
-21.47722 -16.30372 -5.28 -10.7485 -13.95 -15.533 
-23.84172 -17.44972 -10.7485 -14.295 -18.93 
-9.213 -12.16972 0 -6.1855 -1.934 -4.983 
-21.49512 -12.16972 -6.1855 -7.044 -6.4865 
-21.49512 -18.35522 -7.044 -12.1749 
-27.68062 -19.21372 -12.1749 
-28.53912 -24.34462 
