-4.759 
n/a 
n/a 
n/a 
n/a 
-4.759 
n/a 
n/a 
n/a 
n/a 
-4.759 
n/a 
n/a 
n/a 
n/a 
-4.759 
n/a 
n/a 
n/a 
n/a 
-1.934 -3.7485 -4.219 -3.0365 -2.4945 -3.772 0 -4.9225 -2.4945 -4.758 -4.809 -1.7565 -4.3105 -3.5435 0 
-5.12 -7.765 -7.021 -3.688 -7.4585 -3.772 -4.9225 -6.9525 -7.1945 -9.410001 -5.7605 -5.761001 -5.7775 -3.5435 
-9.617001 -10.233 -7.7875 -7.7675 -7.4585 -9.611501 -6.9525 -11.9705 -12.7093 -10.0975 -10.7025 -7.4855 -5.7775 
-12.2946 -11.4353 -12.0058 -7.7675 -13.563 -11.6805 -11.9705 -17.4853 -13.3968 -15.1255 -12.427 -7.4855 
-13.4969 -15.6536 -12.0058 -14.0494 -15.632 -16.6985 -17.4853 -18.1728 -18.4248 -16.85 -12.427 
-3.772 0 -1.7565 -3.1385 -6.0195 -3.7015 -1.4985 -7.0205 -2.0935 -4.287 -1.4985 -3.8655 -4.1265 0 
-3.772 -1.7565 -4.388 -7.705 -9.474501 -4.3435 -8.116501 -9.4615 -5.9425 -5.0195 -6.342 -8.967501 -4.1265 
-6.1625 -4.388 -8.163 -11.6002 -10.428 -11.4651 -11.0341 -13.5177 -6.487 -10.7025 -10.733 -8.967501 
-8.4805 -8.163 -12.2094 -12.5537 -17.5496 -14.3827 -15.0903 -14.0622 -12.3602 -15.0935 -10.733 
-10.757 -12.2094 -13.1629 -19.6753 -20.4672 -18.4389 -15.6348 -19.9354 -16.7512 -15.0935 
-1.7695 -4.556 -3.8655 -3.222 -3.9675 0 -8.038 -1.4985 -2.5685 -3.1385 -4.037 -2.7415 -3.9595 -1.934 -2.9705 -4.3435 -3.772 0 -3.251 -4.758 -1.934 -4.8565 0 
-5.0945 -9.915501 -7.7185 -8.759501 -3.9675 -8.038 -9.085 -4.907001 -5.4325 -6.785 -6.2035 -5.2105 -5.166 -4.051 -6.995501 -7.962501 -3.772 -3.251 -6.843 -6.0375 -5.923 -4.8565 
-10.054 -10.664 -13.6232 -8.759501 -13.3655 -9.085 -12.5161 -8.323501 -9.543 -10.2185 -7.037 -6.4025 -8.365 -7.7795 -11.0183 -7.962501 -7.865001 -6.843 -7.7755 -8.2915 -5.923 
-10.6935 -17.1343 -13.6232 -18.4939 -14.4125 -12.5161 -15.9326 -12.9106 -13.0203 -11.052 -8.703 -9.259001 -12.1837 -12.6383 -11.0183 -12.9989 -11.507 -7.7755 -10.292 -8.2915 
-17.267 -17.1343 -23.3576 -19.5409 -17.8436 -15.9326 -20.5197 -16.3879 -13.8538 -12.718 -10.2385 -13.0751 -17.0425 -12.6383 -16.0547 -16.6409 -12.4395 -10.292 -10.292 

n/a 
n/a 
n/a 
n/a 
