-4.759 
n/a 
n/a 
n/a 
n/a 
-4.759 
n/a 
n/a 
n/a 
n/a 
-4.759 
n/a 
n/a 
n/a 
n/a 
-4.759 
n/a 
n/a 
n/a 
n/a 
-2.872 -4.87 -3.251 -2.6165 -6.654 -1.7695 -2.3615 -1.756 -9.110001 -3.251 -3.9535 -3.8275 -7.2925 -2.4265 0 
-8.5045 -8.061501 -4.9545 -7.6945 -8.5305 -3.736 -4.8045 -8.7435 -10.0555 -6.0795 -8.502501 -9.1595 -9.044001 -2.4265 
-10.586 -9.4735 -8.8325 -9.493 -10.209 -6.2575 -12.258 -10.25 -11.6615 -10.316 -14.2229 -11.0944 -9.044001 
-11.998 -13.4819 -10.523 -11.1743 -12.7305 -13.879 -14.138 -12.5419 -15.9044 -16.2364 -16.1578 -11.0944 
-16.0064 -15.1724 -12.2043 -13.6958 -20.352 -15.759 -16.8582 -16.8372 -21.8248 -18.1713 -16.1578 
-4.013 -9.110001 -3.998 -4.87 -4.353 -1.7695 -4.2675 -1.756 -4.289 -1.7695 -4.299 -4.87 
-11.2305 -12.2435 -10.177 -9.307001 -4.7685 -4.8665 -6.0375 -5.6485 -5.0125 -5.4975 -9.231001 
-16.0337 -18.7797 -14.614 -9.379001 -7.899 -6.487 -11.2354 -6.268 -7.906 -9.428 
-22.2927 -23.2167 -14.686 -12.7383 -9.818001 -11.9391 -11.8549 -9.116501 -12.0317 
-26.7297 -23.2887 -18.0453 -14.6573 -15.3271 -12.5586 -14.7034 -13.2988 
-2.872 -2.5045 -6.1925 -1.8085 -3.8275 -3.7015 -4.87 -4.5275 -2.3335 -4.87 -3.5745 -2.6165 -3.8455 -5.854 -2.985 -3.669 0 
-4.9055 -8.908501 -7.0405 -5.421 -5.687 -7.5305 -9.872001 -5.7755 -7.580501 -8.689001 -4.114 -5.714 -7.421 -7.6575 -6.4735 -3.669 
-11.8125 -10.3275 -8.024 -6.771 -8.372001 -13.1221 -10.7215 -10.553 -9.6425 -8.894001 -6.655 -8.561001 -9.935901 -9.8875 -6.4735 
-13.2315 -11.311 -8.559 -9.642 -13.9958 -13.9716 -15.499 -12.615 -9.7235 -11.534 -9.002501 -11.4121 -12.1659 -9.8875 
-14.215 -11.846 -11.5712 -15.3512 -14.8453 -18.7491 -17.561 -12.696 -12.5007 -13.8815 -12.0162 -13.6421 -12.1659 
-3.5725 0 -4.2425 -2.3335 -4.87 -2.186 -2.6165 -4.607 -1.7695 -3.1435 -3.669 0 -12.16972 -4.621 -5.5755 -1.8085 -3.8275 -2.264 -4.87 0 
-3.5725 -4.2425 -5.5255 -7.580501 -7.331 -3.5105 -6.5205 -4.986001 -4.49 -6.6125 -3.669 -12.16972 -16.79072 -10.784 -6.586501 -5.421 -5.147 -7.417001 -4.87 
-6.6505 -5.5255 -11.1713 -8.5235 -8.685501 -7.52 -6.860001 -7.541 -7.692501 -6.6125 -16.94572 -16.79072 -22.95372 -11.795 -9.559001 -6.549 -8.449 -7.417001 
-7.99 -11.1713 -12.1143 -9.636001 -12.8206 -7.881 -9.099501 -11.4549 -7.692501 -20.76322 -21.56672 -22.95372 -23.96472 -14.7675 -11.0842 -10.5125 -8.449 
-13.7398 -12.1143 -13.2268 -13.7985 -13.1816 -9.566501 -12.9952 -11.4549 -22.39902 -25.38422 -27.72972 -23.96472 -26.93722 -16.2927 -15.0477 -10.5125 
