-4.759 
n/a 
n/a 
n/a 
n/a 
-4.759 
n/a 
n/a 
n/a 
n/a 
-4.759 
n/a 
n/a 
n/a 
n/a 
-4.759 
n/a 
n/a 
n/a 
n/a 
-5.204 -3.152 -3.325 -1.4985 -3.4985 -1.7565 -5.189 0 
-7.343 -6.104 -3.898 -4.798 -4.622 -5.684 -5.189 
-9.457001 -6.6895 -5.8625 -5.425 -9.292 -5.684 
-9.877501 -7.995 -5.8915 -10.057 -9.292 
-10.327 -8.012 -10.1305 -10.057 
-4.7315 -3.152 -3.325 -1.4985 -4.1 -1.7565 -1.4985 -5.189 0 
-6.929501 -6.104 -3.898 -5.0695 -5.164001 -2.4195 -6.303 -5.189 
-9.2025 -6.6895 -6.657 -5.5715 -6.290501 -7.0445 -6.303 
-10.0545 -8.904 -6.859 -6.679 -10.717 -7.0445 
-12.3642 -8.922001 -7.4855 -11.3595 -10.717 
-3.468 -2.4945 -3.325 -1.4985 -3.8385 -1.7565 -5.0075 
-5.546 -5.3365 -3.898 -4.778501 -4.716001 -5.9065 
-8.081 -6.087 -7.148 -5.202 -10.4765 
-8.9265 -10.1425 -7.423 -11.2051 
-13.2338 -10.52 -13.2831 
-12.16972 -4.066 -3.325 -4.445 
-16.23572 -6.5505 -7.592 
-18.72022 -11.4669 
-23.63662 
n/a 
