-4.759 
n/a 
n/a 
n/a 
n/a 
-4.759 
n/a 
n/a 
n/a 
n/a 
-4.759 
n/a 
n/a 
n/a 
n/a 
-4.759 
n/a 
n/a 
n/a 
n/a 
-1.934 -1.4985 -3.593 -1.7565 -4.5735 -3.594 0 -8.5955 
-2.6125 -4.9895 -4.507 -5.6355 -7.565001 -3.594 -8.5955 
-5.707 -6.0465 -8.5295 -8.5275 -7.565001 -13.3529 
-6.815001 -9.848001 -11.5355 -8.5275 -17.9041 
-10.634 -12.854 -11.5355 -19.0248 
-1.4985 -3.17 -3.5905 -5.1845 -4.245 -2.186 -8.5955 0 
-3.7115 -7.4115 -8.0375 -7.991 -6.276501 -11.9919 -8.5955 
-8.334001 -12.3151 -10.2045 -9.797501 -16.4976 -11.9919 
-13.6898 -14.4821 -12.011 -20.0186 -16.4976 
-15.8568 -16.2886 -22.2321 -20.0186 
-8.283501 -1.934 -3.5905 -5.1845 -3.594 -3.254 0 
-9.861501 -5.709 -8.0375 -7.255 -6.9045 -3.254 
-13.7759 -9.5465 -9.6325 -12.3425 -6.9045 
-17.6134 -11.2019 -15.2068 -12.3425 
-19.2688 -16.7762 -15.2068 
-8.5955 -1.934 -1.4985 -3.254 -1.7565 -3.5905 -5.1845 -6.05 
-9.723 -2.6125 -4.4095 -4.0065 -5.224 -8.0375 -10.2385 
-10.7829 -5.405 -4.8735 -7.773001 -9.572001 -13.5281 
-13.5754 -5.9115 -8.687501 -10.757 -15.0718 
-14.0819 -9.611501 -11.7823 -17.5654 
