-4.759 
n/a 
n/a 
n/a 
n/a 
-4.759 
n/a 
n/a 
n/a 
n/a 
-4.759 
n/a 
n/a 
n/a 
n/a 
-4.759 
n/a 
n/a 
n/a 
n/a 
-3.9345 -1.7695 -2.3615 -5.341 0 -2.4265 -2.186 -3.998 -2.5045 -1.4985 -4.967 -1.7565 -7.466001 -3.0695 -4.0555 -2.5195 -3.5455 -4.9995 -12.16972 -2.356 -1.934 -1.4985 -3.502 -3.8735 -2.9705 -3.7965 -1.4985 -3.4775 -2.229 -4.1865 -3.468 -3.115 -6.557 0 -8.643001 0 -5.749 -1.756 -5.4885 0 
-3.94 -3.736 -7.082 -5.341 -2.4265 -3.292 -5.775001 -6.3415 -3.583 -6.4305 -7.9165 -9.38 -10.1555 -5.5715 -5.0775 -5.71 -9.4685 -18.47962 -14.52572 -5.342 -2.6125 -4.5955 -6.2275 -6.7115 -5.034 -4.8165 -6.021501 -4.1725 -6.502 -7.0925 -6.475 -9.663501 -6.557 -8.643001 -8.643001 -5.749 -7.3505 -7.479 -5.4885 
-5.875 -8.352 -7.082 -7.653 -3.292 -6.349 -8.343 -7.587501 -8.4245 -9.805 -16.0584 -12.2303 -12.6575 -6.685 -8.076 -12.2676 -24.14942 -20.83562 -17.51172 -6.0285 -5.258 -8.289001 -8.818501 -8.811001 -5.840001 -9.878 -6.698501 -8.668501 -10.634 -9.2185 -9.9615 -9.663501 -11.08 -8.643001 -10.862 -7.3505 -8.443 -7.479 
-8.713 -8.352 -9.0825 -8.1045 -6.349 -9.0395 -9.276501 -12.5476 -11.9086 -18.1543 -18.9087 -14.7323 -13.771 -9.234 -14.9792 -26.94852 -26.50542 -23.82162 -18.19822 -8.8995 -8.9505 -10.9938 -10.419 -9.691 -10.4345 -10.753 -10.621 -13.0283 -12.76 -13.174 -9.9615 -14.2883 -11.08 -10.862 -12.4635 -8.443 -8.443 
-8.713 -10.126 -9.276 -11.3351 -9.0395 -10.0575 -14.2724 -16.0317 -20.2579 -21.0046 -21.4107 -15.8458 -16.32 -16.15 -29.66012 -29.30452 -29.49142 -24.50812 -21.06922 -12.6872 -11.8161 -12.5943 -11.299 -14.3897 -11.7289 -14.6755 -14.9808 -15.1543 -16.7155 -13.174 -14.6303 -14.2883 -13.299 -12.4635 -13.556 -8.443 
-2.356 -2.3615 -3.2275 0 -1.4985 -5.934 -5.0515 -2.5195 -3.5455 -6.43 -1.7695 -4.2305 -1.934 -5.5965 -4.1865 -4.849 -1.7565 -5.1845 -5.74 0 -5.7725 -5.447 0 -5.749 0 -1.756 -5.4885 
-4.2185 -5.294 -3.2275 -1.4985 -6.943501 -7.920001 -7.113501 -5.71 -11.4601 -8.7445 -5.2345 -6.073 -6.615 -9.8675 -9.4865 -7.007501 -6.580501 -5.7465 -5.74 -5.7725 -5.839 -5.447 -5.749 -5.749 -1.756 -7.479 
-6.7045 -5.294 -5.1925 -6.943501 -8.245001 -10.2085 -9.4715 -14.2592 -13.7746 -12.3287 -7.9935 -11.315 -11.5092 -15.2455 -12.247 -12.7189 -6.961501 -5.7465 -6.41 -5.839 -5.839 -6.397 -5.749 -7.3505 -7.479 
-6.7045 -6.8195 -11.3471 -8.245001 -10.7935 -12.9353 -18.5909 -16.5737 -17.3588 -15.0877 -13.8145 -16.2092 -16.8872 -18.006 -17.9584 -13.0999 -6.961501 -6.4095 -6.4105 -5.839 -6.403 -6.397 -7.3505 -8.443 
-7.8395 -13.2289 -12.6486 -10.7935 -13.5203 -22.0547 -20.9054 -20.1579 -20.1178 -20.9087 -18.7087 -21.5872 -19.6477 -23.7174 -18.3394 -13.0999 -9.097001 -6.41 -6.4105 -6.403 -6.403 -8.504 -8.443 
-2.3615 -5.0815 -4.1655 -2.5195 -3.5455 -8.145 -7.749001 -3.5095 -2.3335 -1.4985 -12.16972 -2.4945 -4.0935 -1.934 -8.435 -2.229 -3.4775 -3.468 -1.7565 -6.557 0 -6.219 -5.447 0 -5.749 -1.756 -5.4885 0 
-6.688001 -9.8855 -5.729 -5.71 -13.1751 -16.5286 -11.9403 -4.5055 -3.3515 -14.76202 -14.66422 -8.592001 -6.8605 -9.259001 -11.08 -6.17 -8.045501 -4.7385 -7.653501 -6.557 -6.219 -7.665 -5.447 -5.749 -7.3505 -7.479 -5.4885 
-11.9678 -11.6694 -8.598001 -15.9742 -21.5587 -20.7199 -12.9363 -5.461 -16.85382 -17.25652 -20.76172 -10.0715 -14.9989 -12.2978 -15.021 -11.2022 -10.3345 -9.606501 -7.653501 -9.9895 -7.665 -7.665 -6.397 -7.3505 -8.443 -7.479 
-13.7517 -14.5384 -19.2846 -24.3578 -25.75 -21.7159 -13.8918 -19.16772 -19.34832 -23.35402 -22.24122 -18.5245 -18.0377 -16.2388 -20.0532 -13.4912 -15.4061 -9.606501 -11.3428 -10.0115 -7.665 -9.846001 -8.504 -8.443 -8.443 
-16.6207 -25.225 -27.6682 -28.5491 -26.746 -22.6714 -27.59852 -21.66222 -25.44582 -24.83352 -30.69422 -21.5633 -21.9787 -21.271 -22.3422 -18.5628 -15.4061 -13.9046 -11.3648 -10.0115 -9.846001 -10.6125 -9.2695 -8.443 

n/a 
n/a 
n/a 
n/a 
