-4.759 
n/a 
n/a 
n/a 
n/a 
-4.759 
n/a 
n/a 
n/a 
n/a 
-4.759 
n/a 
n/a 
n/a 
n/a 
-4.759 
n/a 
n/a 
n/a 
n/a 
-8.110001 0 -13.2235 0 -6.946 0 0 -6.8235 -6.966001 0 -5.4425 -6.5625 0 -7.785501 0 -8.382501 -2.4945 -3.7375 -1.7565 -1.4985 -4.4695 -5.269 -1.7565 -1.4985 -3.1715 0 
-8.110001 -10.163 -10.163 -6.946 -6.946 0 -6.8235 -7.9905 -6.966001 -5.4425 -7.282 -6.5625 -7.785501 -7.785501 -8.382501 -11.3002 -5.764501 -5.127501 -2.4195 -5.252501 -7.521 -6.6965 -2.4195 -3.994 -3.1715 
-17.098 -9.004001 -10.7775 -6.946 -6.946 -6.8235 -7.9905 -7.9905 -13.2123 -7.282 -7.282 -15.144 -7.785501 -17.437 -11.3002 -14.5702 -7.467 -5.4645 -6.027 -9.0045 -8.6495 -7.1065 -4.741 -3.994 
-17.098 -10.239 -10.239 -6.946 -14.8071 -7.9905 -7.9905 -14.7046 -15.0518 -7.282 -16.4023 -15.144 -17.437 -20.3547 -14.5702 -16.2727 -7.961501 -8.525001 -9.432 -9.8255 -9.269 -9.925 -4.741 
-18.333 -10.239 -10.239 -14.8071 -15.9741 -7.9905 -14.7046 -16.5441 -15.0518 -16.4023 -16.4023 -24.7955 -20.3547 -23.6247 -16.2727 -16.7672 -10.3345 -10.7335 -10.1775 -10.11 -12.2973 -9.925 
-8.110001 0 -16.3465 0 -6.946 0 0 -6.8235 -7.3145 0 -5.4425 -6.5625 0 -7.785501 0 -8.932501 -2.4945 -1.4985 -4.4695 -5.269 -1.934 -1.4985 -3.1715 0 
-8.110001 -15.2845 -15.2845 -6.946 -6.946 0 -6.8235 -9.556 -7.3145 -5.4425 -7.282 -6.5625 -7.785501 -7.785501 -8.932501 -11.7302 -3.9315 -5.252501 -7.521 -6.8785 -2.6125 -3.994 -3.1715 
-23.7825 -15.6885 -22.6345 -6.946 -6.946 -6.8235 -9.556 -9.556 -13.4842 -7.282 -7.282 -15.144 -7.785501 -17.987 -11.7302 -13.1672 -7.623 -9.0045 -8.8235 -7.3075 -4.939 -3.994 
-23.7825 -22.6345 -22.6345 -6.946 -14.8071 -9.556 -9.556 -15.7495 -15.3237 -7.282 -16.4023 -15.144 -17.987 -20.7847 -13.1672 -16.8587 -11.5616 -9.9975 -9.160501 -10.0035 -4.939 
-30.7285 -22.6345 -22.6345 -14.8071 -17.5396 -9.556 -15.7495 -17.589 -15.3237 -16.4023 -16.4023 -25.3455 -20.7847 -22.2217 -16.8587 -20.7973 -12.5546 -10.147 -12.2533 -10.0035 
-4.649 -7.5645 0 -13.2235 0 -6.946 0 0 -6.8235 -6.966001 0 -5.4425 -6.5625 0 -11.0555 0 -8.382501 -2.4945 -3.135 -1.7565 -1.4985 -4.4695 -5.269 -1.7565 -1.4985 -3.1715 
-9.6775 -7.5645 -10.163 -10.163 -6.946 -6.946 0 -6.8235 -7.9905 -6.966001 -5.4425 -7.282 -6.5625 -11.0555 -11.0555 -8.382501 -11.3002 -4.575 -3.9195 -2.4195 -5.252501 -7.521 -6.6965 -2.4195 -3.994 
-9.6775 -16.9365 -9.004001 -10.7775 -6.946 -6.946 -6.8235 -7.9905 -7.9905 -13.2123 -7.282 -7.282 -18.414 -11.0555 -19.438 -11.3002 -13.3807 -5.097 -4.168 -6.027 -9.0045 -8.6495 -7.1065 -4.741 
-19.1721 -16.9365 -10.239 -10.239 -6.946 -14.8071 -7.9905 -7.9905 -14.7046 -15.0518 -7.282 -19.6723 -18.414 -19.438 -22.3557 -13.3807 -13.9027 -5.465 -7.54 -9.432 -9.8255 -9.269 -9.925 
-19.1721 -18.1715 -10.239 -10.239 -14.8071 -15.9741 -7.9905 -14.7046 -16.5441 -15.0518 -19.6723 -19.6723 -26.7965 -22.3557 -24.4362 -13.9027 -14.2707 -8.5795 -9.867001 -10.1775 -10.11 -12.2973 
-8.110001 0 -13.2235 0 -6.946 0 0 -10.124 -6.966001 0 -5.4425 -6.5625 0 -7.785501 0 -8.382501 -3.152 -3.135 -1.7565 -1.4985 -4.4695 -3.1385 -1.7565 -1.4985 -3.1715 0 
-8.110001 -10.163 -10.163 -6.946 -6.946 0 -10.124 -17.2166 -6.966001 -5.4425 -7.282 -6.5625 -7.785501 -7.785501 -8.382501 -11.9577 -5.6895 -3.9195 -2.4195 -5.252501 -6.025 -4.861 -2.4195 -3.994 -3.1715 
-17.098 -9.004001 -10.7775 -6.946 -6.946 -10.124 -17.2166 -17.2166 -13.2123 -7.282 -7.282 -15.144 -7.785501 -17.437 -11.9577 -14.4952 -6.4805 -4.168 -6.027 -7.6625 -7.863 -5.5655 -4.741 -3.994 
-17.098 -10.239 -10.239 -6.946 -18.1076 -17.2166 -17.2166 -23.4629 -15.0518 -7.282 -16.4023 -15.144 -17.437 -21.0122 -14.4952 -15.2862 -6.5885 -7.54 -8.3415 -9.013 -8.409 -6.693 -4.741 
-18.333 -10.239 -10.239 -18.1076 -25.2002 -17.2166 -23.4629 -25.3024 -15.0518 -16.4023 -16.4023 -24.7955 -21.0122 -23.5497 -15.2862 -15.3942 -9.622001 -8.877501 -9.54 -9.491 -10.0515 -6.693 
