-4.759 
n/a 
n/a 
n/a 
n/a 
-4.759 
n/a 
n/a 
n/a 
n/a 
-4.759 
n/a 
n/a 
n/a 
n/a 
-4.759 
n/a 
n/a 
n/a 
n/a 
-2.925 -2.4945 -4.6225 -1.7695 -1.8085 -3.355 -1.7565 -8.6805 0 
-3.7675 -5.942 -6.295001 -3.41 -4.6195 -3.725 -9.787001 -7.812 
-7.301001 -7.448501 -8.719001 -6.7885 -4.725 -12.3615 -10.0645 
-8.759001 -9.740001 -12.3993 -7.0135 -13.6985 -12.4725 
-11.1569 -13.5071 -12.6243 -16.48 -13.7915 
-3.1495 -6.893 -1.756 -4.1145 -2.871 -3.355 -1.7565 -4.267 0 
-11.136 -8.5365 -6.624 -7.758 -5.7015 -3.725 -5.8735 -4.267 
-12.7795 -13.6459 -10.5325 -10.4595 -5.995 -8.080501 -5.8735 
-17.8889 -17.5544 -13.234 -11.2046 -10.8007 -8.080501 
-21.7974 -20.2559 -13.9791 -16.0103 -10.8007 
-2.925 -2.4945 -4.2815 -2.3345 -8.6805 
-3.7675 -6.1695 -6.998501 -10.429 
-7.493001 -8.120001 -15.1316 
-9.4615 -16.5119 
-18.1074 
-1.8085 -3.9845 -2.3335 -2.186 -4.07 -1.7695 -2.489 -5.1195 -4.105 -1.8085 -3.7775 -1.7695 -1.8085 -4.5205 -3.534 
-5.2165 -5.2675 -3.7085 -4.8875 -4.3955 -3.1405 -5.9665 -9.64 -5 -4.9815 -4.781 -3.41 -5.549 -6.304 
-6.556 -7.1125 -6.3395 -5.0475 -4.976 -6.7705 -9.948501 -9.9945 -8.056001 -5.418 -5.8055 -7.400001 -6.696 
-7.5855 -9.596001 -6.3865 -5.5465 -8.009001 -9.956 -10.0655 -10.075 -8.2485 -6.104 -9.650001 -8.243 
-9.84 -9.6215 -7.025001 -8.519 -9.975 -10.065 -10.078 -10.0875 -8.977 -9.8585 -9.960501 
