-4.759 
n/a 
n/a 
n/a 
n/a 
-4.759 
n/a 
n/a 
n/a 
n/a 
-4.759 
n/a 
n/a 
n/a 
n/a 
-4.759 
n/a 
n/a 
n/a 
n/a 
-4.013 -3.8175 -3.9035 -1.7565 -3.8655 -2.186 -4.3895 -2.4285 -4.709 0 -5.267 -3.7965 -2.5195 -7.433001 -1.7695 -4.7 -4.4545 -4.9545 0 
-7.867 -6.856 -4.616 -5.196 -5.968 -6.439 -6.504 -7.4545 -4.709 -5.267 -8.845501 -7.4635 -9.818501 -9.509001 -6.8215 -6.8105 -6.606501 -4.9545 
-10.2985 -7.2175 -7.2835 -7.193501 -10.147 -8.128 -9.6185 -7.4545 -8.283 -8.845501 -12.6195 -15.0731 -10.134 -14.62 -8.6025 -7.3095 -6.606501 
-10.351 -10.733 -9.3325 -10.5975 -11.904 -11.4507 -9.6185 -10.3225 -11.9509 -12.6195 -20.2291 -15.3886 -15.4668 -16.401 -8.751 -7.3095 
-14.0375 -12.782 -12.6995 -12.3545 -15.2267 -11.4507 -12.7861 -13.9904 -15.7249 -20.2291 -20.5446 -20.7214 -17.2478 -16.5495 -8.751 
-3.8655 -2.8645 -4.3895 -1.756 -4.709 -3.892 -2.872 0 -1.4985 -3.8245 -6.42 -2.4945 -4.686 -1.756 -2.4265 -4.619 -3.892 
-6.2115 -7.989 -5.764 -6.6195 -7.306 -6.444 -2.872 -1.4985 -5.1915 -11.5769 -8.0885 -7.4725 -5.7295 -3.949 -8.037001 -8.9835 
-11.741 -9.530001 -9.033501 -9.335 -9.7635 -6.444 -4.035 -5.1915 -13.7937 -13.2454 -10.5035 -8.495001 -8.005501 -9.3625 -12.7235 
-13.282 -12.9149 -12.3164 -11.9555 -9.7635 -7.4425 -7.978001 -13.7937 -15.4622 -15.6604 -11.526 -10.621 -13.6874 -14.1354 
-16.6669 -16.1978 -14.9369 -11.9555 -10.7625 -11.5747 -16.6506 -15.4622 -17.8772 -16.6829 -13.652 -16.3029 -18.4603 
-3.4765 -3.929 -1.934 -3.8655 -4.4285 -1.7565 -1.4985 -4.088 -2.4945 -4.3895 -2.4285 -5.92 0 -2.985 -4.088 -1.7565 -3.8245 -2.8645 -4.4545 -4.2085 
-4.589 -5.9385 -4.9135 -9.715501 -4.6405 -2.4195 -5.6785 -6.1785 -6.764 -6.504 -8.031 -5.92 -2.985 -6.527 -5.4975 -5.058 -7.068501 -8.535501 -6.083 
-6.897 -9.3985 -10.1945 -10.047 -5.2 -6.388 -7.787001 -9.760501 -8.515501 -12.9759 -8.031 -7.9855 -6.527 -7.175 -8.947001 -7.597 -13.0975 -10.2285 
-10.2975 -14.8421 -10.605 -10.6065 -9.178 -8.43 -11.5008 -11.93 -15.1114 -12.9759 -9.729501 -10.434 -7.175 -9.7535 -11.6094 -13.9956 -14.7905 
-15.7411 -15.2526 -11.1645 -14.5845 -10.6745 -12.2864 -13.6703 -18.5259 -15.1114 -14.6744 -12.5008 -10.6225 -9.7535 -12.5079 -18.008 -15.6886 
-3.929 -3.17 -1.7565 -1.4985 -4.088 -1.934 -3.8655 -2.4945 -4.3895 -2.4285 -4.709 -4.088 0 -3.1435 -3.8245 -4.088 -3.7965 -4.686 -1.756 -7.947001 -4.686 
-6.2845 -4.179 -2.4195 -5.6785 -5.429501 -4.9135 -6.539001 -6.764 -6.504 -7.4545 -7.952001 -4.088 -3.1435 -7.139 -7.737 -8.356001 -8.8225 -5.7295 -10.0445 -13.6408 
-6.728 -4.497 -6.388 -7.061 -6.965 -6.973 -10.7025 -8.515501 -9.6185 -10.168 -7.952001 -7.2485 -7.139 -11.6169 -12.3326 -13.5102 -9.762501 -14.9628 -16.0115 
-7.05 -7.528 -7.671 -9.98 -9.856501 -11.2163 -12.454 -11.754 -12.6316 -10.168 -11.3495 -11.6224 -11.6169 -16.2125 -17.4868 -14.4502 -19.0048 -20.9298 
-10.3095 -8.717501 -10.513 -13.0067 -14.0998 -12.9678 -15.6925 -14.7671 -12.6316 -13.5655 -15.7234 -16.1003 -16.2125 -21.3667 -18.4268 -23.6925 -24.9718 
