-4.759 
n/a 
n/a 
n/a 
n/a 
-4.759 
n/a 
n/a 
n/a 
n/a 
-4.759 
n/a 
n/a 
n/a 
n/a 
-4.759 
n/a 
n/a 
n/a 
n/a 
-3.0835 -4.8135 -2.7415 -4.0835 -2.3345 -4.253 -4.6805 -1.7565 -12.16972 
-7.5835 -7.219001 -5.341001 -5.376501 -6.98 -8.7665 -5.617 -14.87542 
-9.932501 -9.132501 -6.358 -9.3765 -10.354 -9.5045 -20.09252 
-11.846 -10.079 -10.8346 -13.1725 -11.092 -24.17382 
-12.7925 -14.6536 -14.6306 -13.9105 -25.76132 
-1.4985 -3.535 -4.55 -2.186 -1.8085 -5.813 -4.0395 -4.0835 -4.569 -1.7565 -5.1475 -2.9705 -2.186 -5.739 -1.7565 -6.483 -4.205 -1.7565 -4.253 -6.195 0 
-4.255 -7.715 -6.424 -3.164 -6.4995 -8.5375 -6.823 -7.6945 -6.1595 -6.649001 -7.9535 -3.89 -6.476501 -5.7615 -7.623001 -8.1 -5.689001 -6.242001 -9.289001 -6.195 
-7.870501 -9.6555 -7.293 -7.341 -8.986 -10.041 -10.007 -8.928 -10.3045 -8.831 -8.6835 -7.862 -6.489 -10.082 -8.515501 -9.698501 -9.908001 -9.995001 -9.289001 
-9.837501 -10.5723 -12.0696 -9.846001 -10.389 -13.225 -10.528 -13.3024 -12.7513 -9.584001 -12.7681 -7.877 -10.9419 -10.367 -10.543 -14.1039 -13.661 -9.995001 
-10.7595 -15.3489 -14.5746 -10.7525 -13.573 -13.746 -14.9024 -15.7492 -13.5043 -13.734 -12.7831 -12.3643 -11.2269 -12.6755 -14.9484 -17.8569 -13.661 
-1.4985 -3.535 -4.8135 -2.9705 -3.2955 -5.1475 -4.921 -4.174 -1.4985 -5.589 -1.7565 -3.6075 -5.845 -5.228 
-4.255 -6.155 -7.454 -6.264501 -9.025001 -8.145 -9.14 -5.181 -6.883 -6.2405 -5.634 -11.015 -8.523001 
-6.389501 -8.4925 -10.396 -12.1494 -12.1965 -12.659 -9.6095 -11.0671 -7.06 -9.878501 -13.1337 -13.693 
-8.630501 -11.6051 -17.5677 -15.3209 -16.7105 -13.1285 -16.0808 -11.2441 -10.494 -17.4448 -15.8117 
-11.7641 -18.7768 -20.7392 -19.8349 -17.18 -19.5998 -16.2578 -14.6781 -18.0603 -20.1228 
-1.4985 -4.8135 -2.9705 -2.186 -3.43 -2.3345 -5.988 -5.333 -1.4985 -4.4215 -1.7565 -4.5735 -12.16972 -4.6805 0 
-5.4845 -7.454 -3.89 -4.64 -4.5865 -8.7075 -12.122 -6.363 -5.723001 -6.24 -5.6355 -17.91142 -16.85022 -4.6805 
-8.088501 -7.947001 -6.3955 -5.856 -11.5389 -15.1227 -13.152 -11.0117 -7.06 -8.9245 -19.48322 -22.59192 -16.85022 
-8.604501 -10.733 -7.525001 -13.2222 -17.9541 -16.1527 -17.8007 -12.3487 -9.399501 -23.30562 -24.16372 -22.59192 
-11.4689 -11.8625 -15.019 -19.6374 -18.9841 -20.8014 -19.1377 -14.6882 -24.24202 -27.98612 -24.16372 
