-4.759 
n/a 
n/a 
n/a 
n/a 
-4.759 
n/a 
n/a 
n/a 
n/a 
-4.759 
n/a 
n/a 
n/a 
n/a 
-4.759 
n/a 
n/a 
n/a 
n/a 
-2.6615 -1.7695 -3.0575 -4.1395 0 -9.334001 
-5.021501 -5.417 -6.955 -4.1395 -9.334001 
-6.429501 -9.221001 -6.955 -14.6309 
-10.8391 -9.221001 -18.6188 
-10.8391 -21.1346 
-2.6615 -1.7695 -3.0575 -3.8235 -3.5725 0 -3.511 
-5.021501 -5.417 -7.401 -7.636001 -3.5725 -3.511 
-6.429501 -10.264 -12.0043 -7.636001 -6.402 
-11.8821 -14.8673 -12.0043 -10.8617 
-16.4854 -14.8673 -15.23 
-2.925 -1.7695 -2.6615 -1.7695 -3.0575 -7.9405 0 
-3.71 -4.739 -5.021501 -5.417 -11.951 -7.9685 
-5.3855 -6.9255 -6.429501 -14.2805 -12.34 
-7.9575 -8.722 -15.8986 -14.2805 
-9.242001 -18.5755 -15.8986 
-2.5195 -2.6615 -1.7695 -3.0575 -4.1395 0 -9.334001 
-5.2985 -5.021501 -5.417 -6.955 -4.1395 -9.334001 
-6.171 -6.429501 -9.221001 -6.955 -14.6309 
-7.8005 -10.8391 -9.221001 -18.6188 
-12.2719 -10.8391 -21.1346 
