-4.759 
n/a 
n/a 
n/a 
n/a 
-4.759 
n/a 
n/a 
n/a 
n/a 
-4.759 
n/a 
n/a 
n/a 
n/a 
-4.759 
n/a 
n/a 
n/a 
n/a 
-3.301 -3.8705 0 -3.288 -2.789 0 
-5.9025 -3.8705 -3.288 -5.271 -2.789 
-5.9025 -5.0015 -5.271 -5.271 
-7.2395 -6.29 -5.271 
-8.8415 -6.29 
-4.426 -1.7565 -1.4985 -3.0835 -4.7285 -4.1555 -3.147 -3.301 -3.8705 0 -3.288 -2.789 0 
-5.47 -2.4195 -3.535 -6.042 -8.4455 -5.77 -6.752501 -5.9025 -3.8705 -3.288 -5.271 -2.789 
-5.9535 -4.6785 -6.335501 -9.523001 -9.541501 -9.759001 -9.456501 -5.9025 -5.0015 -5.271 -5.271 
-8.021 -7.476501 -10.0095 -10.7035 -13.5305 -12.5646 -9.456501 -7.2395 -6.29 -5.271 
-9.983001 -11.3061 -11.3 -14.6925 -16.3361 -12.5646 -10.9171 -8.8415 -6.29 
-3.301 -3.8705 0 -3.288 -2.789 0 
-5.9025 -3.8705 -3.288 -5.271 -2.789 
-5.9025 -5.0015 -5.271 -5.271 
-7.2395 -6.29 -5.271 
-8.8415 -6.29 
-8.2325 -11.135 -3.8705 0 -3.288 -2.789 0 
-19.7392 -13.616 -3.8705 -3.288 -5.271 -2.789 
-22.3407 -13.616 -5.0015 -5.271 -5.271 
-22.3407 -14.953 -6.29 -5.271 
-23.6777 -16.555 -6.29 
