-4.759 
n/a 
n/a 
n/a 
n/a 
-4.759 
n/a 
n/a 
n/a 
n/a 
-4.759 
n/a 
n/a 
n/a 
n/a 
-4.759 
n/a 
n/a 
n/a 
n/a 
-2.264 -3.288 -4.655 0 -1.934 -9.118 -1.7565 -6.557 0 -3.0605 -3.1385 -4.424 -1.934 -1.4985 -4.8115 -1.7565 -1.4985 -4.0795 -2.9705 -4.504 -1.4985 -3.681 -2.0935 -1.4985 -3.9195 -1.7565 -1.4985 -5.27 0 -2.9705 -3.074 -4.3865 -5.3205 -1.934 -2.4265 0 
-4.5935 -6.0955 -4.655 -1.934 -12.0584 -11.3121 -7.653501 -6.557 -3.0605 -6.437 -6.278501 -5.195 -2.6125 -6.0985 -6.5105 -2.4195 -5.0125 -6.575 -6.854501 -6.0605 -4.9615 -5.6355 -2.9725 -4.9505 -4.9355 -2.4195 -6.357 -5.27 -2.9705 -5.4325 -6.594 -9.874001 -6.626501 -4.6645 -2.4265 
-6.933001 -6.0955 -6.837 -12.0584 -14.2525 -17.2091 -7.653501 -10.051 -6.437 -8.813001 -6.8605 -6.055501 -7.111001 -7.417001 -7.5285 -5.6575 -7.368501 -9.536501 -7.697501 -9.137501 -7.5995 -6.4635 -5.8605 -5.2775 -5.524 -7.291501 -6.357 -7.743001 -5.4325 -7.934 -11.9863 -11.249 -9.241 -4.6645 
-6.933001 -8.4655 -17.443 -14.2525 -20.1495 -17.2091 -11.4043 -13.4275 -8.813001 -9.356501 -7.352 -8.188001 -8.847 -7.9715 -11.2349 -7.817 -9.9665 -10.174 -10.8807 -12.2099 -8.682 -10.038 -6.068501 -5.8375 -9.574 -7.291501 -8.8915 -10.096 -7.934 -13.5493 -13.3613 -13.8635 -9.241 
-8.774501 -19.2495 -19.6371 -20.1495 -20.1495 -20.9599 -14.7808 -15.8035 -9.356501 -9.9245 -9.2465 -10.553 -9.490001 -11.9453 -13.3944 -10.4345 -10.527 -13.3572 -13.9531 -13.2924 -12.3163 -10.2435 -6.7075 -9.9945 -9.574 -9.611001 -11.3297 -12.5975 -13.5493 -14.9243 -15.9758 -13.8635 
-3.288 -2.743 0 -3.0605 -3.1385 -4.424 -1.934 -4.6105 -2.9705 -4.0875 -3.5015 -1.934 -5.1845 -5.74 -3.4985 -4.6745 -3.299 -5.5735 -2.0935 -1.4985 -3.9195 -1.7565 -12.16972 -4.476 0 
-5.279 -2.743 -3.0605 -6.437 -6.278501 -5.195 -6.641 -6.964001 -5.8935 -5.143 -4.704 -6.564 -5.7465 -9.156 -6.8385 -7.862 -7.193001 -7.477 -2.9725 -4.9505 -4.9355 -14.87542 -16.64572 -4.476 
-5.279 -5.1385 -6.437 -8.813001 -6.8605 -8.9045 -9.972501 -8.633501 -6.199 -5.692 -9.375501 -6.819 -9.167001 -12.607 -10.085 -9.807 -9.085501 -8.0305 -5.8605 -5.2775 -18.73942 -19.35142 -16.64572 
-8.715 -9.345 -8.813001 -9.356501 -11.2434 -12.4418 -11.642 -8.804001 -6.655 -10.341 -9.5485 -9.512501 -12.6212 -15.8535 -12.03 -11.7287 -10.082 -10.4105 -6.068501 -19.26442 -23.21542 -19.35142 
-13.3195 -12.3346 -9.356501 -13.6986 -14.7807 -14.1113 -11.8125 -9.488501 -11.4202 -10.445 -12.3192 -12.9949 -15.8677 -17.7985 -13.9517 -12.7252 -12.462 -10.8675 -20.20842 -23.74042 -23.21542 
-2.264 -3.288 -2.743 0 -3.0605 -3.1385 -4.424 -3.851 -1.7695 -4.8115 -1.7565 -1.8085 -4.0795 -2.9705 -4.372 -5.5735 -2.0935 -1.4985 -4.476 -3.6215 -2.5045 -9.510501 0 -6.557 0 
-4.5935 -5.279 -2.743 -3.0605 -6.437 -6.278501 -7.1215 -4.0015 -6.472001 -6.5105 -3.2595 -5.2135 -6.575 -6.7165 -8.719501 -7.477 -2.9725 -5.546 -6.688001 -5.5985 -12.71 -9.510501 -6.557 -6.557 
-6.2545 -5.279 -5.1385 -6.437 -8.813001 -8.573 -7.127501 -8.7 -9.703001 -7.769 -6.138 -7.3155 -10.76 -11.3236 -10.5535 -8.0305 -7.2935 -7.439 -8.818501 -16.2924 -12.71 -16.3595 -6.557 
-6.2545 -8.715 -9.345 -8.813001 -11.2743 -8.5775 -12.2302 -12.3582 -10.9697 -11.1759 -8.0765 -11.7163 -15.3671 -13.1576 -11.107 -12.9479 -8.486 -9.047501 -19.6904 -16.2924 -19.559 -16.3595 
-10.503 -13.3195 -12.3346 -11.2743 -11.2788 -13.811 -15.8884 -13.6249 -14.3766 -13.1144 -12.6379 -16.3234 -17.2011 -13.7111 -16.0244 -14.1404 -9.781 -20.0098 -19.6904 -23.1414 -19.559 
-3.288 -2.743 -5.1845 -5.74 -5.9585 -3.9235 -4.889 -4.045 -1.7695 -3.852 -1.4985 -4.6105 -3.0605 -3.1385 -5.452 
-5.279 -8.2745 -5.7465 -12.6411 -10.7808 -10.2185 -10.4855 -5.853 -4.341 -4.4535 -5.6245 -8.120501 -6.437 -7.698 
-11.9255 -8.8535 -12.6894 -17.4634 -17.0758 -15.9764 -12.2935 -8.301001 -4.925 -9.737 -9.415001 -11.7228 -11.5869 
-12.5045 -16.1214 -17.5117 -23.7584 -22.8337 -17.7844 -14.7415 -8.814 -10.2275 -13.6171 -13.0497 -16.8727 
-19.7724 -20.9437 -23.8067 -29.5163 -24.6417 -20.2324 -15.2545 -14.2327 -14.1686 -17.2518 -18.1996 
