-4.759 
n/a 
n/a 
n/a 
n/a 
-4.759 
n/a 
n/a 
n/a 
n/a 
-4.759 
n/a 
n/a 
n/a 
n/a 
-4.759 
n/a 
n/a 
n/a 
n/a 
-4.388 -1.7565 -3.974 -2.742 -4.2065 -1.756 -9.9495 0 -7.0515 -6.467 -1.756 -5.1585 -4.05 -1.7565 -8.002501 -7.126 -1.7565 -5.927 -4.9225 -6.016 -12.16972 -3.616 -1.7565 -9.3765 -3.5795 0 
-6.9785 -6.292 -6.499001 -5.714 -6.4955 -12.7141 -9.9495 -7.0515 -14.2211 -7.318501 -6.46 -8.366 -6.006001 -10.075 -15.5757 -10.5135 -7.473501 -10.8215 -10.8025 -18.55012 -15.78572 -6.8395 -12.0822 -13.217 -3.5795 
-12.1058 -8.6555 -9.132501 -8.071 -18.5666 -12.7141 -17.0634 -14.2211 -15.0726 -12.5655 -10.0575 -10.6184 -15.2413 -17.7848 -18.9632 -16.2305 -13.3872 -16.7015 -23.33662 -22.16612 -19.00922 -17.6576 -15.9227 -13.217 
-14.4693 -11.4268 -11.6207 -20.3221 -18.5666 -19.828 -24.233 -15.0726 -20.3196 -16.163 -12.3099 -19.8537 -22.9511 -21.1723 -24.6802 -22.1442 -19.2672 -29.23562 -26.95262 -25.38962 -29.82732 -21.4981 -15.9227 
-17.2406 -13.915 -23.8718 -20.3221 -25.6805 -26.9976 -25.0845 -20.3196 -23.9171 -18.4154 -21.5452 -27.5635 -26.3386 -26.8893 -30.5939 -28.0242 -31.80132 -32.85162 -30.17612 -36.20772 -33.66782 -21.4981 
-3.0415 -2.7295 -2.7765 -3.429 -4.299 -1.7695 -3.4985 -1.4985 -3.6605 -4.7425 -2.7295 -3.3875 -3.619 -1.4985 -5.135 -4.35 0 -1.756 -2.7295 -3.922 -1.4985 -4.8095 -3.518 -1.934 -4.6985 0 
-4.5875 -4.065 -4.863501 -7.869 -4.783 -4.8425 -4.9685 -4.6365 -4.8735 -7.0575 -4.867 -6.8075 -4.707 -6.139501 -6.176 -4.35 -1.756 -4.083 -6.72 -4.7665 -6.0585 -7.136001 -5.322001 -7.228 -4.6985 
-5.2385 -6.0675 -9.412001 -8.493 -7.2885 -5.436 -8.122 -6.350501 -7.125501 -8.26 -7.742001 -7.2685 -8.585001 -6.534 -6.176 -5.776 -4.083 -8.5235 -7.0265 -8.297001 -7.781501 -7.951 -9.440001 -7.228 
-6.859 -10.8946 -10.1685 -11.2589 -7.892 -8.6295 -9.7885 -8.8155 -8.274501 -11.6528 -8.175 -11.6485 -8.741501 -6.534 -7.3615 -8.601501 -8.5235 -8.9785 -10.6465 -9.377501 -8.208 -12.841 -9.440001 
-12.4633 -11.6511 -12.9344 -11.8624 -10.5635 -10.199 -12.3231 -10.403 -11.6809 -12.0858 -12.833 -11.805 -8.741501 -7.4645 -9.743501 -13.08 -8.9785 -12.7023 -11.727 -9.6155 -13.4762 -12.841 
-3.974 -2.264 -4.388 0 -5.745 -4.882 -4.7525 -4.656 0 -5.627 -1.934 -5.135 -4.35 0 -5.1445 -2.356 -4.157 -4.8935 0 -2.872 -3.689 -1.934 -3.264 0 0 -2.8965 -4.4915 -3.6615 -4.7075 -1.934 -4.2425 -3.518 -1.7565 -1.4985 -4.1385 -4.3355 0 -4.7075 -1.7565 -4.8095 -3.518 -1.934 -4.3355 0 -5.193 -5.8995 -4.9225 0 -5.1585 -4.05 0 -6.8195 -4.414 -4.9395 0 -6.875 -5.513 0 -5.923 -5.1265 -2.4945 -3.9285 -1.934 -3.1435 -3.9515 0 
-4.8545 -6.164001 -4.388 -5.745 -11.7864 -10.3895 -10.8215 -4.656 -5.627 -7.016 -7.109 -6.176 -4.35 -5.1445 -7.877 -5.5535 -7.611 -4.8935 -2.872 -5.806001 -5.870501 -5.6545 -3.264 0 -2.8965 -6.617001 -7.647 -8.486 -5.1835 -6.791 -7.0915 -4.302 -2.4195 -5.0575 -5.686 -4.3355 -4.7075 -5.854001 -5.881001 -7.136001 -5.322001 -6.208 -4.3355 -5.193 -7.778501 -6.415 -4.9225 -5.1585 -8.366 -4.05 -6.8195 -11.8103 -6.7505 -4.9395 -6.875 -6.9925 -5.513 -5.923 -9.349501 -8.3955 -5.071 -4.3695 -4.335 -6.0385 -3.9515 
-8.5345 -6.164001 -11.2964 -11.7864 -17.2939 -16.4585 -10.8215 -10.9315 -7.016 -10.1 -8.555 -6.176 -10.533 -7.877 -10.586 -8.578501 -7.611 -7.3695 -5.806001 -8.2545 -8.234 -5.6545 -3.264 -2.8965 -6.617001 -10.4675 -13.1855 -9.047 -8.142501 -9.3625 -7.754001 -5.435 -5.721 -6.073501 -5.686 -10.135 -5.854001 -8.896501 -9.034 -7.951 -10.1595 -6.208 -10.784 -7.778501 -8.202001 -6.415 -10.419 -8.366 -8.366 -11.046 -11.8103 -14.1468 -6.7505 -10.411 -6.9925 -6.9925 -8.522501 -9.349501 -12.9143 -11.1202 -5.383 -6.846 -7.598001 -6.0385 
-8.5345 -13.67 -17.3378 -17.2939 -23.3629 -16.4585 -17.097 -12.3205 -10.1 -11.546 -8.555 -13.205 -13.2655 -10.586 -13.611 -8.578501 -10.1505 -10.007 -8.2545 -10.2325 -8.234 -5.6545 -6.860001 -6.617001 -10.4675 -16.0306 -13.7465 -12.1924 -11.039 -10.144 -8.231501 -9.481 -6.809 -6.073501 -12.0911 -11.2447 -8.896501 -12.3579 -9.356501 -13.5605 -10.1595 -13.5781 -13.3695 -8.202001 -8.202001 -12.7809 -10.647 -8.366 -15.6584 -16.0368 -14.1468 -14.1468 -12.7622 -10.762 -6.9925 -9.112 -12.6706 -12.9143 -15.639 -11.4322 -7.949 -10.6418 -7.598001 
-16.1791 -19.7114 -22.8453 -23.3629 -23.3629 -22.734 -18.486 -15.4045 -11.546 -11.546 -15.997 -15.9375 -15.9745 -13.611 -13.611 -10.6095 -12.788 -12.4555 -10.2325 -10.2325 -8.234 -9.4855 -11.2825 -10.4675 -16.0306 -16.5916 -16.8919 -15.0889 -11.8205 -10.6215 -12.7939 -9.886001 -6.809 -12.953 -13.2008 -14.2872 -12.3579 -12.6804 -15.3954 -13.5605 -17.5296 -16.1636 -13.793 -8.202001 -15.2417 -13.0089 -10.647 -15.6584 -20.6492 -18.3733 -14.1468 -20.1585 -13.1132 -10.762 -9.112 -13.6523 -16.2354 -15.639 -15.951 -13.9982 -12.0232 -10.6418 
-2.0935 -4.5085 -3.942 -1.7695 -2.489 -4.7075 -1.4985 -4.2425 -3.518 
-5.9465 -8.5315 -5.6655 -3.1405 -8.632501 -5.6415 -5.842501 -7.0915 
-10.76 -10.27 -6.6105 -9.4525 -9.759001 -8.816501 -7.627001 
-12.4985 -11.5702 -13.7069 -10.6698 -13.0132 -10.248 
-13.7987 -18.6666 -14.9242 -13.924 -14.4447 
