-4.759 
n/a 
n/a 
n/a 
n/a 
-4.759 
n/a 
n/a 
n/a 
n/a 
-4.759 
n/a 
n/a 
n/a 
n/a 
-4.759 
n/a 
n/a 
n/a 
n/a 
-3.1385 -3.998 -2.3335 -6.876 -2.229 -4.6335 -2.7415 -3.851 -1.7695 -1.4985 -5.54 -1.7565 -4.219 -2.3345 -4.891 -3.433 -4.4285 -1.7565 -6.4735 -3.768 -4.037 -2.0935 -7.424 -11.0555 
-6.358 -5.1075 -9.121 -8.639001 -6.149 -6.626 -5.627 -4.0015 -2.7955 -6.501 -6.381001 -5.991001 -6.4095 -7.811501 -8.5605 -8.2875 -4.6405 -7.466001 -9.9895 -7.5155 -4.876 -9.444 -19.2721 
-7.2075 -12.1692 -10.718 -10.4945 -7.575 -8.693501 -5.752501 -4.5775 -8.101501 -7.56 -9.828001 -8.1 -12.5179 -10.6875 -13.5688 -8.4305 -9.0305 -11.304 -13.817 -7.8525 -10.4035 -21.3513 
-14.319 -13.7662 -12.5735 -11.9205 -9.276501 -8.9645 -6.3525 -9.163 -8.886001 -11.1724 -12.1154 -14.5082 -15.3939 -15.6958 -13.7118 -13.0381 -13.1995 -15.1315 -14.154 -13.7186 -22.3108 
-15.916 -15.6217 -13.9995 -13.622 -9.715 -9.4505 -11.0344 -9.6745 -12.613 -13.4598 -18.5236 -17.3842 -20.4022 -15.8388 -18.3194 -17.2071 -17.027 -15.4685 -20.0201 -25.6259 
-2.4265 -2.186 -3.998 -2.3335 -3.17 -1.7565 -1.4985 -5.1845 -3.1385 -3.768 -2.674 -4.758 -2.0935 -7.424 -12.16972 0 -6.876 -2.229 -4.6335 -2.7415 -4.7175 -3.433 -1.7565 -6.144 -6.541 -1.4985 -4.219 0 
-3.292 -5.775001 -5.1075 -5.0315 -4.179 -2.4195 -6.5205 -7.4095 -6.0275 -4.7755 -6.1945 -5.5275 -9.444 -20.38632 -12.16972 -6.876 -8.639001 -6.149 -6.626 -6.209001 -5.9815 -4.1845 -7.7095 -13.6848 -7.149 -5.129 -4.219 
-6.349 -6.589 -7.7545 -5.5775 -4.497 -7.2335 -7.6315 -10.6749 -7.108 -8.196501 -6.7785 -10.7495 -22.46552 -20.38632 -19.04572 -8.639001 -10.4945 -7.575 -9.894501 -7.752 -6.551 -9.992001 -15.4321 -14.2928 -8.908501 -5.129 
-6.5935 -8.6945 -8.2415 -5.845 -9.278501 -8.087501 -11.0561 -11.7554 -9.698501 -8.489 -12.2419 -23.77102 -22.46552 -27.26232 -20.80872 -10.4945 -11.9205 -10.7175 -11.7623 -8.2145 -12.5071 -17.7146 -16.0401 -16.0523 -8.908501 
-8.697001 -9.1455 -8.4645 -10.5225 -10.355 -11.5657 -12.1366 -14.3459 -10 -14.1074 -25.26342 -23.77102 -29.34152 -29.02532 -22.66422 -11.9205 -15.063 -12.5853 -12.2248 -14.2124 -20.2297 -18.3226 -17.7996 -16.0523 
-1.4985 -4.031 -2.0935 -1.4985 -4.6335 -1.7565 -6.876 -6.798 -3.7015 -7.424 -7.7005 -2.186 -3.851 -1.7695 -1.4985 -5.54 -1.7565 -4.219 -2.3345 -4.5845 -3.7875 -1.934 -2.3335 -4.0335 -2.3335 -4.4285 -1.7565 -1.4985 -8.1485 -2.742 -4.037 -2.0935 -6.876 -6.798 
-4.771 -4.8935 -2.9725 -5.8 -6.1985 -8.572001 -7.188 -10.31 -10.089 -8.303 -9.5825 -5.0955 -4.0015 -2.7955 -6.501 -6.381001 -5.991001 -6.4095 -6.9325 -8.7545 -6.4675 -4.359 -7.028501 -5.1955 -7.104 -4.6405 -2.4195 -9.3275 -10.802 -6.077001 -4.876 -9.0395 -7.188 
-5.3855 -5.596 -7.089001 -6.64 -10.361 -9.066 -10.5035 -16.6975 -10.968 -10.001 -12.5694 -5.314 -4.5775 -8.101501 -7.56 -9.828001 -8.1 -11.6389 -11.5887 -11.6063 -8.7655 -8.426001 -8.9405 -9.83 -7.429501 -5.2 -10.168 -12.0384 -14.137 -6.548 -9.84 -9.6455 
-5.895 -9.450001 -7.947001 -10.5425 -10.771 -12.6901 -16.891 -17.5765 -12.666 -12.9879 -12.7879 -5.7875 -9.163 -8.886001 -11.1724 -12.1154 -13.6292 -16.2951 -14.4405 -13.9043 -13.0207 -10.019 -13.7064 -9.9235 -7.897 -13.5141 -12.8789 -15.3734 -14.608 -12.0608 -10.3575 
-9.9635 -9.9875 -12.1287 -10.9525 -14.3951 -19.0776 -17.77 -19.2745 -15.6529 -13.2064 -13.2614 -10.4946 -9.6745 -12.613 -13.4598 -17.6446 -18.2854 -19.1469 -16.7385 -18.1595 -14.6137 -14.7849 -13.7999 -10.4665 -16.3627 -16.225 -16.2139 -15.8444 -20.1208 -12.5783 
-2.4265 -2.186 -4.742 -3.264 -2.3335 -3.17 -1.7565 -1.4985 -6.4735 -3.5745 -2.6165 -3.429 -3.355 -1.934 -1.4985 -4.219 -4.172 -1.7695 -1.4985 -4.6335 -1.7565 -6.876 -8.64 0 
-3.292 -5.620501 -8.534 -4.533 -5.0315 -4.179 -2.4195 -7.190001 -9.368 -4.114 -5.155 -5.2945 -4.8475 -2.6125 -5.129 -8.460001 -4.8625 -2.7955 -5.8 -6.1985 -8.572001 -9.514501 -8.64 
-6.3455 -8.9995 -9.0755 -7.149 -5.5775 -4.497 -7.9315 -9.867001 -9.582001 -6.0775 -6.9205 -5.3915 -5.376 -6.29 -9.435501 -8.604 -5.4245 -7.292 -6.64 -10.361 -11.2335 -9.514501 
-9.246 -9.3835 -11.7437 -7.5385 -5.845 -9.605 -10.6809 -10.085 -11.6021 -7.458 -6.982 -5.8855 -8.033501 -10.503 -9.651001 -9.4285 -8.813001 -7.9935 -10.5425 -13.4033 -11.2335 
-9.385 -12.0949 -12.1332 -7.7045 -10.9898 -12.4672 -10.8989 -12.1051 -12.9826 -7.518 -7.296 -8.356501 -12.4763 -10.7175 -10.4795 -12.8374 -8.994 -12.053 -13.5848 -13.4033 
