-4.759 
n/a 
n/a 
n/a 
n/a 
-4.759 
n/a 
n/a 
n/a 
n/a 
-4.759 
n/a 
n/a 
n/a 
n/a 
-4.759 
n/a 
n/a 
n/a 
n/a 
-3.4865 -3.594 -4.1785 -2.186 -4.9385 -2.356 -2.3615 -4.4265 -3.7075 0 
-7.4195 -8.87 -5.811501 -6.113 -6.554 -4.2185 -7.739 -7.2305 -3.7075 
-13.2679 -10.739 -10.5535 -7.863501 -9.18 -9.278001 -10.4765 -7.2305 
-15.1369 -15.481 -12.304 -10.647 -14.4529 -12.0939 -10.4765 
-19.8789 -17.2315 -15.0875 -15.9199 -17.2688 -12.0939 
-3.4865 -1.756 -3.3785 -4.571 -2.229 -5.6055 0 
-5.8885 -5.0435 -8.111 -7.635 -8.4835 -5.6055 
-7.395501 -10.533 -11.5474 -14.2071 -8.4835 
-13.9026 -13.9694 -18.1195 -14.2071 
-17.339 -20.5415 -18.1195 
-5.147 -1.4985 -3.8225 -3.594 -4.2355 -2.4945 -4.9385 -1.934 -2.3615 -4.932 -4.832 0 
-6.8985 -4.887 -8.035 -5.6155 -6.815001 -5.9385 -5.7735 -3.539 -8.0935 -8.1955 -4.832 
-10.4765 -9.533001 -10.7047 -8.0155 -9.237 -6.41 -8.011001 -8.807 -10.096 -8.1955 
-15.1225 -12.4329 -13.1047 -10.6835 -9.780001 -8.5635 -13.718 -11.1027 -10.096 
-18.0224 -14.8329 -15.7727 -11.2265 -12.3135 -14.4207 -16.0137 -11.1027 
-3.237 -4.2355 -2.4945 -4.9385 -4.8275 -1.934 -2.3615 -3.333 -3.098 0 
-7.474 -6.815001 -5.9385 -8.889501 -6.507 -3.539 -5.5845 -6.419001 -3.098 
-9.2665 -9.237 -9.772501 -10.0715 -7.9995 -6.3735 -8.505501 -6.419001 
-11.8697 -13.489 -11.1701 -11.7424 -11.0266 -9.4375 -8.505501 
-16.1217 -14.8866 -12.841 -14.7695 -14.0906 -9.4375 
