-4.759 
n/a 
n/a 
n/a 
n/a 
-4.759 
n/a 
n/a 
n/a 
n/a 
-4.759 
n/a 
n/a 
n/a 
n/a 
-4.759 
n/a 
n/a 
n/a 
n/a 
-4.2685 -2.4945 -3.43 -1.7695 -4.3245 -4.278 -2.229 -3.917 -3.135 -3.355 -1.7565 -1.4985 -4.928 -2.5045 -3.452 -4.4385 0 
-5.785501 -4.758 -4.647 -4.714 -9.683001 -6.414001 -6.542 -7.233001 -6.2565 -3.725 -2.4195 -6.494 -7.511001 -6.933001 -8.489 -4.4385 
-6.799001 -5.797501 -7.6055 -10.3475 -10.018 -11.6508 -10.115 -10.4035 -6.377 -4.0515 -7.211 -8.7475 -12.3087 -12.4912 -8.489 
-6.8475 -8.9315 -13.4602 -10.6825 -16.7328 -15.2238 -13.2863 -10.77 -6.666 -9.185 -9.347501 -13.5316 -17.8669 -12.4912 
-9.880501 -14.863 -13.7952 -17.3973 -20.3058 -18.3951 -13.6528 -11.059 -12.2055 -11.6723 -14.1812 -19.0898 -17.8669 
-1.8085 -7.271 -1.7565 -4.278 -2.7415 -4.4495 -1.756 -4.3035 -1.7695 -4.556 -1.4985 -3.602 -1.934 -1.4985 -3.519 -1.7565 -3.452 0 
-8.602 -8.1805 -6.515 -7.714001 -6.3485 -6.476501 -5.6665 -4.6755 -5.0945 -5.7145 -5.410501 -4.9945 -2.6125 -4.4155 -4.4175 -5.917 -3.452 
-10.1445 -14.3465 -8.976501 -11.6666 -8.289001 -11.1298 -5.8595 -7.486001 -6.0135 -9.964001 -6.6185 -6.0495 -4.8345 -4.839 -8.392 -5.917 
-15.251 -17.148 -13.1109 -13.6071 -13.1353 -11.3228 -8.701501 -8.308001 -10.2435 -11.3918 -7.154 -8.767 -4.9455 -8.679 -8.392 
-17.7567 -21.2824 -15.0514 -18.4534 -13.3283 -14.1648 -9.4475 -12.7258 -11.6713 -11.9273 -9.887 -8.811501 -8.726001 -8.679 
-1.8085 -3.776 -5.032 -1.4985 -4.278 -3.473 -3.737 -1.7695 -4.052 -1.4985 -3.958 0 
-4.59 -10.2645 -6.418 -6.1565 -6.3855 -7.7555 -6.3935 -4.393 -4.752 -5.6145 -3.958 
-11.8831 -11.6505 -11.8232 -9.992001 -13.5246 -10.9496 -8.111501 -4.9985 -8.1225 -5.6145 
-13.2691 -17.0557 -15.6587 -17.1311 -16.7187 -12.6676 -8.719501 -8.3695 -8.1225 
-18.6743 -20.8912 -22.7978 -20.3252 -18.4367 -13.2756 -12.1925 -8.3695 
-4.426 -1.7565 -1.4985 -3.0835 -4.7285 -4.1555 -3.147 0 
-5.47 -2.4195 -3.535 -6.042 -8.4455 -5.77 -3.147 
-5.9535 -4.6785 -6.335501 -9.523001 -9.541501 -5.77 
-8.021 -7.476501 -10.0095 -10.7035 -9.541501 
-9.983001 -11.3061 -11.3 -10.7035 
