-4.759 
n/a 
n/a 
n/a 
n/a 
-4.759 
n/a 
n/a 
n/a 
n/a 
-4.759 
n/a 
n/a 
n/a 
n/a 
-4.759 
n/a 
n/a 
n/a 
n/a 
-2.3615 -3.522 -2.186 -3.402 -2.0935 -6.324 -2.229 -5.532 
-4.1595 -5.033 -4.6135 -6.769 -9.314001 -8.696001 -7.742001 
-5.263 -7.05 -7.8 -14.4385 -11.8162 -14.3604 
-7.1565 -10.442 -15.9551 -16.9407 -17.4806 
-10.609 -18.5971 -18.4573 -22.6051 
-2.3615 -4.867 -2.7455 -3.8005 -4.2465 
-6.195 -6.797 -6.21 -7.7965 
-8.389 -9.648001 -10.4945 
-11.515 -14.6245 
-16.4915 
-2.3615 -4.867 -2.186 -2.7455 -1.4985 -4.1125 -3.9675 0 
-6.195 -6.5645 -4.686 -3.637 -5.1 -6.2585 -3.9675 
-7.1 -8.169001 -5.6835 -7.288001 -7.382501 -6.2585 
-8.5 -8.7685 -9.290501 -8.681001 -7.382501 
-9.014 -12.4657 -10.7763 -8.681001 
-2.3615 -4.584 -2.186 -2.7455 -1.4985 -3.9675 -1.7565 -3.8005 0 
-7.0645 -6.3135 -4.686 -3.637 -5.356501 -5.258 -5.0365 -3.8005 
-7.8785 -8.598001 -5.6835 -7.016 -5.832 -7.9195 -5.0365 
-10.0925 -10.0345 -8.9655 -7.477 -8.5815 -7.9195 
-11.529 -13.3791 -9.422501 -9.805 -8.5815 
