-4.759 
n/a 
n/a 
n/a 
n/a 
-4.759 
n/a 
n/a 
n/a 
n/a 
-4.759 
n/a 
n/a 
n/a 
n/a 
-4.759 
n/a 
n/a 
n/a 
n/a 
-2.4265 -2.186 -3.8735 -2.229 -3.17 -4.9815 -4.3035 -3.1715 
-3.292 -6.749001 -5.3655 -4.5735 -9.3235 -7.212 -7.804 
-8.0865 -7.036 -7.127501 -11.913 -10.6615 -11.1409 
-8.3485 -8.389 -15.0032 -13.251 -14.5904 
-9.540001 -16.4983 -16.3412 -17.1799 
-6.557 -2.186 -2.871 -1.7565 -1.4985 -3.535 -4.197 -5.9155 -3.1715 -1.934 -3.8735 
-8.833 -4.247 -3.5385 -2.4195 -4.8385 -5.5535 -9.0115 -8.645 -5.1815 -4.885 
-10.2185 -4.411 -3.7675 -5.771501 -6.7505 -10.9394 -12.1528 -9.355 -7.614 
-10.2725 -4.5655 -7.1335 -7.449 -12.3548 -14.0807 -12.8628 -9.701 
-10.3035 -8.240001 -9.706 -13.2859 -15.4961 -14.7907 -13.2088 
-2.3615 -2.186 -3.8735 -2.229 -2.871 -1.7565 -3.2825 -3.1715 -1.934 -4.25 -4.3035 
-3.5005 -6.749001 -5.3655 -5.068 -3.5385 -5.5245 -6.934 -5.1815 -6.359 -7.223 
-8.2285 -7.036 -8.377001 -5.509501 -7.1225 -9.686 -8.182501 -10.061 -8.605 
-8.7065 -9.47 -8.7425 -8.9595 -11.2836 -10.9777 -13.9482 -12.307 
-11.3131 -9.526 -12.9983 -13.2476 -12.5753 -16.7434 -16.1942 
-2.3615 -3.8735 -2.229 -5.0185 -3.4915 -2.645 -3.8805 -3.705 -3.468 -1.7565 -2.871 0 
-7.8055 -5.3655 -6.395 -9.672001 -4.402 -7.097 -8.485001 -8.969001 -4.7385 -4.521 -2.871 
-8.866501 -8.637501 -10.2815 -10.266 -8.931001 -12.3809 -13.8844 -10.5553 -8.252501 -4.521 
-11.3389 -13.6702 -11.8332 -14.418 -14.4763 -17.7803 -15.4707 -14.0693 -8.252501 
-18.152 -14.7611 -18.2922 -21.5053 -19.8757 -19.3666 -18.9847 -14.0693 
