-4.759 
n/a 
n/a 
n/a 
n/a 
-4.759 
n/a 
n/a 
n/a 
n/a 
-4.759 
n/a 
n/a 
n/a 
n/a 
-4.759 
n/a 
n/a 
n/a 
n/a 
-2.9805 -4.303 -3.3715 -4.114 -1.934 -5.8205 -1.756 -1.4985 -6.9985 -3.6825 -2.229 -5.262 -4.4605 0 
-5.712 -7.203 -6.7115 -5.371 -8.063001 -6.954 -3.0405 -7.8605 -9.712 -5.3925 -6.991 -9.0515 -4.4605 
-8.561001 -9.5515 -7.8595 -9.781501 -8.9585 -8.289001 -9.1905 -10.4345 -11.422 -8.604 -11.3085 -9.0515 
-10.6735 -10.005 -12.4364 -10.691 -10.4043 -14.6758 -11.9009 -12.1445 -14.6335 -13.2639 -11.3085 
-11.127 -14.8433 -13.3459 -12.1368 -16.7911 -17.3862 -13.6109 -15.356 -19.2934 -13.2639 
-2.9805 -2.8645 -5.227 -1.934 -3.3715 -5.8205 -2.0935 -7.7575 -3.1385 -1.934 -3.2015 -1.7565 -7.539001 -3.6825 
-4.3245 -6.4055 -6.109 -4.622 -8.465501 -7.887501 -9.6905 -11.3094 -4.522 -5.024 -4.706 -9.3245 -10.404 
-7.330501 -7.1095 -8.274 -9.547501 -10.361 -15.8385 -13.6564 -12.6929 -8.085001 -5.101501 -12.839 -12.0897 
-8.042001 -8.6435 -10.6465 -11.5094 -18.312 -19.8044 -15.0399 -16.2559 -8.1765 -13.6329 -15.6042 
-9.118 -11.1246 -12.6084 -19.4604 -22.2779 -21.1879 -18.6029 -16.3474 -16.9061 -16.3981 
-2.9805 -2.229 -3.074 -3.6505 -1.756 -3.685 -1.4985 -5.1845 -5.8205 0 
-4.2145 -5.0265 -7.745 -5.246 -5.691 -5.283 -6.5205 -9.925501 -5.8205 
-6.030001 -9.6675 -9.4355 -8.7635 -7.585 -10.1465 -11.9769 -9.925501 
-11.2948 -11.4598 -13.102 -10.8895 -12.9473 -16.1297 -11.9769 
-13.0871 -15.1263 -15.228 -16.2518 -18.9305 -16.1297 
-2.9805 -2.7415 -3.074 -4.3665 -1.934 -3.135 -3.7805 -1.7695 -4.4755 -7.539001 -9.778501 -4.414 0 
-4.004 -4.727 -6.3505 -5.364 -4.4015 -6.927001 -5.99 -5.448 -13.2437 -18.3231 -14.2777 -4.414 
-5.7825 -7.316 -7.372 -7.9185 -8.2655 -8.472 -10.159 -14.7918 -24.0278 -22.8223 -14.2777 
-9.063901 -8.278501 -9.5275 -11.9875 -10.688 -13.0782 -19.496 -25.5759 -28.527 -22.8223 
-10.0264 -10.3965 -13.6009 -14.41 -15.2942 -22.4152 -30.2801 -30.0751 -28.527 
