-4.759 
n/a 
n/a 
n/a 
n/a 
-4.759 
n/a 
n/a 
n/a 
n/a 
-4.759 
n/a 
n/a 
n/a 
n/a 
-4.759 
n/a 
n/a 
n/a 
n/a 
-1.934 -5.1845 -6.844 -4.9115 0 -5.4685 0 -4.832 -2.4945 -3.4625 -4.3895 -2.3345 -8.803 -3.1385 
-6.564 -6.9655 -12.6941 -4.9115 -5.4685 -5.4685 -4.832 -7.966001 -4.7105 -6.507 -4.6785 -10.7495 -10.419 
-9.2075 -12.985 -12.6941 -7.743001 -5.4685 -9.4215 -7.966001 -9.745001 -7.145 -7.108 -13.8571 -12.3655 
-15.3076 -12.985 -15.5256 -7.743001 -9.4215 -12.7459 -9.745001 -12.3527 -8.188001 -16.5234 -15.4731 
-15.3076 -15.8165 -15.5256 -12.5536 -12.7459 -14.5249 -12.3527 -13.3957 -17.7382 -18.1394 
-4.9115 0 -5.4685 0 -12.16972 -2.4945 -4.3895 -1.934 -5.1845 -6.262 
-4.9115 -5.4685 -5.4685 -12.16972 -14.66422 -6.08 -5.879 -6.564 -8.6805 
-7.743001 -5.4685 -18.67842 -14.66422 -18.24972 -7.463 -10.1505 -10.6722 
-7.743001 -18.67842 -21.17292 -18.24972 -19.63272 -12.1271 -14.5997 
-21.81052 -21.17292 -24.75842 -19.63272 -24.29682 -16.5763 
-1.934 -5.1845 -6.844 -4.3535 -4.9115 -4.764 -6.899 -3.1385 -4.3535 -5.389 -1.756 -4.9115 
-6.564 -6.9655 -12.1361 -8.955 -8.887001 -12.1412 -9.762501 -8.6625 -9.897001 -7.048501 -6.4145 
-9.2075 -12.427 -16.7376 -13.1369 -16.3916 -15.0047 -15.5419 -14.3688 -11.5565 -9.989501 
-14.7496 -17.0285 -20.9195 -20.6415 -19.2551 -20.7841 -21.2482 -16.0283 -14.4975 
-19.3511 -21.2104 -28.4241 -23.505 -25.0345 -26.4904 -22.9077 -18.9693 
-1.934 -5.1845 -8.628 0 -4.9115 -1.756 -5.4685 -2.4945 -4.3895 -2.3345 -5.1255 -1.756 -5.389 -4.6065 0 
-6.564 -9.059501 -8.628 -4.9115 -5.9325 -6.951 -7.8985 -6.08 -4.6785 -6.9525 -6.206 -6.929 -10.884 -4.6065 
-11.0512 -9.059501 -13.8321 -5.9325 -8.404501 -8.502001 -11.7114 -6.564001 -9.118 -7.9705 -9.9405 -12.8408 -10.884 
-11.0512 -14.4886 -14.8531 -8.404501 -9.666501 -12.4881 -12.1954 -10.575 -10.019 -11.802 -15.9313 -12.8408 
-16.4803 -15.5096 -17.3251 -9.666501 -13.6624 -12.9721 -16.2064 -11.476 -13.9079 -17.7928 -15.9313 
