-4.759 
n/a 
n/a 
n/a 
n/a 
-4.759 
n/a 
n/a 
n/a 
n/a 
-4.759 
n/a 
n/a 
n/a 
n/a 
-4.759 
n/a 
n/a 
n/a 
n/a 

n/a 
n/a 
n/a 
n/a 
-2.3615 -2.8645 -5.1435 -8.5135 -12.16972 -9.302 -4.142 -1.756 -9.985001 -4.4385 -11.0555 
-4.878 -9.337 -14.8144 -21.09382 -21.47172 -13.5914 -5.7175 -11.1415 -14.6653 -16.4436 
-12.3439 -19.1595 -27.39472 -30.39582 -25.76112 -15.1669 -16.0396 -15.8218 -26.6704 
-22.1664 -31.73982 -36.69672 -34.68522 -27.33662 -25.489 -20.7199 -27.8269 
-34.74672 -41.04182 -40.98612 -36.26072 -37.65872 -30.1693 -32.725 
-1.934 -2.3615 -6.334 -4.1675 -3.115 -1.8085 -5.1435 -4.877 -2.356 -2.743 -4.653 -4.142 -1.756 -4.07 -1.934 -4.4385 -2.186 -4.6205 -2.645 -4.1215 -2.5045 -1.4985 -3.177 -1.7565 -1.4985 -7.641 0 
-3.539 -8.5635 -10.2135 -4.664 -4.2095 -8.277 -8.253 -6.9725 -5.844 -7.5645 -8.0725 -5.7175 -5.9625 -6.0205 -5.7805 -6.318501 -8.13 -6.7345 -6.7925 -6.9155 -3.1915 -4.0915 -4.2135 -2.4195 -8.947001 -7.641 
-9.5185 -12.7272 -10.71 -5.4175 -9.903501 -11.6311 -10.3415 -10.3745 -9.7995 -10.1345 -9.1285 -9.964001 -7.58 -7.941 -7.838 -12.7155 -10.233 -10.6605 -9.601501 -7.6005 -4.789001 -4.6665 -4.634 -9.7535 -8.947001 
-13.7506 -13.2237 -11.4635 -11.3453 -13.2576 -13.7196 -13.9071 -14.33 -12.4935 -11.1905 -13.6098 -11.5815 -8.9455 -10.31 -14.6142 -14.8185 -14.159 -13.4695 -10.6755 -9.574 -4.951 -4.8935 -12.834 -9.7535 
-14.2471 -13.9772 -17.3913 -14.6994 -15.3461 -17.2852 -17.8626 -17.024 -13.5495 -15.6718 -15.2273 -12.947 -11.3677 -17.0862 -16.7172 -18.7445 -16.968 -14.5435 -12.649 -9.715 -5.2045 -13.2103 -12.834 
-5.1435 -4.877 -7.566 -2.186 -2.743 -4.653 -4.142 -2.186 -3.859 -1.934 -1.4985 -4.4385 -1.7565 -5.0555 0 
-8.253 -13.4404 -9.363501 -5.8585 -7.5645 -8.0725 -6.1185 -6.7795 -5.965 -2.6125 -5.331 -5.339001 -6.603001 -5.0555 
-17.3012 -15.2379 -13.5086 -10.564 -10.1345 -9.665001 -11.4596 -7.971 -6.954 -6.0635 -5.516 -10.3545 -6.603001 
-19.0987 -19.383 -18.2141 -13.134 -11.727 -15.2001 -12.6511 -8.942 -10.0005 -6.109 -10.6675 -10.3545 
-23.2438 -24.0885 -20.7841 -14.7265 -17.2621 -16.3916 -13.6221 -12.1203 -10.0115 -11.2253 -10.6675 
