-4.759 
n/a 
n/a 
n/a 
n/a 
-4.759 
n/a 
n/a 
n/a 
n/a 
-4.759 
n/a 
n/a 
n/a 
n/a 
-4.759 
n/a 
n/a 
n/a 
n/a 
-10.7895 -3.5485 -2.229 -3.5865 -2.4945 -3.958 -1.934 -6.3215 0 
-14.338 -4.0385 -5.343 -6.639 -5.478001 -5.497 -7.453 -6.3215 
-14.828 -6.303 -8.668501 -9.538 -6.908 -11.7692 -7.453 
-17.0925 -9.776 -11.6035 -11.1928 -13.573 -11.7692 
-20.5655 -12.711 -13.2583 -17.8578 -13.573 
-7.853 -3.5485 -2.229 -3.5865 -2.4945 -3.5485 -2.229 -4.536 -4.06 -1.934 -6.3215 0 
-10.004 -4.0385 -5.343 -6.639 -6.123 -4.0385 -6.57 -7.866 -4.483 -7.453 -6.3215 
-10.1275 -6.303 -8.668501 -9.799001 -7.5435 -7.392 -10.647 -8.2005 -9.726001 -7.453 
-10.146 -9.776 -11.8645 -11.2195 -9.908001 -11.6584 -10.7815 -13.5847 -9.726001 
-13.619 -12.972 -13.285 -13.584 -14.2716 -11.7929 -16.1657 -13.5847 
-7.853 -4.8275 0 -3.5865 -2.4945 -1.4985 -3.5485 -2.229 -4.536 -1.934 -6.3215 0 
-10.821 -4.8275 -3.5865 -6.639 -3.9315 -5.0185 -4.0385 -6.57 -5.973001 -7.453 -6.3215 
-10.821 -7.701 -6.639 -8.124001 -7.2795 -5.448 -7.392 -8.233 -9.6525 -7.453 
-13.6945 -11.3927 -8.124001 -11.7048 -8.296 -8.8435 -8.505 -12.2975 -9.6525 
-17.3862 -12.8777 -11.7048 -12.7213 -11.9183 -9.873501 -12.7849 -12.2975 
-7.853 -3.5485 -2.229 -3.5865 -2.4945 -1.4985 -3.5485 -2.229 -4.536 -1.934 -6.3215 0 
-10.004 -4.0385 -5.343 -6.639 -3.9315 -5.0185 -4.0385 -6.57 -5.973001 -7.453 -6.3215 
-10.1275 -6.303 -8.668501 -8.124001 -7.2795 -5.448 -7.392 -8.233 -9.6525 -7.453 
-10.146 -9.776 -10.0515 -11.7048 -8.296 -8.8435 -8.505 -12.2975 -9.6525 
-13.619 -11.159 -13.6323 -12.7213 -11.9183 -9.873501 -12.7849 -12.2975 
