-4.759 
n/a 
n/a 
n/a 
n/a 
-4.759 
n/a 
n/a 
n/a 
n/a 
-4.759 
n/a 
n/a 
n/a 
n/a 
-4.759 
n/a 
n/a 
n/a 
n/a 
-3.115 -2.8965 -4.051 -3.959 0 -3.383 -3.689 -3.1385 -3.3165 -1.7695 -4.7965 
-5.740001 -6.3285 -5.893 -3.959 -3.383 -7.358 -6.723001 -6.024 -3.881 -6.862 
-8.967501 -7.579 -5.893 -7.828 -7.358 -9.216001 -9.207001 -6.571001 -8.5425 
-10.444 -7.579 -9.846001 -12.2238 -9.216001 -12.0056 -9.4425 -9.669001 
-10.444 -11.7588 -14.417 -14.0818 -12.0056 -12.2411 -12.9453 
-5.084 -3.264 -1.7565 -4.0955 -3.1385 -3.098 -3.6515 -1.7695 -1.4985 -3.9565 -3.183 -3.115 -4.02 -3.959 
-7.242 -3.6125 -5.581501 -7.1025 -6.344 -6.1565 -3.9135 -2.7955 -4.676001 -7.125501 -4.7715 -7.460001 -6.338 
-7.39 -7.812 -8.301001 -10.3675 -9.865001 -6.212 -5.3495 -5.9175 -7.8275 -8.573501 -9.211 -9.4855 
-11.9137 -9.9175 -11.6552 -13.8885 -10.171 -8.308001 -8.2865 -8.901501 -9.1595 -13.2292 -10.718 
-14.0192 -13.3367 -15.1762 -14.1945 -12.267 -11.3578 -11.3531 -10.3815 -13.7522 -14.7362 
-3.115 -4.051 -3.959 -3.147 -3.074 -3.098 -3.689 -3.1385 -2.4945 -3.6515 -1.7695 -3.9565 
-7.629001 -5.893 -7.464 -6.154 -6.5635 -7.0465 -6.723001 -4.588 -4.7215 -3.9135 -5.8885 
-9.592001 -9.254001 -10.1465 -9.426001 -10.533 -10.204 -7.854 -6.1895 -4.83 -6.859 
-13.0116 -12.1271 -13.4185 -13.4837 -13.9133 -11.335 -9.015 -6.2665 -8.598001 
-15.8847 -15.3991 -17.4762 -16.864 -15.0443 -12.496 -9.092501 -9.462001 
-3.183 -3.115 -1.934 -4.051 -3.959 0 -3.098 -3.7375 -2.4945 -3.6515 -1.7695 -4.7965 0 
-4.7715 -5.330501 -5.608 -5.893 -3.959 -3.098 -6.5005 -6.2495 -4.7215 -3.9135 -6.862 -4.7965 
-6.399 -9.7165 -6.5045 -5.893 -6.3035 -6.5005 -8.404 -8.2775 -4.83 -8.816501 -6.862 
-10.7175 -10.3305 -6.5045 -8.902 -9.822001 -8.404 -10.396 -8.548 -9.81 -8.816501 
-11.3315 -10.3305 -9.435501 -12.7583 -11.8141 -10.396 -10.4155 -13.6556 -9.81 
