-4.759 
n/a 
n/a 
n/a 
n/a 
-4.759 
n/a 
n/a 
n/a 
n/a 
-4.759 
n/a 
n/a 
n/a 
n/a 
-4.759 
n/a 
n/a 
n/a 
n/a 
-1.934 -1.4985 -3.493 -1.7565 -4.889 -4.8115 -1.934 -7.785501 -1.4985 -3.6385 -3.0695 -4.784 -2.5195 -4.9395 -6.759501 0 
-2.6125 -4.207 -4.416 -6.831501 -6.759501 -6.611 -8.973001 -10.0255 -4.690001 -4.965 -7.278001 -7.4615 -7.143001 -11.0095 -6.385 
-4.6565 -4.6365 -9.3395 -8.8625 -7.510001 -14.2382 -11.4486 -13.217 -5.4355 -9.170001 -10.3873 -12.4438 -13.977 -11.2487 
-4.7345 -9.8625 -10.6225 -9.7045 -15.6186 -16.7138 -14.6401 -13.9625 -9.266001 -12.4889 -15.3696 -19.2778 -13.977 
-9.9055 -11.1117 -11.4645 -17.8133 -18.0942 -19.9053 -15.3856 -17.793 -12.6423 -17.4712 -22.2036 -19.2778 
-4.784 -2.0935 -7.785501 -4.889 -4.8115 0 -4.9395 -4.2555 -3.0015 0 
-5.5975 -9.811001 -13.2421 -6.759501 -4.8115 -4.9395 -9.658001 -7.574501 -3.0015 
-14.6304 -15.3088 -15.1126 -6.759501 -10.4595 -9.658001 -13.0602 -7.574501 
-20.1282 -17.1793 -15.1126 -13.1619 -15.178 -13.0602 -13.0602 
-21.9987 -17.1793 -21.515 -17.8804 -18.5802 -13.0602 
-4.9395 -4.2555 -3.0015 0 -2.7415 -4.784 -1.934 -7.785501 -4.889 -4.8115 0 
-9.658001 -7.574501 -3.0015 -2.7415 -5.6175 -5.6055 -8.973001 -13.2421 -6.759501 -4.8115 
-13.0602 -7.574501 -6.536 -5.6175 -6.486001 -13.6021 -14.6652 -15.1126 -6.759501 
-13.0602 -11.7526 -9.783001 -6.486001 -15.1654 -19.2943 -16.5357 -15.1126 
-17.2383 -14.9996 -10.4975 -15.1654 -20.8576 -21.1648 -16.5357 
-7.246 -8.444 -4.784 -2.0935 -9.868501 -5.733 -4.8115 0 
-15.422 -13.273 -5.5975 -12.953 -15.8215 -11.5455 -4.8115 
-20.8198 -14.4843 -17.7724 -18.906 -21.634 -11.5455 
-21.6333 -26.6592 -23.7254 -24.7185 -21.634 
-33.8082 -32.6122 -29.5379 -24.7185 
