-4.759 
n/a 
n/a 
n/a 
n/a 
-4.759 
n/a 
n/a 
n/a 
n/a 
-4.759 
n/a 
n/a 
n/a 
n/a 
-4.759 
n/a 
n/a 
n/a 
n/a 
-6.1575 -12.16972 0 -12.16972 0 -5.8065 0 
-18.97862 -12.16972 -12.16972 -12.16972 -5.8065 -5.8065 
-18.97862 -24.33944 -12.16972 -17.97622 -5.8065 
-31.14834 -24.33944 -17.97622 -17.97622 
-31.14834 -30.14594 -17.97622 
-21.42772 0 -5.8065 0 0 
-21.42772 -5.8065 -5.8065 0 
-27.46002 -5.8065 -5.8065 
-27.46002 -5.8065 
-27.46002 
-6.1575 -22.40472 0 -5.8065 0 
-29.88982 -23.08092 -5.8065 -5.8065 
-29.88982 -28.88742 -5.8065 
-35.69632 -28.88742 
-35.69632 
-6.1575 -12.16972 0 -12.16972 0 -12.16972 0 
-18.97862 -12.16972 -12.16972 -12.16972 -12.16972 -12.16972 
-18.97862 -24.33944 -12.16972 -24.33944 -12.16972 
-31.14834 -24.33944 -24.33944 -24.33944 
-31.14834 -36.50916 -24.33944 
