-4.759 
n/a 
n/a 
n/a 
n/a 
-4.759 
n/a 
n/a 
n/a 
n/a 
-4.759 
n/a 
n/a 
n/a 
n/a 
-4.759 
n/a 
n/a 
n/a 
n/a 
-1.4985 -6.319 -4.2505 -2.9705 -5.377 -1.934 -3.8735 -2.186 -3.9205 -2.5045 -3.858 -4.7075 -2.4285 -10.215 
-7.394 -8.0085 -6.919001 -6.903501 -6.012001 -4.885 -5.949 -4.9645 -4.449 -5.837501 -8.867001 -7.005001 -13.6017 
-10.159 -10.5645 -10.6095 -7.2345 -7.842 -6.6635 -8.388 -5.539 -8.2335 -10.2385 -9.394001 -18.934 
-12.715 -14.255 -10.7375 -8.8905 -9.697001 -9.304001 -9.012501 -9.022 -12.6863 -12.4477 -21.5652 
-16.4055 -14.383 -12.3935 -10.2595 -12.4713 -9.665501 -12.6543 -13.5822 -14.8955 -24.6189 
-3.8735 -2.186 -5.7025 -1.4985 -3.7435 -1.7565 -8.514 -2.4285 0 -8.514 0 0 
-5.949 -8.3085 -7.252 -4.5515 -4.905 -10.862 -11.3173 -2.4285 -8.514 -8.514 0 
-12.056 -10.399 -11.1565 -5.2425 -14.9419 -13.6653 -11.3173 -11.9007 -8.514 -8.514 
-14.0185 -13.6348 -11.8928 -15.7824 -17.7452 -13.6653 -20.7895 -11.9007 -8.514 
-17.7593 -14.2393 -22.5081 -18.5857 -17.7452 -23.1375 -20.7895 -11.9007 
-1.4985 -9.0275 -2.4285 -12.16972 -2.186 -4.1205 -2.5045 -1.4985 -4.033 -5.069 -1.934 -3.8735 0 
-11.6198 -11.7984 -15.55642 -14.35572 -5.007 -5.3175 -3.583 -5.005 -9.334 -6.867001 -4.885 -3.8735 
-14.3907 -24.92632 -17.74242 -17.17672 -6.317 -6.431 -6.981 -10.757 -11.2184 -8.925 -4.885 
-27.51862 -27.11232 -20.56342 -18.48672 -7.1455 -9.92 -12.7494 -12.6414 -13.2764 -8.925 
-29.70462 -29.93332 -21.87342 -19.31522 -10.8163 -15.6884 -14.6338 -14.6994 -13.2764 
-2.3615 -4.7075 -2.4285 -8.162001 -2.8645 -5.377 -1.934 -3.8735 0 
-7.4755 -7.005001 -11.5487 -11.7261 -7.4475 -6.012001 -4.885 -3.8735 
-10.0815 -16.881 -15.1128 -16.3091 -8.3335 -7.842 -4.885 
-20.0093 -20.4451 -19.6958 -17.1951 -10.27 -7.842 
-23.5734 -25.0281 -20.5818 -19.1316 -10.27 
