-4.759 
n/a 
n/a 
n/a 
n/a 
-4.759 
n/a 
n/a 
n/a 
n/a 
-4.759 
n/a 
n/a 
n/a 
n/a 
-4.759 
n/a 
n/a 
n/a 
n/a 
-3.5005 -12.16972 -6.5785 0 -10.707 -8.882501 -2.674 -4.8845 -2.0935 -1.4985 -10.215 -5.1845 -4.245 -1.756 -6.09 -3.277 0 
-16.52042 -18.74822 -6.5785 -10.707 -19.5895 -11.9101 -6.2845 -5.382 -2.9725 -12.8073 -15.4687 -7.991 -5.425 -7.111 -8.414001 -3.277 
-23.09892 -18.74822 -17.8765 -19.5895 -22.6171 -15.5206 -6.5625 -6.538 -14.5581 -18.061 -18.2752 -9.1745 -11.8496 -9.094 -8.414001 
-23.09892 -30.04622 -26.759 -22.6171 -26.2276 -15.7986 -6.9585 -18.886 -19.8118 -20.8675 -19.4587 -15.6543 -13.8326 -9.094 
-34.39692 -38.92872 -29.7866 -26.2276 -26.5056 -16.1946 -20.3317 -24.1397 -22.6183 -22.051 -25.9385 -17.6373 -13.8326 
-8.958 -10.5895 0 -8.787001 -8.4775 0 -5.1845 -4.936 -3.793 -5.1845 -4.245 -1.756 -4.875 -2.4265 
-19.9971 -10.5895 -8.787001 -17.8787 -8.4775 -5.1845 -8.961 -8.335001 -10.5865 -7.991 -5.425 -6.2375 -7.412 
-19.9971 -19.3765 -17.8787 -17.8787 -14.5078 -8.961 -12.479 -15.6935 -13.393 -9.1745 -10.9761 -8.1045 
-28.7841 -28.4682 -17.8787 -23.909 -18.2843 -12.479 -19.8375 -18.5 -14.5765 -14.7808 -12.8431 
-37.8758 -28.4682 -23.909 -27.6855 -21.8023 -19.8375 -22.644 -19.6835 -20.1828 -16.6478 
-8.694 -6.5785 0 -8.787001 -8.882501 0 -3.3715 -5.1845 -5.3255 0 -1.756 -2.9775 -5.1845 -4.245 -2.911 -1.756 -3.8085 -1.7695 -3.3715 -5.3255 0 
-15.7229 -6.5785 -8.787001 -9.312 -8.882501 -3.3715 -8.517 -9.1885 -5.3255 -1.756 -5.772 -9.087501 -7.991 -6.469501 -5.0065 -5.661 -5.568501 -5.0445 -7.712501 -5.3255 
-15.7229 -15.9565 -9.312 -9.312 -12.6076 -8.517 -12.6872 -9.1885 -6.395 -5.772 -12.6222 -11.986 -10.5349 -7.645 -10.3475 -6.354 -10.115 -9.259501 -7.712501 
-25.1009 -16.4815 -9.312 -13.2347 -17.7531 -12.6872 -12.6872 -10.0965 -11.2868 -12.6222 -15.5207 -14.5299 -11.7104 -13.4772 -11.0405 -12.5577 -14.4944 -9.259501 
-25.6259 -16.4815 -13.2347 -18.3802 -21.9233 -12.6872 -13.5952 -15.1145 -18.137 -15.5207 -18.0646 -15.7054 -17.5426 -14.1702 -17.2442 -16.9371 -14.4944 
-12.16972 -6.5785 0 -8.787001 -8.882501 -1.756 -2.8965 -5.1845 -4.936 -2.911 -1.4985 -4.3775 -4.6955 -5.1845 -5.5605 0 -3.074 -3.5765 -1.756 -3.619 -2.3615 
-18.74822 -6.5785 -8.787001 -9.312 -10.3225 -3.751 -8.17 -8.961 -7.4525 -4.546 -5.5605 -7.1775 -10.4265 -10.0745 -5.5605 -3.074 -6.727 -5.365 -4.907001 -5.178 
-18.74822 -15.9565 -9.312 -10.622 -12.3175 -9.017 -12.3547 -11.5965 -9.792001 -8.311501 -8.418501 -10.7335 -15.3165 -10.0745 -8.136 -6.727 -8.311001 -7.451 -7.138 
-28.12622 -16.4815 -10.622 -12.617 -17.5835 -13.1761 -14.9902 -13.936 -13.8155 -12.5591 -12.2069 -15.6235 -15.3165 -12.65 -12.2124 -8.311001 -9.894501 -8.835001 
-28.65122 -17.7915 -12.617 -17.883 -21.7426 -15.8116 -17.3297 -17.9595 -18.0631 -16.3475 -17.0969 -15.6235 -17.892 -16.7264 -13.7964 -9.894501 -11.5763 
