-4.759 
n/a 
n/a 
n/a 
n/a 
-4.759 
n/a 
n/a 
n/a 
n/a 
-4.759 
n/a 
n/a 
n/a 
n/a 
-4.759 
n/a 
n/a 
n/a 
n/a 
-3.1495 -4.8075 -3.776 -4.251 -3.826 -5.7355 -3.7515 -5.1075 -4.8565 -1.756 0 -2.998 -4.227 0 -4.142 -2.871 -3.776 -4.0455 -2.186 -2.674 -4.0725 -4.0815 0 
-8.567 -8.823501 -8.702001 -8.740001 -9.686001 -10.1855 -7.321 -7.672 -6.1775 -1.756 -2.998 -6.2865 -4.227 -4.142 -7.7065 -6.2345 -7.791 -5.900001 -6.491 -7.1455 -7.536 -4.0815 
-12.8526 -14.3871 -13.439 -15.0144 -14.2788 -14.2227 -11.858 -9.236501 -6.1775 -5.392 -6.2865 -6.2865 -7.452001 -7.7065 -11.3258 -9.703501 -9.411501 -10.7175 -11.3285 -10.7565 -7.536 
-18.4162 -19.1241 -19.7134 -19.6072 -18.316 -18.4682 -13.297 -9.2545 -9.193001 -7.9115 -6.2865 -9.559501 -11.6509 -11.3258 -14.7948 -11.3666 -14.7076 -15.555 -14.9395 -10.7565 
-23.1532 -25.3985 -24.3062 -23.6444 -22.5615 -19.8622 -13.297 -11.8486 -10.61 -7.9115 -9.559501 -13.8092 -15.2702 -14.7948 -16.4579 -16.6627 -19.5451 -19.166 -14.9395 
-3.0365 -2.4945 -4.1505 -4.4265 -4.466 -2.0935 -3.1435 -3.949 0 -4.62 -1.8085 -4.7195 -4.0455 -3.1425 -2.489 -5.1075 -4.8565 0 -2.998 -4.3665 0 -1.934 -4.142 -1.756 -2.742 -4.3185 -4.6835 -1.934 -2.4265 
-3.688 -8.01 -10.051 -8.338501 -5.7045 -4.568 -6.334001 -3.949 -4.62 -6.3325 -6.368501 -8.175 -7.222 -3.7875 -7.2325 -7.672 -4.8565 -2.998 -6.753 -4.3665 -1.934 -5.811501 -5.7175 -4.2795 -5.702 -9.1055 -6.1435 -4.6645 
-9.215001 -14.2073 -13.963 -9.284 -8.364 -8.121 -6.334001 -8.511001 -6.3325 -10.6095 -9.901001 -11.6891 -7.758 -8.667001 -11.7645 -7.8605 -7.811501 -6.753 -6.753 -5.878 -5.811501 -6.652 -8.495501 -7.245501 -10.335 -10.7185 -9.411 
-15.4895 -18.1193 -14.9085 -12.0769 -12.146 -8.121 -10.4425 -9.861 -10.6095 -14.142 -13.4151 -12.2251 -12.6521 -11.0635 -10.1385 -9.134001 -10.647 -6.753 -9.508 -8.095 -6.652 -8.800501 -10.6735 -10.7175 -12.1724 -13.986 
-19.4015 -19.0648 -17.7014 -15.8589 -12.146 -12.3711 -11.7925 -14.421 -14.142 -17.6561 -13.9511 -17.1192 -14.8651 -10.702 -11.412 -13.3605 -10.647 -9.508 -11.764 -8.92 -8.800501 -10.7575 -14.1455 -13.5123 -15.4399 

n/a 
n/a 
n/a 
n/a 
-4.567 -3.6845 -2.9995 -4.1445 -2.0935 -2.3615 -4.251 -3.5905 -4.126 -5.1075 -4.653 0 -7.6085 0 -4.142 0 -2.871 -3.7285 -7.370501 -3.7875 -4.6835 
-6.669001 -5.9635 -6.1895 -5.7465 -3.854 -6.797 -8.361 -7.427 -7.179001 -7.907501 -4.653 -7.6085 -7.6085 -4.142 -4.142 -2.871 -5.7585 -12.117 -11.2955 -8.42 
-8.664001 -10.2925 -8.096001 -7.56 -8.790001 -11.6276 -12.6139 -11.989 -12.4945 -8.230501 -13.2183 -7.6085 -12.3687 -4.142 -7.7065 -5.7585 -14.2904 -16.763 -13.9971 
-13.157 -12.199 -10.2975 -12.8742 -13.856 -15.8805 -17.1759 -16.5911 -12.5261 -17.5076 -13.2183 -12.3687 -12.3687 -7.7065 -10.6735 -15.0934 -19.114 -19.077 
-15.0635 -14.4005 -15.8379 -17.9402 -18.1089 -20.4425 -21.778 -16.5911 -21.8032 -17.5076 -17.9785 -12.3687 -15.9332 -10.6735 -20.0084 -19.114 -21.428 
