-4.759 
n/a 
n/a 
n/a 
n/a 
-4.759 
n/a 
n/a 
n/a 
n/a 
-4.759 
n/a 
n/a 
n/a 
n/a 
-4.759 
n/a 
n/a 
n/a 
n/a 
-4.426 -1.7565 -1.4985 -3.0835 -4.7285 -4.1555 -7.981 -3.402 -4.9705 -2.186 -3.354 -2.3345 -4.4035 0 -3.188 -4.789 0 -2.8645 -8.711 -3.849 -2.743 -4.3655 -4.834 -3.3785 -3.135 -4.866 -2.8645 -3.115 -8.711 -2.3615 -4.789 -2.186 -4.3185 -4.1585 -2.3345 -5.517 -1.756 -5.1185 -1.934 -8.2445 -4.184 -3.0105 
-5.47 -2.4195 -3.535 -6.042 -8.4455 -11.165 -12.101 -8.507 -6.5065 -4.7475 -5.2415 -6.898001 -4.4035 -3.188 -8.612501 -4.789 -2.8645 -13.1785 -13.0566 -7.762 -8.123 -10.688 -9.305 -5.941 -8.070001 -8.2235 -7.029 -12.6016 -11.5691 -8.5365 -7.0315 -5.553 -9.8015 -5.7625 -7.1825 -7.0855 -6.9315 -7.832 -11.08 -10.733 -6.4605 
-5.9535 -4.6785 -6.335501 -9.523001 -15.0775 -15.6718 -18.9024 -9.998 -10.335 -6.324 -9.269 -6.898001 -8.378 -8.612501 -8.612501 -7.8445 -13.1785 -17.5241 -16.9696 -13.358 -15.0813 -15.159 -12.0281 -11.433 -11.9063 -12.61 -16.8242 -15.4597 -17.7441 -11.1374 -10.586 -10.6095 -11.4523 -10.5425 -7.926 -9.292 -8.7425 -17.4912 -13.5685 -13.0095 
-8.021 -7.476501 -10.0095 -16.2395 -19.4433 -21.6664 -20.3934 -13.8265 -11.9115 -10.6465 -9.269 -11.3755 -14.4389 -8.612501 -11.9592 -18.5303 -17.5241 -21.4371 -22.5656 -20.3163 -19.5523 -17.8821 -17.5201 -15.2693 -16.2928 -22.4052 -19.6823 -21.6347 -20.345 -14.6919 -15.6425 -12.6517 -16.2323 -11.286 -10.9991 -11.1684 -18.6021 -19.9797 -15.845 
-9.983001 -11.3061 -16.836 -20.6053 -25.4379 -23.1574 -24.2219 -15.403 -16.234 -10.6465 -13.8003 -17.4364 -14.4389 -11.9592 -22.645 -22.8759 -21.4371 -27.0331 -29.5239 -24.7873 -22.2754 -23.3741 -21.3564 -19.6558 -26.088 -25.2633 -25.8573 -24.2356 -23.8995 -19.7484 -17.6847 -17.4317 -16.9758 -14.3591 -12.8755 -21.028 -21.0906 -22.2562 
-12.16972 -12.16972 -12.16972 -12.16972 -12.16972 -12.16972 -12.16972 -12.16972 
-24.33944 -24.33944 -24.33944 -24.33944 -24.33944 -24.33944 -24.33944 
-36.50916 -36.50916 -36.50916 -36.50916 -36.50916 -36.50916 
-48.67888 -48.67888 -48.67888 -48.67888 -48.67888 
-60.8486 -60.8486 -60.8486 -60.8486 
-5.701 -4.1585 -2.3335 -1.4985 -3.9005 -3.983 -1.7565 -5.1265 -4.3285 -2.186 -1.7695 -4.5305 -1.4985 -3.9675 -1.756 -4.5305 -3.1435 -7.1885 -4.0415 -7.6355 -3.9535 -1.8085 -4.339 -5.6625 0 -3.188 -4.4925 0 0 -3.1435 -4.3955 -2.186 -1.7695 -3.4465 -4.0215 -2.229 -3.998 -7.6355 -2.4945 -4.175 -2.3335 -3.1495 -4.221 -3.9225 -1.4985 -4.4925 -5.181 0 -2.985 -3.739 -4.463 0 -3.4635 -3.8355 -1.756 -3.836 -2.5195 -1.4985 -3.2945 -3.7555 0 -1.8085 -4.3755 -1.7565 -2.3615 -3.836 -2.742 -2.489 -3.2955 -1.7695 -4.081 -2.925 -3.849 -3.9115 -2.9705 -2.4945 -4.69 -4.528 -3.188 -2.229 -4.2465 -4.2115 -2.186 -3.074 -7.6355 -3.983 -5.517 -1.756 -5.1185 -2.264 -3.5315 -2.5645 0 -3.0105 -3.468 0 -4.3905 -3.1495 -4.414 -4.179 -2.186 -1.8085 -4.5215 0 0 
-8.8415 -5.438 -3.3515 -4.797 -8.243 -5.555501 -6.5115 -10.884 -6.1335 -3.8745 -5.015 -5.548501 -5.356501 -4.9775 -5.5275 -7.171 -8.175501 -9.319501 -12.8824 -12.8178 -5.581 -5.653501 -8.8915 -5.6625 -3.188 -8.2435 -4.4925 0 -3.1435 -6.295 -6.2575 -3.8745 -4.299 -8.0315 -5.0695 -6.3935 -12.7709 -11.3588 -4.9605 -7.2745 -4.8015 -8.2325 -6.364 -4.463 -5.828501 -10.985 -5.181 -2.985 -5.844 -8.453501 -4.463 -3.4635 -7.2995 -5.1405 -5.4655 -5.4425 -3.1695 -4.303 -4.8395 -3.7555 -1.8085 -5.1195 -4.5345 -3.523 -6.7895 -6.5265 -3.301 -3.979 -3.9425 -4.517 -5.647501 -6.493 -7.602 -6.422501 -4.302 -6.824501 -8.658501 -8.3055 -4.279 -6.122 -8.5675 -6.4525 -4.156 -11.7099 -12.8473 -9.8015 -7.0855 -6.9315 -7.737 -4.8735 -5.613 -2.5645 -3.0105 -7.6435 -3.468 -4.3905 -7.731 -6.5865 -10.168 -5.351 -3.164 -6.363 -4.5215 0 
-10.533 -6.228 -6.674 -8.8245 -9.440001 -10.4675 -12.5398 -12.689 -7.9385 -6.288 -5.9365 -9.0605 -6.341001 -8.659 -7.954 -12.4483 -12.1545 -18.6785 -18.0647 -14.4453 -9.807001 -9.359501 -8.8915 -9.321501 -8.2435 -8.2435 -4.4925 -3.1435 -6.295 -7.37 -7.8795 -6.628 -8.6365 -8.6715 -8.964001 -15.3466 -16.4942 -13.8248 -8.422501 -9.889501 -10.0575 -10.7769 -7.2505 -9.7355 -12.9974 -10.985 -9.033001 -5.844 -10.7175 -8.453501 -7.668 -7.2995 -8.670501 -8.3325 -7.0675 -6.32 -6.006 -8.1875 -4.8395 -5.964 -5.1195 -5.1525 -5.8335 -7.683001 -8.3815 -6.875 -4.9885 -4.5435 -6.804 -6.040501 -8.608001 -9.712501 -9.620001 -7.198 -8.725 -11.4568 -12.76 -10.4855 -7.804501 -10.9572 -10.6465 -8.6175 -13.7765 -16.9217 -18.6658 -11.563 -9.292 -9.085001 -10.0995 -6.638 -5.613 -5.1445 -7.6435 -7.6435 -8.0185 -7.731 -10.647 -12.7743 -11.34 -6.2815 -7.1175 -6.363 -4.5215 
-11.8062 -9.7735 -10.8423 -9.575001 -14.5332 -16.4958 -14.3448 -14.494 -10.259 -7.1485 -9.3275 -10.2545 -10.208 -11.2337 -13.3873 -17.1912 -22.2196 -24.389 -19.6922 -18.6713 -13.6432 -9.359501 -12.4581 -14.5814 -8.2435 -8.2435 -8.884501 -6.295 -7.37 -8.932 -10.621 -11.3005 -9.401501 -12.8808 -18.3517 -19.0699 -18.9602 -17.2868 -11.1615 -15.2171 -12.6019 -11.6634 -12.843 -16.9794 -12.9974 -14.837 -12.0778 -10.7175 -10.7175 -12.0685 -12.339 -8.670501 -12.1047 -10.3345 -7.9725 -10.347 -10.368 -8.1875 -8.3385 -10.2085 -5.1525 -6.943 -8.906501 -9.192501 -8.782001 -8.438001 -5.4935 -7.376501 -8.315001 -9.438001 -11.9893 -11.9089 -10.566 -12.0416 -13.9653 -15.5583 -14.94 -14.011 -13.4377 -13.0362 -12.8115 -18.546 -18.9883 -22.7402 -20.4273 -13.7695 -11.5109 -11.5745 -11.864 -6.638 -6.55 -9.8675 -7.6435 -12.7148 -10.598 -10.647 -17.6184 -13.9463 -12.2705 -9.407001 -7.1175 -6.363 
-15.3517 -14.0036 -11.5928 -14.7284 -20.5615 -18.3008 -16.1498 -16.8145 -11.1195 -10.286 -10.5135 -14.2917 -12.7827 -16.667 -18.1302 -26.9709 -27.4019 -26.0165 -23.9182 -22.5075 -13.6432 -12.9121 -17.718 -14.5814 -8.2435 -12.9553 -12.1188 -7.37 -8.932 -11.8483 -15.2935 -12.0655 -13.687 -22.2685 -22.075 -21.5359 -22.4222 -20.0258 -16.4891 -17.7615 -13.4884 -17.2559 -20.0869 -16.9794 -16.8494 -17.8818 -16.9513 -10.7175 -14.3325 -16.7395 -13.71 -12.1047 -14.1067 -11.2395 -12.1923 -14.709 -10.368 -12.0891 -12.7858 -10.6545 -6.943 -9.052 -10.6885 -9.631001 -9.863 -8.695001 -8.197001 -8.877001 -11.9153 -12.8731 -14.1857 -12.8549 -15.4096 -17.2819 -18.0668 -17.7383 -18.4655 -19.6442 -15.5167 -15.2012 -22.74 -23.7578 -24.8068 -24.5017 -22.6338 -15.9884 -14.0004 -13.339 -11.864 -7.504001 -11.748 -9.8675 -12.7148 -15.2943 -14.4294 -17.6184 -18.7904 -14.8768 -15.396 -9.407001 -7.1175 
-4.2085 -4.7715 -2.3615 -3.983 -1.7695 -4.1865 -4.23 -1.7565 -3.9675 -1.7695 -3.458 -1.7695 -4.5305 -1.4985 -4.7615 -3.188 -4.4925 -3.193 -1.7565 -4.1865 -2.743 -4.3655 -1.7695 -2.7455 -3.8355 0 -4.037 -2.0935 -3.627 -1.7695 -2.5685 -3.1495 -4.079 -3.8625 -5.1185 -3.5315 -2.5645 0 -3.0105 -3.4795 -5.1185 
-9.043001 -6.6625 -6.365 -5.983 -6.231 -8.671 -5.617 -5.5405 -6.1355 -6.380001 -6.903501 -5.015 -5.548501 -7.613001 -8.6055 -8.2435 -5.587 -4.5615 -6.2625 -7.8155 -8.123 -5.8425 -5.2305 -6.7095 -3.8355 -4.037 -4.876 -5.708 -5.684 -4.2305 -4.8995 -7.225 -7.603 -9.377501 -8.7965 -5.613 -2.5645 -3.0105 -7.08 -9.335 
-10.435 -11.075 -8.169001 -11.1059 -11.6945 -9.369 -9.054001 -7.4915 -11.2876 -9.574 -10.287 -5.9365 -12.5518 -11.807 -14.1168 -9.5605 -8.348001 -9.033001 -10.5931 -13.3913 -9.241 -10.411 -10.1537 -6.7095 -8.262501 -4.876 -10.181 -7.488 -8.342001 -6.4965 -8.8675 -10.4505 -13.798 -13.1299 -10.2335 -5.613 -5.1445 -7.08 -14.3423 
-14.8475 -12.879 -13.7735 -16.5694 -12.3925 -12.8326 -11.1446 -12.7798 -14.4816 -13.2123 -11.2085 -13.0474 -16.7458 -17.3183 -15.4338 -12.4531 -13.1927 -13.86 -16.1689 -14.5093 -14.5869 -15.3342 -10.1537 -11.9911 -9.7585 -10.181 -12.2064 -9.753501 -10.913 -10.418 -12.2874 -16.6455 -17.5504 -14.5669 -10.2335 -6.55 -8.754001 -14.3423 
-16.6515 -18.4835 -19.237 -17.2674 -15.8561 -14.9232 -16.4329 -15.9738 -18.1199 -14.1338 -18.3194 -17.2414 -22.2571 -18.6353 -18.3264 -17.2978 -18.0197 -19.4358 -17.2869 -19.8552 -19.5101 -15.3342 -15.4353 -13.4871 -15.1881 -12.2064 -14.4719 -12.3665 -14.8345 -13.8379 -18.4824 -20.3979 -18.9874 -14.5669 -11.2715 -10.6345 -16.4109 
