-4.759 
n/a 
n/a 
n/a 
n/a 
-4.759 
n/a 
n/a 
n/a 
n/a 
-4.759 
n/a 
n/a 
n/a 
n/a 
-4.759 
n/a 
n/a 
n/a 
n/a 
-2.3615 -3.0835 -3.4715 0 -3.6115 -3.4715 0 -3.859 -3.4715 0 -4.4145 -3.4715 0 -4.623 -3.4715 0 -4.8835 -3.4715 0 -4.99 -3.4715 0 -5.1235 -3.4715 0 -4.122 0 
-5.5335 -6.069 -3.4715 -3.6115 -6.515 -3.4715 -3.859 -7.144 -3.4715 -4.4145 -7.6525 -3.4715 -4.623 -8.029 -3.4715 -4.8835 -8.4095 -3.4715 -4.99 -8.778 -3.4715 -5.1235 -9.019001 -3.4715 -4.122 -4.122 
-7.7995 -6.069 -7.767 -6.515 -6.515 -8.1315 -7.144 -7.144 -8.689 -7.6525 -7.6525 -9.028501 -8.029 -8.029 -9.283 -8.4095 -8.4095 -9.087501 -8.778 -8.778 -9.4315 -9.019001 -9.019001 -7.995001 -4.122 
-7.7995 -9.3395 -9.304501 -6.515 -10.1765 -9.8485 -7.144 -10.4105 -10.254 -7.6525 -13.9619 -12.7295 -8.029 -14.5389 -13.0332 -8.4095 -14.5071 -13.3415 -8.778 -15.1474 -13.7478 -9.019001 -13.9033 -7.995001 
-11.36 -9.446 -9.304501 -10.1765 -10.211 -9.8485 -10.4105 -10.545 -10.254 -13.9619 -17.6629 -12.7295 -14.5389 -18.2891 -13.0332 -14.5071 -18.7611 -13.3415 -15.1474 -19.4637 -13.7478 -13.9033 -13.9033 
-2.925 -2.4945 0 -3.0835 -3.493 0 -6.5975 -3.493 0 0 -3.6115 -3.493 0 -6.7025 -3.493 0 0 -3.859 -3.493 0 -5.062 -3.493 0 0 -4.4145 -3.493 0 -6.732501 -3.493 0 0 -4.623 -3.493 0 -6.7225 -3.493 0 0 -4.8835 -3.493 0 -8.63 -3.493 0 0 -4.99 -3.493 0 -6.634501 -3.493 0 -1.756 -5.1235 -3.493 0 
-3.7675 -2.4945 -3.0835 -6.172501 -3.493 -6.5975 -7.64 -3.493 0 -3.6115 -6.4215 -3.493 -6.7025 -7.6585 -3.493 0 -3.859 -7.0895 -3.493 -5.062 -8.0635 -3.493 0 -4.4145 -7.749001 -3.493 -6.732501 -7.798501 -3.493 0 -4.623 -8.0745 -3.493 -6.7225 -7.9265 -3.493 0 -4.8835 -8.311501 -3.493 -8.63 -9.5915 -3.493 0 -4.99 -8.5695 -3.493 -6.634501 -8.4245 -3.493 -1.756 -6.518 -8.757 -3.493 
-3.7675 -5.948501 -6.172501 -6.172501 -8.489 -7.64 -7.64 -3.493 -3.6115 -6.4215 -6.4215 -8.658501 -7.6585 -7.6585 -3.493 -3.859 -7.0895 -7.0895 -8.936501 -8.0635 -8.0635 -3.493 -4.4145 -7.749001 -7.749001 -8.7965 -7.798501 -7.798501 -3.493 -4.623 -8.0745 -8.0745 -9.400001 -7.9265 -7.9265 -3.493 -4.8835 -8.311501 -8.311501 -9.56 -9.5915 -9.5915 -3.493 -4.99 -8.5695 -8.5695 -9.028501 -8.4245 -8.4245 -5.291 -6.518 -10.5875 -8.757 
-6.975 -9.6645 -6.172501 -11.6167 -9.409 -7.64 -7.64 -7.611501 -6.4215 -6.4215 -11.9966 -9.1945 -7.6585 -7.6585 -7.93 -7.0895 -7.0895 -12.8874 -9.967 -8.0635 -8.0635 -8.6855 -7.749001 -7.749001 -13.3035 -9.147 -7.798501 -7.798501 -8.852501 -8.0745 -8.0745 -14.3091 -9.748 -7.9265 -7.9265 -9.218 -8.311501 -8.311501 -14.8515 -10.5655 -9.5915 -9.5915 -9.216001 -8.5695 -8.5695 -14.5886 -10.013 -8.4245 -10.085 -10.853 -10.5875 -10.5875 
-10.9404 -9.6645 -11.6167 -12.5367 -9.409 -7.64 -12.1489 -8.911501 -6.4215 -11.9966 -12.5326 -9.1945 -7.6585 -12.4533 -9.956 -7.0895 -12.8874 -13.9179 -9.967 -8.0635 -13.5536 -10.4265 -7.749001 -13.3035 -13.654 -9.147 -7.798501 -13.4428 -10.688 -8.0745 -14.3091 -14.6571 -9.748 -7.9265 -14.2353 -12.8322 -8.311501 -14.8515 -15.857 -10.5655 -9.5915 -15.3555 -13.1865 -8.5695 -14.5886 -15.5731 -10.013 -10.085 -15.706 -14.9225 -10.5875 
-2.3615 -4.208 -3.6065 0 -4.255 -3.6065 0 -7.109 -3.6065 0 -4.4485 -3.6065 0 -4.536 -3.6065 0 -4.642 -3.6065 0 -4.655 -3.6065 0 -4.66 -3.6065 0 
-7.276501 -10.0285 -3.6065 -4.255 -9.619 -3.6065 -7.109 -11.3069 -3.6065 -4.4485 -9.2145 -3.6065 -4.536 -9.227 -3.6065 -4.642 -9.612501 -3.6065 -4.655 -9.838 -3.6065 -4.66 -9.663501 -3.6065 
-13.6304 -10.0285 -8.937 -9.619 -9.619 -11.8873 -11.3069 -11.3069 -9.3205 -9.2145 -9.2145 -9.443501 -9.227 -9.227 -9.9205 -9.612501 -9.612501 -9.317 -9.838 -9.838 -9.938001 -9.663501 -9.663501 
-13.6304 -15.359 -14.4928 -9.619 -17.8998 -16.0852 -11.3069 -17.0209 -14.2637 -9.2145 -15.3153 -14.4235 -9.227 -15.9536 -14.976 -9.612501 -15.519 -15.1062 -9.838 -16.2275 -15.0265 -9.663501 
-18.9609 -20.9148 -14.4928 -17.8998 -22.0977 -16.0852 -17.0209 -21.9641 -14.2637 -15.3153 -20.2953 -14.4235 -15.9536 -21.0091 -14.976 -15.519 -21.3082 -15.1062 -16.2275 -21.316 -15.0265 
-3.45 -2.4945 -7.3135 0 -3.6115 -4.895 0 -3.859 -4.895 0 -4.4145 -4.895 0 -4.623 -4.895 0 -5.9605 -4.895 0 -4.99 -4.895 0 -4.3735 -4.895 -3.115 -3.1495 -2.925 -2.4945 -4.281 0 
-5.354 -11.1415 -7.3135 -3.6115 -9.668001 -4.895 -3.859 -10.396 -4.895 -4.4145 -10.361 -4.895 -4.623 -11.0145 -4.895 -5.9605 -11.7903 -4.895 -4.99 -10.8415 -4.895 -4.3735 -9.581001 -8.795501 -5.528501 -6.6785 -3.7675 -6.134 -4.281 
-14.3886 -11.1415 -11.857 -9.668001 -9.668001 -9.708 -10.396 -10.396 -10.3415 -10.361 -10.361 -10.9575 -11.0145 -11.0145 -11.9365 -11.7903 -11.7903 -11.1415 -10.8415 -10.8415 -10.335 -9.581001 -13.5831 -11.4262 -7.888 -7.3285 -7.2555 -6.134 
-14.3886 -15.685 -17.9135 -9.668001 -14.6308 -16.3424 -10.396 -15.8425 -16.288 -10.361 -16.4235 -17.349 -11.0145 -18.056 -17.7663 -11.7903 -18.0368 -16.993 -10.8415 -16.2815 -15.5425 -13.5831 -16.2138 -13.7857 -8.533001 -11.1551 -7.2555 
-18.9321 -21.7415 -17.9135 -14.6308 -21.2652 -16.3424 -15.8425 -21.789 -16.288 -16.4235 -22.815 -17.349 -18.056 -23.8858 -17.7663 -18.0368 -23.8883 -16.993 -16.2815 -21.489 -19.5446 -16.2138 -18.5733 -14.4307 -12.4756 -11.1551 
