-4.759 
n/a 
n/a 
n/a 
n/a 
-4.759 
n/a 
n/a 
n/a 
n/a 
-4.759 
n/a 
n/a 
n/a 
n/a 
-4.759 
n/a 
n/a 
n/a 
n/a 
-3.1385 -3.115 -5.9595 -6.9405 0 -6.4705 -9.724001 -5.9595 -2.229 -5.8245 -6.543 -4.9 -8.1215 -8.038501 -5.9595 0 -5.9595 -10.462 0 -9.7025 -6.524 -4.303 -1.8085 -3.383 -3.699 -7.4785 -1.934 -4.1445 -4.7075 -1.934 -4.02 -3.959 0 
-5.0605 -8.793001 -7.5185 -6.9405 -6.4705 -17.1803 -10.784 -7.3205 -7.308001 -13.2691 -10.411 -10.862 -16.8062 -10.172 -5.9595 -5.9595 -17.3053 -10.462 -9.7025 -11.1415 -11.1415 -5.363 -4.1695 -5.014 -10.841 -8.800501 -5.644001 -7.3715 -6.58 -5.3455 -6.338 -3.959 
-10.2645 -10.382 -7.5185 -14.3612 -17.1803 -18.2403 -12.145 -10.523 -14.9724 -17.1371 -16.373 -19.5467 -18.9397 -10.172 -8.644501 -17.3053 -17.3053 -20.3571 -11.1415 -15.759 -12.2015 -7.114 -5.745 -12.6206 -12.163 -13.1693 -8.857501 -8.384001 -9.772501 -6.9535 -6.338 
-11.8535 -10.382 -15.3286 -25.071 -18.2403 -19.6013 -15.3475 -18.1874 -18.8404 -23.0991 -25.0577 -21.6802 -18.9397 -12.9838 -20.1845 -17.3053 -27.2004 -21.7961 -15.759 -16.819 -13.9525 -7.624 -14.023 -13.9426 -16.5318 -16.3828 -10.3285 -11.9129 -11.5735 -6.9535 
-11.8535 -18.1921 -26.0384 -26.131 -19.6013 -22.8038 -23.0119 -22.0554 -24.8024 -31.7838 -27.1912 -21.6802 -21.7515 -24.5238 -20.1845 -27.2004 -28.6394 -26.4136 -16.819 -18.57 -14.4625 -17.425 -15.345 -18.3114 -19.7453 -17.8538 -13.8574 -13.7139 -11.5735 
-1.934 -1.4985 -4.02 -3.959 -5.9595 -9.609501 0 -10.094 -8.1215 -8.781501 -5.9595 -3.693 -1.7565 -12.16972 -9.724001 -5.9595 0 -5.9595 -12.16972 0 -12.16972 -10.8905 -3.1495 -3.1385 -3.43 -1.8085 -4.3125 -4.0045 -1.934 -1.4985 -4.7075 -2.229 0 
-2.6125 -4.969501 -6.338 -10.634 -16.4528 -9.609501 -10.094 -18.3643 -17.5492 -9.836 -10.9575 -5.747 -14.87542 -21.89372 -10.784 -5.9595 -5.9595 -19.01302 -12.16972 -12.16972 -23.06022 -14.04 -5.148 -6.637 -4.6595 -4.6875 -6.452 -5.857501 -2.6125 -6.3925 -7.415501 -2.229 
-5.589 -7.337501 -13.3476 -21.1273 -16.4528 -19.8929 -18.3643 -27.792 -18.6037 -15.5284 -13.0115 -19.47032 -24.59942 -22.95372 -10.784 -8.644501 -19.01302 -19.01302 -24.33944 -23.06022 -26.20972 -16.0385 -8.125 -7.698501 -6.584 -6.5105 -7.6455 -6.374001 -7.6125 -9.554001 -7.415501 
-7.8745 -14.4863 -23.8409 -21.1273 -26.7362 -28.1632 -27.792 -28.8465 -24.2961 -17.5824 -26.73482 -29.19432 -25.65942 -22.95372 -13.469 -21.89222 -19.01302 -31.18274 -35.22994 -26.20972 -28.20822 -19.0155 -8.9495 -9.444 -7.5165 -7.675 -8.1475 -11.8926 -11.1298 -9.554001 
-15.1001 -24.9796 -23.8409 -31.4107 -35.0065 -37.5909 -28.8465 -34.5389 -26.3501 -31.30572 -36.45882 -30.25432 -25.65942 -25.63872 -26.71672 -21.89222 -31.18274 -42.07324 -38.37944 -28.20822 -31.18522 -19.84 -10.66 -10.435 -8.2895 -8.1665 -13.8207 -15.4099 -11.1298 
-3.594 -1.7565 -4.7075 -2.7415 -8.5365 -1.7695 -3.188 -2.3345 -5.9595 -6.9405 0 -9.841001 -9.189 -9.093 0 -1.756 -5.9595 -10.462 0 
-4.857 -6.081 -7.673 -10.468 -10.3225 -5.663 -5.536 -7.119 -7.5185 -6.9405 -9.841001 -19.0948 -18.5726 -9.093 -1.756 -7.89 -17.3053 -10.462 
-8.150001 -8.7635 -15.8261 -12.254 -14.216 -8.959001 -10.016 -8.502 -7.5185 -17.7317 -19.0948 -28.4784 -18.5726 -10.3415 -7.89 -19.4244 -17.3053 
-10.523 -16.9656 -17.6121 -16.1475 -17.512 -13.553 -11.466 -8.502 -18.6991 -26.9855 -28.4784 -28.4784 -19.8211 -16.4755 -19.4244 -19.4244 
-18.7251 -18.7516 -21.5056 -19.4435 -22.106 -15.003 -11.466 -19.9166 -27.9529 -36.3691 -28.4784 -29.7269 -25.9551 -28.0099 -19.4244 
-5.9595 -6.9405 0 -12.16972 -9.724001 -5.9595 -2.229 -3.693 -10.094 -8.1215 -10.5565 -5.9595 0 -1.756 -5.9595 -12.16972 0 -10.7895 -6.524 -4.2705 -1.7695 -4.09 -1.4985 -4.7075 -1.934 -4.02 -3.959 0 
-7.5185 -6.9405 -12.16972 -21.89372 -10.784 -7.3205 -5.933001 -15.134 -18.3643 -19.3242 -16.9608 -5.9595 -1.756 -7.89 -19.01302 -12.16972 -10.7895 -17.3135 -11.9251 -5.3315 -7.014 -5.5375 -6.3925 -6.58 -5.3455 -6.338 -3.959 
-7.5185 -20.06042 -21.89372 -22.95372 -12.145 -11.5547 -17.8406 -23.4043 -29.567 -25.7285 -16.9608 -7.8265 -7.89 -21.13212 -19.01302 -22.95922 -17.3135 -22.7146 -12.9861 -11.9406 -8.9315 -10.134 -8.8 -9.772501 -6.9535 -6.338 
-21.02782 -29.78442 -22.95372 -24.31472 -16.3792 -23.4623 -26.1109 -34.607 -35.9713 -25.7285 -18.8278 -10.007 -21.13212 -21.13212 -29.80252 -29.48322 -22.7146 -23.7756 -19.5952 -13.8581 -13.5206 -12.5415 -12.3569 -11.5735 -6.9535 
-30.75182 -30.84442 -24.31472 -28.54892 -28.2868 -31.7326 -37.3136 -41.0113 -35.9713 -27.5955 -21.0083 -23.34392 -21.13212 -31.92162 -36.32652 -34.88432 -23.7756 -30.3847 -21.5127 -18.4472 -15.9281 -16.0984 -14.1579 -11.5735 
