-4.759 
n/a 
n/a 
n/a 
n/a 
-4.759 
n/a 
n/a 
n/a 
n/a 
-4.759 
n/a 
n/a 
n/a 
n/a 
-4.759 
n/a 
n/a 
n/a 
n/a 

n/a 
n/a 
n/a 
n/a 
-2.925 -2.4945 -3.6705 -3.894 0 -1.756 -2.925 -2.674 -4.0735 -1.7695 -4.578 -1.4985 -5.2335 0 -3.6885 -3.843 0 
-3.7675 -5.072001 -5.4005 -3.894 -1.756 -4.2585 -4.1785 -6.3265 -5.056 -5.836501 -6.2275 -6.992001 -5.2335 -3.6885 -7.669001 -3.843 
-6.1635 -6.467 -5.4005 -5.115 -4.2585 -5.509 -8.062501 -6.4345 -9.441 -6.6165 -12.1652 -6.992001 -9.7185 -7.669001 -7.669001 
-7.8015 -6.467 -6.885 -6.986001 -5.509 -9.6715 -8.3795 -11.5713 -10.112 -12.8552 -12.1652 -10.3885 -13.768 -7.669001 
-7.8015 -8.050501 -8.7925 -8.326501 -9.6715 -10.046 -13.4925 -12.2423 -16.3507 -12.8552 -15.5617 -14.7422 -13.768 
-3.45 -2.4945 -3.4225 0 -2.5045 -1.4985 -3.486 -2.95 -3.4945 -5.785 -1.934 -2.8965 -4.6195 0 -1.756 -3.7825 -1.4985 -3.519 -4.3435 0 -3.5435 -8.353001 -4.3895 -2.5045 -4.088 -4.579 
-5.354 -6.4775 -3.4225 -2.5045 -3.1915 -3.5655 -4.563 -5.6675 -6.92 -6.9135 -4.391 -6.609 -4.6195 -1.756 -5.3005 -4.847 -4.426001 -6.699 -4.3435 -3.5435 -13.2069 -13.1139 -6.761 -6.851001 -9.380001 
-10.275 -6.4775 -7.0505 -3.1915 -4.538 -4.577 -7.3635 -8.908501 -8.318001 -8.618 -9.595 -6.609 -5.6905 -5.3005 -5.92 -8.085001 -7.8485 -6.699 -7.8765 -13.2069 -17.9678 -15.4854 -10.5745 -12.8658 
-10.275 -8.601501 -7.6175 -4.538 -4.615 -7.369 -9.241501 -10.553 -10.0885 -14.5228 -9.595 -7.472 -10.2645 -5.92 -9.0825 -11.9587 -7.8485 -10.111 -17.6047 -17.9678 -20.3393 -19.2989 -17.0159 
-12.6166 -8.943501 -9.184 -4.615 -7.383 -9.245001 -10.9162 -12.3235 -16.1619 -14.5228 -10.5384 -12.8216 -10.884 -9.0825 -12.9608 -11.9587 -11.7477 -20.032 -22.3656 -20.3393 -24.1528 -25.7403 
-2.925 -2.674 -3.1125 -4.979 -1.934 -1.8085 -4.412 -4.482 -1.4985 -4.065 -4.285 -3.354 -2.925 -1.756 -2.925 -3.3165 -3.858 -3.894 -2.4285 -4.887 -4.7155 -1.8085 -5.7285 -2.264 -3.345 -2.8965 -2.229 -4.1665 0 -5.3305 -1.7565 -3.519 -1.756 -1.8085 -4.1865 -4.2215 -3.7015 -4.884 
-4.1785 -3.6315 -7.177001 -6.53 -3.2685 -5.2145 -9.283501 -5.759501 -4.824 -8.637 -8.140501 -4.3775 -4.335 -4.2585 -5.435 -6.8315 -7.842 -6.0975 -6.816 -9.333 -5.5245 -7.088 -7.463 -4.884501 -4.4605 -5.469 -5.813 -4.1665 -5.3305 -5.734 -5.03 -4.9065 -3.584 -5.4065 -7.4615 -6.285501 -6.4175 
-5.2205 -7.800001 -8.069501 -7.2925 -5.291 -9.943001 -9.936 -10.1425 -9.284 -12.9433 -8.236001 -5.68 -6.6035 -6.7995 -9.1005 -11.7119 -8.039001 -7.444 -11.5438 -10.5235 -9.456501 -8.4825 -10.041 -6.1415 -5.666501 -8.136001 -5.813 -9.296 -5.734 -7.6335 -5.9985 -6.792 -6.91 -7.7075 -8.154 -8.842001 
-8.8865 -8.585501 -8.804501 -8.9825 -9.9425 -10.291 -14.319 -14.6025 -13.7511 -13.0388 -9.3255 -8.2135 -8.7165 -10.7526 -13.8953 -11.9089 -8.4645 -12.481 -12.7343 -14.4555 -10.662 -11.2035 -11.6406 -6.9315 -8.370001 -8.136001 -11.5321 -9.9315 -7.6335 -8.462 -7.795001 -10.281 -9.882 -8.236501 -10.2485 
-9.749001 -9.431001 -10.2595 -13.9978 -10.2905 -14.674 -18.779 -19.0696 -13.8466 -14.1283 -11.929 -10.4891 -12.9182 -15.5474 -14.0923 -12.3344 -13.6837 -13.6715 -16.6663 -15.661 -13.383 -12.8031 -12.4306 -9.9055 -8.370001 -14.0601 -12.1676 -12.0142 -8.462 -10.034 -11.4552 -13.253 -10.262 -10.403 
