-4.759 
n/a 
n/a 
n/a 
n/a 
-4.759 
n/a 
n/a 
n/a 
n/a 
-4.759 
n/a 
n/a 
n/a 
n/a 
-4.759 
n/a 
n/a 
n/a 
n/a 
-1.934 -1.4985 -3.158 -5.6755 0 -6.1415 -4.024 -5.8715 -1.7695 -7.511 0 -2.5045 -4.4155 -1.934 -1.4985 -3.452 -3.881 -2.3345 -4.088 -9.1335 -1.934 -5.371 -1.934 -1.4985 -3.158 -5.7465 0 -6.2295 -2.229 -3.326 -4.86 -4.5855 -4.658 0 -3.325 -4.044 -2.356 -4.19 -3.9725 0 -4.518 -3.3715 -4.572 -3.8745 -1.756 -3.251 -3.0835 -3.0105 -2.356 -4.891 -3.1385 -3.0365 0 
-2.6125 -4.178 -8.6855 -5.6755 -6.1415 -11.136 -10.411 -7.314001 -10.007 -7.511 -2.5045 -5.495501 -5.054 -2.6125 -4.4485 -6.449 -4.5275 -5.3925 -14.1665 -11.3189 -6.5765 -7.137 -2.6125 -4.178 -8.56 -5.7465 -6.2295 -8.2915 -5.4715 -9.998001 -8.639 -6.4505 -4.658 -3.325 -5.8495 -5.3015 -6.565001 -7.7055 -3.9725 -4.518 -7.853001 -7.908 -6.268 -5.795 -4.834 -6.4575 -6.1125 -4.921 -6.726001 -6.0085 -5.8345 -3.0365 
-5.265 -8.788 -8.6855 -9.1145 -11.136 -17.523 -10.7695 -16.0595 -10.007 -10.2925 -5.495501 -6.0705 -5.585 -5.475 -7.5525 -6.722 -7.1615 -16.2006 -16.3519 -15.9614 -8.003501 -8.3925 -5.265 -8.651501 -8.56 -12.6028 -8.2915 -11.8224 -12.8939 -13.9338 -11.4176 -6.4505 -8.9495 -5.8495 -6.5905 -9.2915 -9.894501 -7.7055 -8.6625 -7.853001 -12.6931 -8.6705 -7.845 -8.785001 -8.419001 -9.3555 -6.829 -8.8605 -7.7215 -8.349001 -5.8345 
-9.056001 -8.788 -12.4251 -14.5722 -17.523 -17.8815 -19.515 -16.0595 -12.7885 -13.6037 -6.0705 -6.397501 -7.3855 -8.686501 -7.733 -9.0895 -18.3052 -18.386 -20.9944 -17.3884 -8.872001 -10.3475 -8.972 -8.651501 -15.8245 -14.6648 -11.8224 -19.2448 -16.8297 -16.7124 -11.4176 -9.855 -9.9065 -6.5905 -11.0065 -12.804 -9.894501 -12.9055 -12.3749 -12.6931 -13.4556 -9.591001 -11.1826 -12.3846 -11.4652 -9.519501 -10.316 -9.554501 -10.041 -8.349001 
-9.056001 -12.6142 -17.8828 -20.9592 -17.8815 -26.627 -19.515 -18.841 -16.0997 -14.1787 -6.397501 -8.805501 -10.5525 -8.854 -10.0405 -20.295 -20.4906 -23.0285 -22.4214 -18.2569 -10.8902 -14.0545 -8.972 -15.964 -17.8865 -18.1957 -19.2448 -23.1806 -19.6083 -16.7124 -14.8221 -10.1425 -11.6571 -11.0065 -14.519 -12.804 -15.4213 -16.6179 -17.215 -13.4556 -14.3761 -12.941 -14.7822 -15.4308 -11.6292 -12.9915 -11.01 -11.847 -10.041 
-11.549 -4.565 -9.593 -2.688 -3.188 -2.264 -4.365 -7.455 0 -5.371 -4.088 -6.385 -4.0385 -5.0155 -3.9815 -1.756 -12.16972 -4.164 -1.934 -3.091 -3.452 -2.264 -5.7465 0 -8.1765 -2.229 -3.326 -3.213 -4.5855 -8.639 0 -4.185 -3.9725 -2.229 -4.044 -3.918 -3.3715 -6.2675 -3.8375 -2.925 -4.0555 -2.5195 -2.3335 -4.1955 -2.8195 -2.5195 -3.0835 -2.925 -4.101 0 
-15.241 -15.249 -12.5666 -5.0925 -5.782001 -7.3085 -12.31 -7.455 -5.371 -8.356501 -9.411501 -9.981001 -9.9925 -7.6705 -5.6895 -14.93432 -16.33372 -4.585 -4.2105 -5.5575 -5.2915 -8.751 -5.7465 -8.1765 -9.442 -5.4715 -6.2375 -8.155001 -9.8615 -8.639 -4.185 -8.4055 -5.125 -6.114 -8.0105 -7.6405 -9.9615 -8.226501 -6.9795 -5.4845 -5.0775 -4.9535 -6.493501 -6.897501 -5.4635 -5.8835 -6.033 -5.6115 -4.101 
-26.5011 -18.2226 -14.9711 -7.9065 -11.5701 -15.7615 -12.31 -13.719 -8.356501 -13.755 -12.8747 -15.935 -12.8261 -10.199 -19.70582 -19.09832 -16.75472 -7.3085 -6.003 -6.992 -12.2363 -8.751 -14.5498 -9.442 -13.1305 -8.035501 -11.6695 -13.5816 -9.8615 -13.2522 -8.4055 -9.7185 -9.668 -9.967001 -12.1842 -14.5325 -12.0319 -11.9135 -9.184 -6.276501 -7.288 -9.1175 -9.649 -9.673 -8.785 -9.634501 -8.494 -5.6115 
-29.7749 -20.6271 -17.7851 -14.0104 -20.0231 -15.7615 -18.574 -16.7045 -13.755 -17.2182 -18.8287 -18.7686 -15.3546 -25.16212 -23.86982 -19.51932 -19.47822 -8.125 -7.472001 -14.1552 -12.2363 -18.2203 -15.8153 -13.1305 -15.6945 -13.7065 -17.0961 -13.5816 -14.8293 -17.4727 -9.7185 -14.6293 -13.5898 -14.2699 -19.0762 -16.6029 -15.7189 -14.118 -9.851001 -8.684501 -11.648 -12.3764 -12.5611 -13.3085 -13.0278 -12.2177 -8.494 
-32.1794 -23.4411 -23.889 -22.4634 -20.0231 -22.0255 -21.5595 -22.103 -17.2182 -23.1722 -21.6623 -21.2971 -30.31772 -29.32612 -24.29082 -22.24282 -20.29472 -9.935 -14.7192 -14.1552 -21.7056 -19.4858 -19.5038 -15.6945 -21.3655 -19.1331 -17.0961 -18.5494 -19.0498 -18.7857 -14.6293 -18.5511 -17.8927 -21.1619 -21.1466 -20.2899 -17.9234 -14.785 -12.3198 -13.2679 -14.9069 -15.2885 -16.1966 -17.5513 -15.611 -12.2177 
-14.8085 -4.9225 -3.152 -4.024 -1.7695 -2.688 -3.188 -3.5065 -5.6755 0 -2.264 -5.371 -4.088 -9.1335 -3.881 -1.934 -5.0155 -5.072 -6.1415 -3.452 -2.5045 -4.6505 -2.5045 -5.7465 0 -10.8685 -2.229 -3.326 -3.213 -1.7565 -7.196001 -4.658 0 -2.5045 -3.543 -4.185 -5.5025 -2.229 -3.8675 -4.518 -3.948 -6.2675 -3.8745 0 -3.0105 -3.0835 -1.4985 -4.4705 -3.0365 0 
-19.8082 -7.4025 -5.7885 -4.5525 -4.698 -5.0925 -6.436 -8.9685 -5.6755 -2.264 -9.143001 -8.356501 -14.1665 -13.2659 -5.05 -6.3705 -8.8715 -11.1415 -9.663501 -5.956 -5.895 -6.804501 -8.692 -5.7465 -10.8685 -13.0975 -5.4715 -6.2375 -4.766 -9.2495 -9.215501 -4.658 -2.5045 -5.323 -10.1855 -10.4265 -7.2525 -6.0635 -6.6735 -8.766001 -10.1855 -7.993501 -3.8745 -3.0105 -6.716001 -5.229 -5.882501 -7.1955 -3.0365 
-22.788 -10.543 -6.1485 -7.4065 -7.624001 -8.7615 -12.3212 -8.9685 -8.633 -9.143001 -12.3003 -18.51 -18.2989 -14.4349 -10.3939 -9.582001 -15.1054 -14.6635 -12.3681 -9.572001 -7.3825 -13.7744 -8.692 -17.2418 -13.0975 -16.34 -8.035501 -7.62 -12.7434 -9.999001 -9.215501 -7.52 -5.323 -12.2387 -16.5586 -12.5723 -11.5672 -9.462 -11.7625 -15.2621 -10.6415 -7.993501 -7.783 -6.716001 -9.0845 -9.7775 -8.1885 -7.1955 
-25.9285 -10.6775 -8.667001 -10.6875 -11.5242 -14.8503 -12.3212 -12.1578 -15.7876 -12.3003 -22.4538 -22.6424 -19.4679 -19.7788 -13.6054 -15.8515 -18.6274 -17.3681 -15.9841 -11.0825 -15.2674 -13.7744 -20.1555 -19.4708 -16.34 -18.904 -9.657001 -16.0398 -13.4929 -9.999001 -12.2039 -10.9257 -12.2387 -18.6118 -18.7044 -16.887 -14.9657 -14.6658 -18.2586 -15.7181 -10.6415 -12.5316 -11.6989 -9.0845 -13.7112 -12.1535 -8.1885 
-26.063 -13.196 -12.3374 -14.5877 -17.613 -14.8503 -15.5105 -19.3124 -18.9449 -22.4538 -26.5862 -23.8114 -24.8118 -22.9903 -19.8749 -19.3735 -21.332 -20.9841 -17.4946 -18.9674 -15.2674 -25.2379 -22.3845 -22.7133 -18.904 -20.5255 -18.0768 -16.7893 -13.4929 -13.0566 -15.6096 -17.8414 -18.6118 -20.7576 -23.0191 -20.2855 -20.1695 -21.1619 -18.7146 -15.7181 -15.1796 -16.4475 -14.0674 -13.7112 -16.0872 -12.1535 
-10.384 -4.024 -4.936 -1.7695 -2.9195 -3.188 -1.934 -5.6755 -1.934 -5.371 0 -2.5045 -4.164 -2.3345 -4.088 -1.934 -3.091 -3.452 -5.0155 -4.717 0 -1.934 -5.7465 0 -3.326 -4.86 -7.5375 -4.518 -11.0235 -3.8745 -1.756 -5.088 -1.4985 -5.2135 -3.0365 
-14.6402 -9.776001 -6.3985 -5.4535 -5.2395 -5.106 -7.3915 -7.9525 -6.5765 -5.371 -2.5045 -4.8645 -5.403 -5.3925 -7.2135 -4.2105 -5.5575 -9.363501 -8.040501 -4.717 -1.934 -7.1725 -5.7465 -3.326 -9.998001 -13.6855 -11.117 -16.5897 -14.898 -5.795 -6.8915 -6.0845 -6.22 -7.876 
-20.3922 -10.3505 -10.8135 -9.416501 -8.331 -9.163 -8.780001 -12.6964 -6.5765 -8.088 -4.8645 -6.2345 -8.526 -8.555 -8.7255 -6.003 -11.7666 -12.4753 -8.040501 -6.6935 -7.1725 -7.1725 -10.2485 -9.998001 -18.9803 -17.265 -23.1887 -20.4642 -16.8185 -11.7763 -7.568 -10.3545 -8.862 
-20.9667 -14.9719 -14.7765 -12.79 -13.309 -10.7353 -13.6071 -12.6964 -8.347 -10.7754 -6.2345 -9.294001 -11.7767 -10.2695 -10.674 -12.2623 -14.8784 -12.4753 -9.3255 -12.4474 -7.1725 -12.2069 -16.9205 -18.9803 -22.5598 -29.3367 -27.0632 -22.3847 -22.7998 -12.4528 -11.916 -12.9965 
-25.5881 -18.9349 -18.15 -17.768 -14.8813 -15.5624 -13.6071 -14.4669 -11.286 -12.1454 -9.294001 -12.6205 -13.4912 -12.218 -16.9333 -15.3741 -14.8784 -13.7603 -15.6748 -12.4474 -12.2069 -18.8789 -25.9028 -22.5598 -34.6315 -33.2112 -28.9837 -28.366 -23.4763 -16.8008 -14.558 
