-4.759 
n/a 
n/a 
n/a 
n/a 
-4.759 
n/a 
n/a 
n/a 
n/a 
-4.759 
n/a 
n/a 
n/a 
n/a 
-4.759 
n/a 
n/a 
n/a 
n/a 
-3.0365 -2.4945 -2.645 -3.1575 -3.454 -5.2135 -1.934 -1.4985 -3.1715 
-3.688 -4.6775 -3.72 -5.563001 -8.987 -6.5745 -2.6125 -3.994 
-5.477 -5.57 -5.6775 -9.637501 -9.913501 -7.059 -4.939 
-5.977 -7.5885 -9.6385 -10.3065 -10.4895 -8.471 
-7.7075 -10.2695 -10.306 -11.1439 -11.9015 
-3.0365 -2.4945 -2.645 -3.1575 -3.454 -3.9755 -1.7565 -4.5185 -6.501 0 
-3.688 -4.6775 -3.72 -5.563001 -6.9595 -4.312 -6.4705 -7.132501 -6.501 
-5.477 -5.57 -5.6775 -8.6835 -6.969501 -9.176001 -7.939 -7.132501 
-5.977 -7.5885 -8.687 -8.706501 -13.1885 -10.8121 -7.939 
-7.7075 -9.484501 -8.708501 -15.2171 -14.8246 -10.8121 
-1.934 -2.3615 -3.1715 -2.645 -3.1575 -3.454 -6.8885 -3.152 -3.0365 0 
-3.539 -5.249 -5.653 -3.72 -5.563001 -10.4425 -8.719 -5.5585 -3.0365 
-5.6405 -8.4345 -7.3885 -5.6775 -13.4473 -12.273 -11.2339 -5.5585 
-8.741 -8.7985 -9.337001 -13.6938 -15.2778 -14.7879 -11.2339 
-9.0465 -11.0514 -17.5095 -15.5243 -17.7927 -14.7879 
-2.7455 -2.645 -3.1575 -3.454 -4.938 -2.229 -2.4945 -3.0365 -1.934 -3.1715 0 
-5.9705 -3.72 -5.563001 -8.8625 -8.4095 -5.159 -4.952001 -5.238 -5.2765 -3.1715 
-6.4415 -5.6775 -10.2985 -12.469 -11.5067 -7.639 -6.545001 -9.227 -5.2765 
-9.201 -10.298 -13.905 -15.5662 -13.9867 -8.734 -10.5325 -9.227 
-13.8357 -13.9045 -17.0022 -18.0462 -15.0817 -12.7679 -10.5325 
