-4.759 
n/a 
n/a 
n/a 
n/a 
-4.759 
n/a 
n/a 
n/a 
n/a 
-4.759 
n/a 
n/a 
n/a 
n/a 
-4.759 
n/a 
n/a 
n/a 
n/a 
-1.4985 -4.677 -1.7565 -4.3055 -8.915501 -2.186 -4.99 -1.934 -7.113 0 -6.204 -5.447 0 
-5.4395 -5.666 -6.1225 -10.9575 -10.533 -5.502 -5.477 -8.330001 -7.113 -6.204 -6.238501 -5.447 
-6.02 -8.251 -13.2387 -12.575 -13.849 -5.947001 -12.5956 -8.330001 -8.7075 -6.238501 -6.238501 
-8.722501 -15.9382 -14.8562 -15.891 -14.294 -13.171 -12.5956 -9.818501 -8.711 -6.238501 
-16.4027 -17.5557 -18.1722 -16.336 -21.518 -13.171 -14.0841 -9.821501 -8.711 
-6.1575 -8.39 0 -12.16972 0 -6.088 -5.447 0 
-15.1989 -8.39 -12.16972 -12.16972 -6.088 -6.106 -5.447 
-15.1989 -21.10392 -12.16972 -18.25772 -6.106 -6.106 
-27.91282 -21.10392 -18.25772 -18.27572 -6.106 
-27.91282 -27.19192 -18.27572 -18.27572 
-6.136 -20.68772 0 -6.204 -5.447 0 
-27.57652 -20.68772 -6.204 -6.238501 -5.447 
-27.57652 -27.22052 -6.238501 -6.238501 
-34.10932 -27.25502 -6.238501 
-34.14382 -27.25502 
-6.136 -12.16972 0 -7.113 0 -6.204 -5.447 0 
-19.05852 -12.16972 -7.113 -7.113 -6.204 -6.238501 -5.447 
-19.05852 -19.28272 -7.113 -8.7075 -6.238501 -6.238501 
-26.17152 -19.28272 -8.7075 -8.711 -6.238501 
-26.17152 -20.87722 -8.711 -8.711 
