-4.759 
n/a 
n/a 
n/a 
n/a 
-4.759 
n/a 
n/a 
n/a 
n/a 
-4.759 
n/a 
n/a 
n/a 
n/a 
-4.759 
n/a 
n/a 
n/a 
n/a 
-3.7075 -4.983 -4.938 -4.7595 -2.186 -3.062 -3.5215 -4.099 -3.1575 -4.4695 -1.7565 -4.3745 -1.7565 -1.4985 -3.995 0 
-7.178 -10.884 -7.38 -6.7815 -6.2135 -6.4575 -6.351 -4.7895 -8.508 -5.5145 -7.026501 -5.3995 -2.4195 -4.712 -3.995 
-13.4876 -13.326 -8.729 -10.749 -8.552501 -8.791 -6.5265 -9.906 -10.0315 -11.5671 -8.482501 -5.534501 -5.2205 -4.712 
-15.9296 -14.675 -12.8653 -13.088 -9.570001 -8.984 -12.0428 -12.3269 -16.3727 -13.0231 -8.818501 -9.8675 -5.2205 
-17.2786 -18.8113 -15.2043 -14.1055 -9.670501 -14.6333 -14.4637 -18.6681 -17.8287 -13.3591 -13.2875 -9.8675 
-3.7075 -2.229 -4.938 -4.7595 -2.186 -3.062 -3.5215 -4.719 -3.1575 -3.995 -2.229 -4.8685 0 
-5.5255 -6.8345 -7.38 -6.7815 -6.2135 -6.4575 -7.0485 -5.5835 -7.283501 -5.324 -7.4095 -4.8685 
-10.4265 -8.3605 -8.729 -10.749 -8.552501 -9.762 -7.254 -8.666 -7.972001 -8.255501 -7.4095 
-11.9525 -9.899 -12.8653 -13.088 -10.575 -9.872001 -9.139 -9.423501 -11.2437 -8.255501 
-13.491 -14.1149 -15.2043 -15.1105 -10.6525 -11.6756 -9.6335 -13.171 -11.2437 
-3.7075 -4.1625 -2.229 -4.938 -4.7595 -3.602 -2.8645 -9.1675 -1.7565 -3.995 -4.8685 
-6.711 -5.97 -6.8345 -7.38 -8.737 -6.452001 -13.635 -11.2446 -5.423 -7.97 
-9.0585 -11.2135 -8.3605 -11.8919 -11.7274 -17.6639 -15.7121 -14.9111 -9.371 
-14.4194 -12.7395 -13.1322 -14.8823 -22.9393 -19.741 -19.3786 -18.8591 
-15.9454 -17.5112 -16.1226 -26.0942 -25.0164 -23.4075 -23.3266 
-3.7075 -5.3135 -1.756 -4.938 -4.7595 -3.602 -1.7565 -2.9635 -1.934 -3.062 -3.868 
-9.933001 -6.490001 -6.569 -7.38 -8.737 -4.5195 -4.9525 -3.8325 -5.824 -6.1065 
-11.2935 -11.9876 -8.8975 -11.8919 -10.31 -5.0955 -6.5795 -10.025 -8.627501 
-16.7911 -14.3161 -13.5636 -13.4649 -10.596 -6.819 -10.6465 -13.0055 
-19.1196 -18.9822 -15.1366 -13.7509 -12.3195 -10.717 -13.627 
