-4.759 
n/a 
n/a 
n/a 
n/a 
-4.759 
n/a 
n/a 
n/a 
n/a 
-4.759 
n/a 
n/a 
n/a 
n/a 
-4.759 
n/a 
n/a 
n/a 
n/a 
-3.929 -2.4265 -2.186 -6.3195 -2.5195 -3.8735 -2.3345 -1.4985 -4.031 -1.7565 -7.160501 0 -2.4265 -4.706 -1.934 -1.4985 -3.486 -8.998501 -1.7565 -3.8735 0 
-5.029 -3.292 -7.965501 -7.3485 -5.578 -6.384501 -3.233 -5.196 -5.741 -7.8265 -7.160501 -2.4265 -6.305 -5.462501 -2.6125 -3.5655 -13.6331 -9.8465 -5.112 -3.8735 
-5.7665 -9.229501 -8.465501 -10.2135 -7.8955 -7.5225 -6.275 -6.213 -13.061 -7.8265 -9.8675 -6.305 -7.0325 -5.8215 -4.5805 -13.7812 -14.4811 -13.158 -5.112 
-11.9008 -9.736501 -10.543 -10.5615 -8.79 -10.286 -8.295501 -13.6248 -13.061 -10.159 -13.9976 -7.0325 -7.335001 -8.222501 -15.4322 -14.6292 -17.7926 -13.158 
-12.4078 -11.902 -10.5705 -10.579 -11.6973 -10.3015 -15.9445 -13.6248 -15.3935 -14.3213 -14.7251 -7.335001 -9.429501 -19.3284 -16.2802 -17.9407 -17.7926 
-1.8085 -4.575 -2.186 -2.664 -4.197 0 -2.4285 -5.837 0 -1.934 -1.8085 -4.3305 -2.229 -4.1455 -2.4285 -5.465 0 -2.9705 -4.111 -3.7685 -5.8915 0 -4.6305 -1.756 -5.173 -1.7695 -4.644 -2.5195 -3.6845 -1.4985 -4.1455 
-6.269 -5.375 -3.8555 -5.782 -4.197 -2.4285 -7.483 -5.837 -1.934 -3.2685 -6.0815 -6.0085 -5.863501 -6.289001 -8.054501 -5.465 -2.9705 -5.2865 -8.3295 -8.166 -5.8915 -4.6305 -6.2225 -6.724 -6.8715 -5.409 -5.5865 -5.88 -4.7485 -4.870501 
-8.117001 -7.2805 -7.3065 -5.782 -6.5765 -7.483 -7.483 -7.177501 -3.2685 -8.0635 -7.553 -7.2445 -7.5885 -9.181001 -8.054501 -7.7155 -5.2865 -9.175501 -10.341 -8.166 -9.755501 -6.2225 -8.748501 -8.290001 -8.3275 -6.319 -9.347 -6.9055 -6.3465 
-9.150001 -9.2135 -7.3065 -7.687 -9.317 -7.483 -8.712 -8.286501 -8.0635 -8.5845 -8.366 -9.126 -9.262501 -9.181001 -9.248501 -9.224001 -9.175501 -10.404 -10.341 -10.3675 -10.031 -8.748501 -9.321 -9.1625 -9.040501 -9.4215 -9.4385 -8.359 
-9.2205 -9.2135 -8.787001 -9.334001 -9.317 -8.712 -9.301001 -9.497001 -8.5845 -9.307501 -9.3535 -9.4895 -9.262501 -9.343 -9.3465 -9.348001 -10.404 -10.404 -10.407 -10.393 -10.349 -9.321 -9.337501 -9.278501 -9.493501 -9.4685 -9.489 
-3.4765 -2.7835 -2.186 -4.794 -2.5195 -1.4985 -4.1865 -6.2985 -2.3345 -1.4985 -4.682 -1.7565 -7.160501 -2.4265 -2.186 -3.5725 -3.8825 -1.934 -5.101 -4.8155 -1.7565 -3.8735 0 
-4.429 -5.537001 -6.253 -5.6105 -3.1695 -5.177 -6.497 -8.481 -3.233 -5.2815 -5.3355 -7.8265 -9.8675 -3.292 -4.471 -6.4095 -4.9695 -7.0705 -10.7175 -6.48 -5.112 -3.8735 
-7.912001 -10.634 -6.526501 -5.9935 -6.7015 -6.817 -8.755 -9.2895 -7.3525 -5.672501 -7.9795 -10.159 -10.252 -5.45 -6.858 -6.985001 -10.553 -13.1436 -12.382 -10.1465 -5.112 
-13.4528 -10.9075 -6.735001 -9.5675 -7.768 -8.886001 -9.506001 -10.101 -7.8305 -8.338501 -10.304 -10.501 -12.41 -8.184 -7.429 -12.7821 -16.6261 -14.8081 -16.0485 -10.1465 
-13.7263 -11.116 -9.943001 -9.929001 -9.704 -9.5295 -10.101 -10.107 -9.937 -10.442 -10.585 -12.659 -15.144 -8.5745 -13.3705 -18.8552 -18.2906 -18.4746 -16.0485 
-3.4765 -2.4265 -2.186 -4.794 -2.5195 -1.4985 -4.1865 -4.0995 -5.213 -2.3345 -1.4985 -7.160501 -4.682 0 -2.4265 -2.229 -4.8035 -2.186 -1.934 -3.8735 -2.229 -3.8845 -4.8515 0 
-6.64 -3.292 -6.253 -5.6105 -3.1695 -5.177 -7.012 -6.75 -7.2615 -3.233 -8.2735 -9.052501 -4.682 -2.4265 -3.3415 -6.863 -6.7275 -4.0835 -4.885 -5.3655 -5.9495 -7.469501 -4.8515 
-7.390501 -7.399001 -6.526501 -5.9935 -6.7015 -7.3085 -7.0455 -8.918501 -8.2235 -9.964001 -10.7125 -9.052501 -7.623 -3.3415 -9.2215 -8.594001 -8.991501 -7.589 -6.688001 -9.315001 -9.645 -7.469501 
-10.733 -7.614501 -6.735001 -9.5675 -8.185 -7.333 -9.144501 -9.683001 -15.2223 -12.511 -10.7125 -13.2203 -8.56 -9.2215 -10.5135 -10.419 -12.5858 -8.732 -11.0555 -13.9047 -9.645 
-10.9485 -7.759 -9.943001 -11.4014 -8.1885 -9.17 -10.0965 -16.8376 -17.7693 -12.511 -14.8803 -14.1573 -14.634 -10.5135 -12.3385 -14.0133 -13.7288 -13.7893 -15.6452 -13.9047 
