-4.759 
n/a 
n/a 
n/a 
n/a 
-4.759 
n/a 
n/a 
n/a 
n/a 
-4.759 
n/a 
n/a 
n/a 
n/a 
-4.759 
n/a 
n/a 
n/a 
n/a 
-3.433 -1.7565 -2.3615 -4.031 -1.4985 -4.887 -3.152 -4.164 -1.934 -3.875 -1.756 -3.7745 -3.641 -3.959 
-4.1845 -3.523 -5.4055 -5.469 -5.927 -7.464 -6.375501 -5.572 -4.7225 -5.0395 -5.3805 -6.1635 -8.561001 
-5.5485 -7.719 -6.2395 -10.243 -8.123501 -9.759001 -7.4525 -9.0495 -5.618 -6.465 -8.262501 -12.0999 
-7.834 -8.775001 -11.1845 -12.6119 -10.3745 -10.7525 -11.2956 -9.9895 -7.4915 -11.7284 -14.5433 
-8.8525 -13.8338 -13.5534 -14.8629 -11.368 -14.5956 -12.2356 -11.8834 -12.8913 -18.0092 
-1.4985 -4.887 -1.7565 -3.7745 -3.75 -3.959 -1.756 -3.875 -3.0465 -4.164 -3.851 -1.7695 -3.1495 -3.9515 
-5.927 -6.133 -5.2935 -6.3125 -7.036 -5.173 -5.479 -7.122001 -7.0885 -7.039001 -4.0015 -4.7475 -6.066 
-6.273 -9.232 -8.299001 -10.6961 -8.381001 -8.2515 -9.0115 -12.0484 -10.038 -7.051 -6.657 -7.861001 
-9.347 -12.8205 -13.1588 -12.0411 -9.554001 -11.9882 -14.1073 -14.9979 -10.0665 -9.698501 -8.9325 
-12.9801 -17.6803 -14.5038 -13.2141 -13.9185 -17.084 -17.0568 -15.0264 -12.7046 -12.014 
-3.1495 -3.974 -1.7695 -4.031 -3.875 -1.756 -3.307 -1.7565 -3.75 -3.959 -1.7695 -5.0005 -1.7565 -3.4625 0 
-8.1245 -5.6775 -6.069 -8.583 -5.0395 -5.912 -4.8035 -5.55 -7.036 -5.538 -7.2925 -5.7045 -5.1555 -3.4625 
-10.4505 -10.5535 -11.1162 -9.978001 -10.304 -7.127501 -7.8015 -10.553 -8.9315 -12.0492 -7.908501 -9.832001 -5.1555 
-15.3265 -15.6007 -12.5112 -15.3839 -11.5195 -10.5273 -13.3419 -12.4485 -15.5201 -12.6652 -12.1012 -9.832001 
-20.3737 -16.9957 -17.9171 -16.5994 -14.9193 -16.0677 -15.2374 -19.0371 -16.1361 -16.8579 -12.1012 
-1.756 -3.7745 -4.2775 -3.959 
-5.3805 -6.321 -6.905 
-8.068501 -9.89 
-10.7025 
n/a 
