-4.759 
n/a 
n/a 
n/a 
n/a 
-4.759 
n/a 
n/a 
n/a 
n/a 
-4.759 
n/a 
n/a 
n/a 
n/a 
-4.759 
n/a 
n/a 
n/a 
n/a 
-1.934 -3.506 -3.533 -12.16972 -3.4975 -3.959 -3.9535 -8.7045 -3.794 
-4.961 -5.726501 -16.22452 -15.66722 -6.329 -7.868 -13.8458 -11.046 
-6.7335 -18.85002 -19.72202 -18.49872 -9.758 -18.0767 -16.1873 
-20.17322 -22.34752 -22.55352 -21.92772 -19.9683 -20.4182 
-23.67072 -25.17902 -25.98252 -32.13802 -22.3098 
-2.4265 -4.4655 -1.4985 -3.9235 -1.7565 -3.4975 -3.468 0 -3.3785 -4.304 -1.934 -3.506 -3.533 -1.934 -4.995 0 
-7.295501 -6.0195 -4.814 -5.24 -4.91 -6.428 -3.468 -3.3785 -5.127501 -6.016001 -4.961 -5.726501 -5.780001 -6.471 -4.995 
-8.458501 -9.6005 -5.8265 -6.592501 -6.627 -6.428 -6.315001 -5.127501 -6.5765 -8.130501 -6.7335 -7.7585 -10.0925 -6.471 
-12.1829 -10.7148 -6.813001 -6.679 -6.627 -8.8745 -8.4265 -6.5765 -8.4385 -9.453501 -8.2535 -12.2402 -10.0925 
-13.2972 -11.7013 -6.869 -6.679 -8.8815 -9.110001 -9.903501 -8.4385 -9.5565 -11.0271 -12.8656 -12.2402 
-1.934 -3.506 -3.533 -12.16972 -3.676 -3.959 -3.3785 -3.794 -4.7615 0 
-4.961 -5.726501 -16.22452 -15.84572 -7.168 -7.5525 -5.4405 -8.8345 -4.7615 
-6.7335 -18.85002 -19.90052 -19.33772 -11.4977 -10.2387 -10.733 -8.8345 
-20.17322 -22.52602 -23.39252 -23.66742 -14.1839 -15.5312 -10.733 
-23.84922 -26.01802 -27.72222 -26.35362 -19.4764 -15.5312 
-1.934 -3.506 -3.533 -12.16972 -5.189 -1.4985 -3.3785 -4.7615 -3.774 0 
-4.961 -5.726501 -16.22452 -17.35872 -6.753 -4.4495 -9.4875 -9.083 -3.774 
-6.7335 -18.85002 -21.41352 -18.92272 -9.918 -11.3755 -13.7068 -9.083 
-20.17322 -24.03902 -22.97752 -22.08772 -16.844 -15.5948 -13.7068 
-25.36222 -25.60302 -26.14252 -29.01372 -21.0633 -15.5948 
