-4.759 
n/a 
n/a 
n/a 
n/a 
-4.759 
n/a 
n/a 
n/a 
n/a 
-4.759 
n/a 
n/a 
n/a 
n/a 
-4.759 
n/a 
n/a 
n/a 
n/a 
-3.288 -3.133 0 -5.041 -3.237 -3.152 -4.493 -1.756 -3.748 -3.152 -5.2985 -4.874 -3.034 -1.8085 -4.889 -2.7415 -5.69 -1.934 -1.4985 -5.7465 -3.237 -4.297 0 
-5.049 -3.133 -5.041 -8.624001 -7.0205 -5.593 -5.8585 -6.32 -7.5455 -6.876 -6.751 -6.619 -4.4665 -5.919001 -6.837501 -8.085501 -6.5965 -2.6125 -7.269501 -9.436001 -6.862 -4.297 
-5.049 -7.778501 -8.624001 -12.7827 -9.803 -6.381001 -9.245 -8.4755 -11.4673 -8.130501 -8.455 -7.268 -7.492001 -7.817501 -8.713501 -8.888 -7.1355 -8.231001 -10.361 -13.6416 -6.862 
-10.9523 -11.6885 -12.7827 -15.5652 -10.7326 -9.481501 -10.412 -12.4793 -12.7218 -9.484501 -9.106 -8.582001 -8.837501 -9.490001 -9.3675 -9.3835 -13.2914 -11.6409 -15.0602 -13.6416 
-14.8623 -15.8472 -15.5652 -16.4948 -13.8331 -10.46 -14.8216 -13.7338 -14.0758 -10.1395 -10.329 -10.1065 -10.27 -10.0655 -9.825001 -15.6194 -16.7013 -16.3401 -15.0602 
-3.288 -3.133 -1.8085 -4.889 -4.8115 -1.934 -4.297 -4.0435 -1.7565 -5.7465 0 -3.1475 -3.237 -4.493 -3.748 -4.625 -4.874 0 
-5.049 -5.6875 -5.919001 -6.759501 -6.611 -6.725 -8.031501 -4.7605 -7.118001 -5.7465 -3.1475 -7.1335 -9.4805 -8.012501 -9.317501 -6.264 -4.874 
-7.932 -9.0325 -7.55 -7.510001 -10.259 -10.9953 -9.009001 -9.394501 -7.118001 -9.050501 -7.1335 -13.811 -13.2352 -14.5474 -10.7585 -6.264 
-9.104 -11.6341 -8.086 -11.6394 -14.5293 -11.9728 -13.655 -9.394501 -10.8546 -13.2973 -13.811 -17.5657 -19.7701 -15.9884 -10.7585 
-12.6946 -12.1701 -12.4584 -15.9097 -15.5068 -16.6188 -13.655 -13.2135 -15.1014 -19.9748 -17.5657 -24.1006 -21.2111 -15.9884 
-3.288 -3.133 0 -1.8085 -4.297 -2.7415 -4.889 -5.764 -1.756 -3.1475 -3.1385 -4.493 -1.756 -3.748 -4.874 -1.934 -1.4985 -5.9245 -1.7565 -5.7465 0 
-5.049 -3.133 -1.8085 -5.6255 -6.812 -8.3985 -8.762001 -7.641001 -5.6005 -6.6685 -6.5305 -5.8585 -6.32 -8.932 -5.694 -2.6125 -6.068001 -6.059 -7.118001 -5.7465 
-5.049 -5.6875 -5.6255 -8.21 -12.8942 -12.4817 -10.7605 -11.8853 -8.878 -9.3175 -7.638 -9.245 -9.7655 -9.4005 -6.5475 -7.1385 -6.1105 -9.214001 -7.118001 
-7.932 -9.737 -8.21 -14.5032 -16.9774 -14.4802 -15.0048 -15.1628 -10.634 -10.1685 -11.2899 -9.9545 -10.319 -10.7548 -11.9081 -7.194 -9.2545 -9.214001 
-12.3385 -12.3215 -14.5032 -18.5864 -18.9759 -18.7245 -18.2823 -16.9188 -12.032 -13.8204 -11.9994 -10.4015 -11.6733 -16.1154 -11.9636 -9.8915 -9.2545 
-3.1475 -3.237 -3.152 -4.493 -1.756 -3.748 -4.874 -1.934 -1.8085 -4.889 -4.8115 -1.934 -1.8085 -4.297 -2.5045 -1.4985 -5.9245 -1.7565 -5.7465 0 
-7.1335 -7.0205 -5.593 -5.8585 -6.32 -8.932 -5.694 -3.2685 -5.919001 -6.759501 -6.611 -3.2685 -5.6255 -6.675501 -3.1915 -6.068001 -6.059 -7.118001 -5.7465 
-11.351 -9.803 -6.381001 -9.245 -9.7655 -9.4005 -6.6225 -7.381001 -7.55 -7.510001 -7.961 -7.023 -7.741 -7.250501 -7.652501 -6.1105 -9.214001 -7.118001 
-14.1335 -10.7326 -9.481501 -9.9545 -10.319 -10.8298 -8.5695 -8.0705 -8.086 -8.819 -10.27 -9.330501 -8.327001 -12.0661 -7.684501 -9.2545 -9.214001 
-15.0631 -13.8331 -10.214 -10.4015 -11.7483 -12.7768 -8.908 -8.507 -9.112 -10.4945 -12.5775 -9.887501 -13.2214 -12.0981 -11.0677 -9.2545 
