-4.759 
n/a 
n/a 
n/a 
n/a 
-4.759 
n/a 
n/a 
n/a 
n/a 
-4.759 
n/a 
n/a 
n/a 
n/a 
-4.759 
n/a 
n/a 
n/a 
n/a 
-2.5195 -3.6055 -4.5685 -1.7565 -4.219 -2.871 -3.4185 -2.186 -4.645 -2.0935 -1.4985 -3.999 -3.545 0 
-5.645 -7.2235 -5.363 -5.991001 -7.389501 -5.8795 -5.5645 -6.196 -6.451001 -2.9725 -4.7585 -6.5895 -3.545 
-8.3685 -8.3275 -10.5035 -9.232501 -9.635 -7.52 -8.132 -7.542 -7.249001 -6.4345 -6.838 -6.5895 
-9.404 -14.1488 -13.745 -11.6252 -10.7595 -9.074 -9.2425 -8.575001 -11.3886 -8.423 -6.838 
-15.3673 -17.3903 -16.1377 -12.7497 -12.3135 -10.5755 -10.1265 -13.043 -13.3771 -8.423 
-3.539 -3.499 -2.674 -3.917 -2.5195 -4.219 
-8.158501 -5.527 -5.6315 -5.385 -7.283 
-10.504 -8.5745 -8.0035 -11.1321 
-13.5515 -11.2975 -14.168 
-16.2745 -17.462 
-3.999 -4.579 -3.499 -3.152 -3.917 -2.5195 -4.219 -5.563 0 
-9.491 -8.018 -5.744 -5.755 -5.385 -7.283 -7.971001 -5.563 
-13.3242 -10.389 -7.9195 -6.726 -11.1321 -11.6104 -7.971001 
-15.6952 -12.5645 -8.7775 -12.6643 -15.4595 -11.6104 
-17.8707 -13.4225 -14.8252 -16.9917 -15.4595 
-3.345 -3.4185 -2.186 -3.917 -2.5195 -2.871 -4.698 -8.333501 0 -1.4985 -3.999 -3.545 0 
-5.6165 -5.5645 -5.384 -5.385 -4.743 -8.318 -14.2309 -8.333501 -1.4985 -4.7585 -6.5895 -3.545 
-7.087501 -8.275001 -6.08 -7.521 -9.7505 -18.1807 -14.2309 -10.151 -4.7585 -6.838 -6.5895 
-9.9665 -8.811001 -8.1295 -13.5827 -20.7846 -18.1807 -16.0484 -13.411 -6.838 -6.838 
-10.6665 -10.586 -14.7436 -24.6168 -20.7846 -19.9982 -19.3084 -15.4905 -6.838 
