-4.759 
n/a 
n/a 
n/a 
n/a 
-4.759 
n/a 
n/a 
n/a 
n/a 
-4.759 
n/a 
n/a 
n/a 
n/a 
-4.759 
n/a 
n/a 
n/a 
n/a 
-2.3615 -3.8235 -4.7555 -4.079 -1.7695 -3.9555 -3.9555 -2.3335 -4.3955 -1.7565 -3.9355 0 
-6.017 -8.916 -9.865001 -5.261 -6.056 -6.7765 -6.474 -7.0445 -4.9015 -5.442 -3.9355 
-11.5679 -14.4313 -11.2584 -10.2135 -9.397 -9.892 -11.7344 -8.503501 -7.0635 -5.442 
-17.0832 -15.8247 -16.2109 -13.5545 -12.5917 -15.513 -13.1934 -10.5425 -7.0635 
-18.4766 -20.7772 -19.5519 -16.7492 -18.2127 -16.972 -15.2324 -10.5425 
-2.3615 -3.8235 -3.757 -2.3335 -3.8235 -3.976 -3.976 0 -3.2955 -1.7695 -3.976 -2.925 -3.681 0 
-6.017 -6.886001 -4.6275 -6.001 -8.477 -6.822001 -3.976 -3.2955 -3.9425 -5.440001 -5.443 -6.681001 -3.681 
-7.8685 -8.245501 -8.878 -11.1699 -10.76 -6.822001 -7.721 -3.9425 -7.478 -5.873001 -8.069 -6.681001 
-8.699 -9.469501 -14.3291 -13.4529 -10.76 -10.459 -8.553 -7.478 -7.625 -8.343 -8.069 
-10.443 -15.659 -16.6121 -13.4529 -14.397 -11.291 -12.4607 -7.625 -10.485 -8.343 
-1.934 -2.3615 -3.8235 -4.3465 -4.3955 -2.0935 0 -3.976 -3.976 0 -2.0935 -2.8705 -4.3435 
-3.539 -6.017 -8.487 -8.189001 -6.302 -2.0935 -3.976 -6.822001 -3.976 -2.0935 -4.3745 -7.0155 
-7.5255 -9.923 -12.4451 -11.4615 -6.302 -5.5015 -6.822001 -6.822001 -6.1555 -4.3745 -8.648001 
-11.8415 -14.1121 -15.7176 -11.4615 -10.2088 -8.896501 -6.822001 -9.425501 -8.705501 -8.648001 
-16.0306 -17.3846 -15.7176 -15.3683 -13.6038 -8.896501 -9.425501 -12.1753 -13.2478 
-2.3615 -3.8235 -3.757 -6.7 -1.4985 -3.685 -2.3335 -2.186 0 -3.9555 -3.9555 0 0 
-6.017 -6.886001 -11.1355 -7.8915 -4.771501 -5.894 -3.7085 -2.186 -3.9555 -6.7765 -3.9555 0 
-7.8685 -14.2509 -12.327 -11.5681 -6.816501 -6.922501 -3.7085 -5.658 -6.7765 -6.7765 -3.9555 
-15.3068 -15.4424 -16.0036 -13.6131 -7.936 -6.922501 -7.2165 -8.651 -6.7765 -6.7765 
-16.4983 -19.119 -18.0486 -14.7326 -7.936 -10.8509 -10.5225 -8.651 -6.7765 
