-4.759 
n/a 
n/a 
n/a 
n/a 
-4.759 
n/a 
n/a 
n/a 
n/a 
-4.759 
n/a 
n/a 
n/a 
n/a 
-4.759 
n/a 
n/a 
n/a 
n/a 
-5.5785 -4.351 -2.8195 -3.2615 -8.132501 -1.934 -3.091 -4.467 -1.7565 -4.3905 -1.4985 -3.564 -3.723 -1.7565 -4.8625 -3.8245 -1.934 -3.502 -3.976 0 
-8.967501 -6.139501 -5.916 -10.1385 -8.899501 -4.2105 -6.666 -6.684 -5.6825 -5.1855 -4.7165 -7.848001 -5.216001 -6.377501 -7.508 -4.7245 -4.8155 -4.3935 -3.976 
-10.7605 -7.473001 -13.471 -10.5295 -11.3184 -7.196001 -9.272 -9.948 -6.4005 -8.281 -8.9965 -9.1035 -10.8004 -8.503501 -7.8605 -7.231 -5.365 -4.3935 
-12.094 -15.5138 -13.862 -12.9484 -14.3039 -10.0245 -12.4166 -10.2965 -9.446501 -13.0188 -9.493501 -14.8249 -12.9264 -8.853001 -9.842001 -7.892 -5.365 
-20.1348 -15.9048 -16.2809 -15.9339 -17.1324 -13.1691 -12.7651 -13.3425 -14.1975 -13.5158 -15.2129 -16.9509 -13.2759 -10.9539 -10.0475 -7.892 
-3.2615 -3.0465 -1.4985 -4.712 -1.7565 -4.8625 -1.934 -3.502 -3.976 -3.3425 -7.9095 0 -5.5785 -4.351 -1.7695 -3.8735 0 
-7.6855 -4.046 -5.918 -5.8675 -6.377501 -6.352 -4.8155 -4.3935 -7.6225 -9.2735 -6.4465 -5.5785 -8.967501 -4.8575 -5.578001 -3.8735 
-8.889501 -9.243501 -6.194 -11.3415 -7.4875 -8.271501 -5.365 -8.036 -13.586 -9.3915 -9.172001 -8.967501 -9.124001 -7.7085 -5.578001 
-14.157 -10.173 -11.9734 -12.4515 -9.027 -8.538 -8.451501 -14.1915 -13.586 -12.279 -13.0618 -9.124001 -9.365001 -7.7085 
-15.0865 -15.9524 -13.0834 -13.991 -9.129001 -11.8419 -14.8066 -14.1915 -16.4735 -16.1688 -13.2183 -9.365001 -9.365001 
-6.7125 -4.351 -1.7695 -3.8735 -3.2615 -3.332 -4.38 -1.4985 -5.606 -3.723 -1.7565 -3.8245 -1.7565 -1.4985 -4.8625 -5.5495 -1.934 -3.502 -3.976 
-11.117 -4.8575 -5.578001 -7.034 -5.6715 -8.394001 -5.841 -6.634501 -9.068501 -5.216001 -5.058 -6.695 -2.4195 -5.7415 -8.122001 -5.777 -4.8155 -4.3935 
-11.6235 -7.7085 -7.9465 -9.2285 -11.2305 -10.7565 -11.4538 -9.7465 -9.687501 -5.9445 -7.033 -7.248 -6.651501 -8.8985 -8.487 -8.377501 -5.365 
-14.4745 -8.895 -10.0845 -15.0195 -13.593 -16.3693 -14.5658 -10.2015 -10.663 -7.212501 -7.446001 -10.597 -9.509501 -9.38 -10.61 -8.927501 
-15.661 -11.255 -15.8755 -17.382 -19.2058 -19.4813 -15.0208 -11.2152 -11.931 -7.5835 -10.6335 -13.455 -10.011 -11.8652 -11.16 
-5.5785 -4.351 -1.7695 -6.548 -3.2615 -4.389 -9.2335 -4.931 -1.934 -3.502 -3.976 
-8.967501 -4.8575 -8.582001 -8.9855 -6.1785 -14.7713 -14.5461 -6.252501 -4.8155 -4.3935 
-9.124001 -10.598 -11.1505 -12.1501 -17.791 -20.0839 -15.8676 -8.987 -5.365 
-15.4405 -13.1665 -14.3151 -23.7626 -23.1036 -21.4054 -18.6021 -9.462001 
-18.009 -16.3311 -25.9276 -29.0752 -24.4251 -24.1399 -19.0771 
