-4.759 
n/a 
n/a 
n/a 
n/a 
-4.759 
n/a 
n/a 
n/a 
n/a 
-4.759 
n/a 
n/a 
n/a 
n/a 
-4.759 
n/a 
n/a 
n/a 
n/a 
-1.934 -3.45 -3.8275 -12.16972 -2.186 -4.1205 -12.16972 -12.16972 -2.925 -3.2955 -1.7695 -3.5395 -3.595 -2.5045 -3.3715 -4.5235 -3.557 0 
-5.009 -7.948501 -17.10322 -14.35572 -6.796 -17.21702 -24.33944 -15.09472 -5.588 -3.9425 -4.7845 -5.861 -5.227 -4.771 -6.6665 -6.269001 -3.557 
-9.128 -21.80002 -19.28922 -18.96572 -20.30432 -29.38674 -27.26444 -17.75772 -5.948 -6.5305 -6.5245 -8.1125 -7.9515 -8.429001 -9.58 -6.269001 
-23.38032 -23.98602 -23.89922 -32.47404 -32.47404 -32.31174 -29.92744 -18.11772 -7.558001 -7.7975 -8.382 -10.5855 -11.9427 -11.6313 -9.58 
-25.56632 -28.59602 -37.40754 -44.64376 -35.39904 -34.97474 -30.28744 -19.72772 -8.716001 -9.8645 -11.1752 -14.5767 -15.145 -11.6313 
-3.849 -4.5235 -3.9335 -2.3335 -2.9905 -1.7565 -3.277 0 -2.4265 -2.186 -4.908 -12.16972 -10.0455 -3.0695 -3.882 -4.0555 -1.7695 -2.489 -3.9205 -2.5045 -12.16972 -6.9075 -10.0455 
-7.119 -8.0375 -5.0915 -5.698 -3.6185 -4.25 -3.277 -2.4265 -3.292 -8.6195 -17.69532 -22.21522 -13.6508 -6.295 -7.004001 -4.7475 -3.1405 -5.5325 -4.449 -15.59162 -19.07722 -17.9836 
-10.76 -8.333 -9.003501 -6.314 -6.205 -4.25 -5.413 -3.292 -9.6385 -21.58882 -27.74082 -25.82052 -16.8763 -8.515 -7.4175 -6.037 -5.974 -5.9405 -17.26692 -22.49912 -30.15332 
-11.0555 -12.4054 -9.160001 -8.8175 -6.205 -6.357 -6.0635 -9.6385 -22.80762 -31.63432 -31.34612 -29.04602 -19.0963 -8.702001 -7.9125 -6.8265 -6.209001 -19.25262 -24.17442 -33.57522 
-15.1279 -12.5619 -11.8353 -8.8175 -7.967 -7.0395 -12.8652 -22.80762 -32.85312 -35.23962 -34.57162 -31.26602 -19.2833 -9.196501 -8.255 -6.923 -19.54752 -26.16012 -35.25052 
-4.5235 -3.5095 -2.3335 -3.9225 -3.277 -4.908 -12.16972 -10.0455 -2.186 -1.4985 -2.871 -3.0695 -2.7415 -3.849 -2.5045 -12.16972 -6.9075 -10.0455 0 
-7.4475 -4.5055 -6.2085 -5.4525 -9.314 -17.69532 -22.21522 -12.7673 -3.339 -4.316 -5.059 -4.6395 -5.431 -6.305 -15.59162 -19.07722 -17.9836 -10.0455 
-7.962501 -8.6315 -8.1715 -11.4291 -22.32632 -27.74082 -24.93702 -13.9203 -5.399 -5.4975 -6.494 -7.197001 -7.509501 -19.49572 -22.49912 -30.15332 -17.9836 
-12.2111 -10.2135 -14.5813 -24.44142 -32.37182 -30.46262 -26.09002 -15.9803 -6.318501 -7.005 -8.9195 -9.019501 -21.18802 -26.40322 -33.57522 -30.15332 
-13.7931 -16.6233 -27.59362 -34.48692 -35.09362 -31.61562 -28.15002 -16.8998 -8.2825 -9.264 -10.8522 -23.17322 -28.09552 -37.47932 -33.57522 
-3.9225 -3.277 -4.908 -12.16972 -10.0455 -1.934 -3.882 -3.277 -2.7415 -3.849 -6.9075 -10.0455 
-5.4525 -9.314 -17.69532 -22.21522 -12.5153 -5.7955 -6.1265 -6.0695 -5.431 -10.4765 -17.9836 
-11.4291 -22.32632 -27.74082 -24.68502 -16.3768 -6.487 -8.144501 -8.907001 -12.4473 -21.5526 
-24.44142 -32.37182 -30.21062 -28.54652 -17.0683 -8.435 -10.575 -16.0109 -23.5234 
-34.48692 -34.84162 -34.07212 -29.23802 -19.0163 -10.6335 -17.6789 -27.087 
