-4.759 
n/a 
n/a 
n/a 
n/a 
-4.759 
n/a 
n/a 
n/a 
n/a 
-4.759 
n/a 
n/a 
n/a 
n/a 
-4.759 
n/a 
n/a 
n/a 
n/a 
-4.721 -7.190001 -2.871 -1.7565 -1.4985 -4.4745 -9.768001 -2.0935 -8.27 
-8.616 -10.419 -3.5385 -2.4195 -4.774 -15.5135 -12.0955 -9.514 
-12.2372 -10.536 -3.7675 -5.541501 -15.9716 -17.841 -19.516 
-12.3542 -10.5525 -5.7395 -17.1007 -18.2991 -25.2615 
-12.3707 -12.5245 -17.5517 -19.4282 -25.7196 
-7.190001 -2.186 -1.8085 -3.6135 -1.756 -4.043 -4.179 -4.7425 -2.3345 -6.4735 -4.1865 -2.264 -1.4985 -3.0835 -3.193 -1.7565 -4.721 -3.6905 0 
-8.7165 -3.164 -4.4545 -5.5285 -5.4685 -7.963 -7.973001 -7.191 -8.558001 -9.714001 -6.356 -2.9195 -3.535 -5.165 -4.5615 -6.466001 -9.7605 -3.6905 
-9.3725 -5.4355 -7.069 -9.3885 -9.613501 -12.3092 -10.8603 -14.0347 -12.0117 -11.9487 -6.5855 -5.1055 -5.390501 -5.4395 -9.507001 -10.634 -9.7605 
-11.9598 -7.818 -10.11 -13.6347 -13.9979 -15.1965 -17.704 -17.4884 -14.2464 -12.1782 -9.337 -5.8815 -5.5835 -10.1225 -13.7968 -10.634 
-14.3423 -11.0772 -14.3562 -18.0191 -16.8852 -22.0402 -21.1577 -19.7231 -14.4759 -14.9297 -9.993 -6.038001 -10.3955 -14.4123 -13.7968 
-4.721 -5.679 -3.193 -4.7425 -1.8085 -3.6135 -3.7455 -1.8085 -4.2775 -4.9605 -9.6365 0 
-10.252 -8.775001 -6.4915 -6.3995 -4.4545 -8.346001 -5.977 -4.8285 -10.8845 -15.206 -9.6365 
-12.53 -11.336 -9.217 -8.616 -9.002501 -10.7175 -9.212501 -12.2485 -21.13 -15.206 
-16.7279 -14.2649 -11.7159 -13.6862 -11.6124 -13.953 -16.7995 -22.494 -21.13 
-19.4534 -16.7638 -16.7861 -16.2961 -14.8479 -21.54 -27.045 -22.494 
-4.721 -7.190001 -2.186 -5.1805 -2.264 -3.0835 -1.7565 -5.1845 -3.6905 -4.721 0 -2.3345 -5.1845 -4.9225 
-8.616 -8.7165 -6.3525 -6.6725 -5.603001 -4.9645 -6.580501 -8.646 -8.6245 -4.721 -2.3345 -7.449 -9.13 
-9.709001 -9.628501 -7.1735 -10.016 -7.8365 -11.2905 -10.0605 -9.691501 -8.6245 -7.8595 -7.449 -11.9015 
-10.649 -10.337 -10.3815 -12.4243 -14.6467 -14.7705 -10.8498 -9.691501 -12.2626 -13.2698 -11.9015 
-11.3575 -13.5908 -12.7898 -19.2345 -18.1267 -15.5598 -10.8498 -13.6218 -17.6729 -17.7223 
