-4.759 
n/a 
n/a 
n/a 
n/a 
-4.759 
n/a 
n/a 
n/a 
n/a 
-4.759 
n/a 
n/a 
n/a 
n/a 
-4.759 
n/a 
n/a 
n/a 
n/a 
-3.188 -4.0005 -3.16 0 -3.188 -4.0005 -3.16 0 -2.186 -3.188 -4.0005 -3.3755 -1.7565 -4.6905 -4.928 0 -3.9355 0 -3.682 0 -3.482 0 -4.4615 -2.8965 -3.772 0 
-4.969501 -5.2365 -3.16 -3.188 -4.969501 -5.2365 -3.16 -2.186 -6.3455 -4.969501 -8.306 -4.5295 -6.2365 -10.718 -4.928 -3.9355 -3.9355 -3.682 -3.682 -3.482 -3.482 -4.4615 -7.7615 -5.588 -3.772 
-5.246 -5.2365 -6.7005 -4.969501 -5.246 -5.2365 -5.883 -6.3455 -7.6435 -9.874001 -9.29 -7.404 -12.5132 -10.718 -9.441501 -3.9355 -8.7225 -3.682 -6.4925 -3.482 -9.160001 -7.7615 -11.1322 -5.588 
-5.246 -7.92 -7.877 -5.246 -5.246 -7.176001 -9.404 -7.6435 -12.7252 -10.625 -12.4383 -14.0935 -12.5132 -15.2315 -9.441501 -8.7225 -8.7225 -6.4925 -6.4925 -9.160001 -12.5948 -11.1322 -11.1322 
-7.9375 -8.1335 -8.087501 -5.246 -7.187 -10.4585 -9.433001 -12.7252 -13.4762 -13.7733 -19.1278 -14.0935 -17.0267 -15.2315 -14.5641 -8.7225 -11.7736 -6.4925 -13.6299 -12.5948 -15.9655 -11.1322 
-3.188 -4.0005 -3.16 -2.7835 -1.8085 -3.759 -1.7565 -3.188 -4.928 0 -4.1395 0 -3.9355 0 -3.9535 0 -3.9515 -1.756 -2.8965 -2.915 0 
-4.969501 -5.2365 -6.563 -4.329 -4.9675 -4.5295 -5.13 -8.106001 -4.928 -4.1395 -4.1395 -3.9355 -3.9355 -3.9535 -3.9535 -3.9515 -5.1495 -3.751 -4.989 -2.915 
-5.246 -7.857 -8.449 -7.8765 -5.0585 -7.619 -10.9446 -8.106001 -7.742001 -4.1395 -7.311501 -3.9355 -8.693001 -3.9535 -7.168 -5.1495 -6.9015 -5.513 -4.989 
-7.861501 -9.7495 -12.2699 -8.557 -8.264 -14.1928 -10.9446 -11.6636 -7.742001 -7.311501 -7.311501 -8.693001 -8.693001 -7.168 -8.188001 -6.9015 -8.236 -5.513 
-9.751501 -13.7486 -12.9504 -11.9483 -15.2708 -14.1928 -14.5022 -11.6636 -11.7498 -7.311501 -12.842 -8.693001 -12.0977 -8.188001 -8.951501 -8.236 -8.236 
-3.188 -4.0005 -3.16 -3.757 -3.759 -1.7565 -3.602 0 -4.8125 0 -3.127 0 -3.9515 0 -1.756 -2.8965 -3.9535 0 
-4.969501 -5.2365 -7.8315 -8.809 -4.5295 -5.373 -3.602 -4.8125 -4.8125 -3.127 -3.127 -3.9515 -3.9515 -1.756 -3.751 -5.5345 -3.9535 
-5.246 -9.1355 -13.1679 -9.31 -6.669 -5.373 -7.5935 -4.8125 -8.266001 -3.127 -7.7255 -3.9515 -5.1495 -3.751 -6.164001 -5.5345 
-9.138 -14.8167 -13.6689 -11.5889 -6.669 -9.5755 -7.5935 -8.266001 -8.266001 -7.7255 -7.7255 -5.1495 -6.9015 -6.164001 -6.164001 
-14.8188 -15.3177 -15.9478 -11.5889 -9.778501 -9.5755 -12.1538 -8.266001 -10.586 -7.7255 -8.6085 -6.9015 -9.114 -6.164001 
-3.188 -4.0005 -3.16 0 -3.013 0 -2.186 -4.091 -2.3345 -3.602 0 -8.27 0 -3.9535 0 -3.9515 -1.756 -2.8965 -3.127 -2.9705 -2.186 -4.4475 -3.188 -4.0005 0 
-4.969501 -5.2365 -3.16 -3.013 -3.013 -2.186 -4.969501 -5.012 -6.776501 -3.602 -6.703 -6.703 -3.9535 -3.9535 -3.9515 -5.1495 -3.751 -5.508 -5.7935 -3.89 -5.259501 -8.7405 -4.969501 -4.0005 
-5.246 -5.2365 -5.2755 -3.013 -7.0585 -4.969501 -5.797 -9.018001 -6.776501 -9.1555 -6.703 -12.3752 -3.9535 -7.168 -5.1495 -6.9015 -6.226501 -7.8175 -6.429 -6.941 -11.4005 -9.901001 -4.969501 
-5.246 -6.884501 -5.2755 -7.0585 -10.1765 -5.797 -10.2485 -9.018001 -13.353 -9.1555 -12.3752 -12.3752 -7.168 -8.188001 -6.9015 -8.686501 -8.173 -8.894501 -9.132501 -13.1762 -12.561 -9.901001 
-6.889 -6.884501 -8.428 -10.1765 -10.458 -10.2485 -10.2485 -15.8099 -13.353 -15.0699 -12.3752 -15.8749 -8.188001 -8.951501 -8.686501 -11.065 -9.3795 -11.8704 -16.0121 -14.3367 -12.561 
