-4.759 
n/a 
n/a 
n/a 
n/a 
-4.759 
n/a 
n/a 
n/a 
n/a 
-4.759 
n/a 
n/a 
n/a 
n/a 
-4.759 
n/a 
n/a 
n/a 
n/a 
-1.4985 -6.9 -2.186 -3.2955 -1.7695 -4.3135 -3.4985 -3.074 0 
-8.085501 -8.706 -4.348001 -3.9425 -6.612 -7.6815 -6.9775 -3.074 
-9.183001 -10.9648 -4.837 -9.5525 -9.986501 -11.6845 -6.9775 
-11.4682 -11.4538 -10.968 -12.9294 -14.0933 -11.6845 
-11.9572 -17.5848 -14.3449 -17.0362 -14.0933 
-3.0415 0 -2.4265 -2.186 -3.699 -2.3335 -1.4985 -3.5025 -2.186 -3.77 -1.7695 -3.447 -1.756 -4.174 -4.221 -3.958 -2.0935 -1.4985 -5.043 -5.1195 -3.074 0 
-3.0415 -2.4265 -3.292 -4.636 -5.2645 -3.3515 -4.16 -5.481 -5.0015 -4.2755 -4.507 -5.0245 -5.474 -7.649 -5.936 -4.843 -2.9725 -6.558001 -6.6075 -8.563001 -3.074 
-4.551 -3.292 -4.8835 -5.5645 -6.005 -6.303 -5.628 -8.329 -5.284 -6.566 -5.993001 -9.01 -8.885 -9.525001 -6.899 -6.0495 -6.9665 -7.071 -10.025 -8.563001 
-5.318 -4.8835 -5.5695 -6.2515 -9.238 -6.8585 -8.394501 -9.196 -7.5605 -7.401 -9.585501 -12.5438 -10.5225 -10.255 -8.446 -9.4055 -7.205501 -10.459 -10.025 
-6.5815 -5.5695 -6.2535 -9.427501 -10.4685 -10.292 -9.384001 -10.2005 -8.158 -10.467 -13.5897 -14.1813 -11.1387 -11.802 -10.6875 -9.8055 -10.7771 -10.459 
-1.7695 -3.6845 -4.221 -4.053 -3.458 -4.3585 -1.756 -3.769 0 -1.4985 -3.16 -3.2645 -2.489 -4.4825 
-4.2695 -7.166 -5.264 -7.6655 -7.883501 -5.9235 -4.496 -3.769 -1.4985 -4.0625 -7.304501 -3.7195 -5.8675 
-7.539001 -8.740001 -8.9405 -8.5155 -8.2615 -8.4775 -4.496 -5.411 -4.0625 -7.5725 -7.6255 -6.9875 
-9.024501 -13.4853 -10.123 -9.532001 -11.9859 -8.4775 -6.083 -8.542001 -7.5725 -7.8415 -9.1315 
-13.9718 -14.6678 -12.2917 -14.0854 -11.9859 -10.0475 -9.145 -12.531 -7.8415 -9.631001 
-2.3615 -3.319 -3.189 -4.7195 -3.1385 -1.756 -3.486 -4.221 -3.699 -8.712501 -1.7695 -3.5185 -3.432 -2.5685 -1.7695 -3.946 -6.993001 -3.383 -4.3035 0 
-4.9575 -7.236501 -9.799 -8.0635 -4.6325 -6.2845 -8.012 -8.971001 -13.7549 -11.0145 -4.134 -7.768001 -5.8015 -5.236 -4.9815 -11.9424 -11.3256 -7.153 -4.3035 
-7.959001 -14.7071 -13.2028 -10.5135 -8.983001 -11.1041 -12.8416 -19.2053 -16.0569 -13.379 -8.626 -10.6381 -9.75 -8.8975 -13.6977 -16.275 -15.0956 -7.153 
-17.5904 -18.1109 -15.6528 -14.864 -14.0548 -15.9337 -23.0759 -21.5073 -18.4214 -17.871 -11.8771 -14.5866 -13.6771 -17.9265 -18.0303 -20.045 -15.0956 
-20.9942 -20.5609 -20.0033 -19.9358 -18.8844 -26.168 -25.3779 -23.8718 -22.9134 -21.1221 -15.8256 -18.5137 -22.7061 -22.2591 -21.8003 -20.045 
