-4.759 
n/a 
n/a 
n/a 
n/a 
-4.759 
n/a 
n/a 
n/a 
n/a 
-4.759 
n/a 
n/a 
n/a 
n/a 
-4.759 
n/a 
n/a 
n/a 
n/a 
0 -1.934 -4.2115 -6.456501 -4.834 0 -7.3865 0 -10.178 -3.7075 0 -3.2955 0 -3.5965 -4.2115 -2.674 -3.135 -1.7565 0 -4.161 -10.165 0 -9.426001 0 0 -12.16972 -1.756 -12.16972 0 -1.756 0 -5.1625 -12.16972 0 0 -8.0105 0 -2.3615 -12.16972 0 
-1.934 -6.932 -11.73 -12.6103 -4.834 -7.3865 -7.3865 -10.178 -13.9963 -3.7075 -3.2955 -3.2955 -3.5965 -8.392 -6.613 -4.7595 -3.9195 -1.7565 -4.161 -15.5836 -10.165 -9.426001 -9.426001 0 -12.16972 -13.92572 -14.93432 -12.16972 -1.756 -1.756 -5.1625 -18.44762 -12.16972 0 -8.0105 -8.0105 -2.3615 -15.81942 -12.16972 
-6.932 -15.1989 -17.8838 -12.6103 -13.1785 -7.3865 -18.1855 -13.9963 -13.9963 -5.99 -3.2955 -6.7905 -8.392 -11.1555 -8.993 -6.198 -3.9195 -5.6765 -15.5836 -15.5836 -19.591 -9.426001 -9.426001 -12.16972 -13.92572 -27.10404 -14.93432 -13.92572 -1.756 -6.4 -18.44762 -18.44762 -12.16972 -8.0105 -8.0105 -11.2568 -15.81942 -15.81942 
-15.1989 -21.3527 -17.8838 -20.9548 -13.1785 -18.1855 -22.0038 -13.9963 -16.2788 -5.99 -6.7905 -12.2572 -11.1555 -13.5355 -10.5045 -6.198 -10.0285 -17.7639 -15.5836 -25.0096 -19.591 -9.426001 -21.78532 -13.92572 -27.10404 -27.10404 -16.69032 -13.92572 -6.4 -20.12972 -18.44762 -18.44762 -20.18022 -8.0105 -11.2568 -24.71472 -15.81942 
-21.3527 -21.3527 -26.2283 -20.9548 -23.9775 -22.0038 -22.0038 -16.2788 -16.2788 -10.4675 -12.2572 -15.0207 -13.5355 -15.047 -10.5045 -12.8624 -22.2143 -17.7639 -25.0096 -25.0096 -19.591 -21.78532 -23.54132 -27.10404 -27.10404 -28.86004 -16.69032 -18.56972 -20.12972 -20.12972 -18.44762 -26.45812 -20.18022 -11.2568 -24.71472 -24.71472 
-2.7295 -2.7765 -3.197 -2.3335 -3.127 -2.5045 -3.44 -3.64 -3.3255 -3.948 -2.911 -4.5745 -3.3425 -2.911 -3.991 -1.934 -4.4475 -4.161 -2.9705 -3.4095 -3.5025 0 -6.456501 -4.834 0 
-4.065 -4.745501 -4.932 -5.635 -5.7245 -7.4285 -6.2755 -7.2985 -6.047501 -7.069 -4.953 -7.2435 -6.585501 -6.677501 -5.3885 -7.2905 -8.38 -6.8735 -6.577001 -6.8865 -3.5025 -6.456501 -12.6103 -4.834 
-6.017 -6.817 -8.506001 -8.183001 -10.3965 -10.0345 -9.295 -10.195 -8.944 -7.47 -7.541 -7.9735 -9.7995 -8.088501 -10.3545 -11.507 -10.025 -11.0008 -10.322 -6.8865 -9.685 -12.6103 -12.6103 
-7.719 -9.863001 -10.76 -13.258 -13.2721 -13.054 -12.3545 -13.0915 -9.2285 -9.736 -7.975501 -13.2085 -11.3689 -13.5655 -15.5572 -13.152 -14.5579 -14.7458 -10.322 -13.9598 -16.329 -12.6103 
-10.9342 -12.1516 -15.835 -16.1336 -16.2916 -16.1135 -15.251 -13.376 -11.5967 -10.6875 -13.2301 -14.7779 -16.8459 -18.7682 -17.2022 -17.6849 -18.3029 -14.7458 -17.6319 -20.6038 -16.329 
-6.456501 -4.703 -4.5685 -4.273 -10.827 -1.7695 -3.5965 -1.756 -2.7295 -3.197 -2.4265 -3.3715 -4.2115 
-12.4793 -9.83 -7.9235 -15.9706 -12.5965 -5.6105 -5.0925 -4.083 -5.164001 -4.6855 -6.175 -6.3905 
-17.6063 -13.491 -20.0865 -17.7401 -16.4375 -7.3195 -7.882501 -6.8075 -6.5365 -8.575001 -9.4075 
-21.2673 -25.654 -21.856 -21.5811 -18.1465 -10.7175 -10.674 -7.9335 -10.434 -11.9095 
-33.4303 -27.4235 -25.697 -23.2901 -21.5445 -13.509 -11.8 -11.9266 -13.7685 
-3.5025 -6.456501 -2.9645 -1.7695 -3.188 -2.229 -4.267 
-9.685 -9.481001 -4.905 -5.663 -4.279 -6.412 
-13.1997 -11.8073 -9.9835 -6.9965 -9.727501 
-15.526 -16.8858 -11.317 -12.9662 
-20.6045 -18.2193 -17.2867 
