-4.759 
n/a 
n/a 
n/a 
n/a 
-4.759 
n/a 
n/a 
n/a 
n/a 
-4.759 
n/a 
n/a 
n/a 
n/a 
-4.759 
n/a 
n/a 
n/a 
n/a 
-4.5325 -2.186 -3.818 -4.3185 -4.5735 -5.181 -3.098 -2.871 -6.939 -4.5325 -3.688 -4.005 -4.1985 -3.734 -3.264 -3.734 -7.0925 -8.413501 -2.186 -4.6345 -3.8775 -3.091 -3.766 -4.037 -1.7565 -3.135 -3.1385 
-6.761001 -4.969501 -8.605 -8.491 -7.738501 -8.854 -4.554 -10.5135 -12.0191 -8.152 -7.255 -8.5015 -8.129001 -7.415 -6.865 -8.289001 -17.8044 -12.384 -6.058001 -10.443 -7.7805 -6.377 -8.8015 -5.5935 -4.6765 -4.8745 
-10.4945 -9.871501 -12.9413 -11.9684 -10.6735 -10.1995 -12.4363 -15.5936 -15.6386 -12.7226 -12.3411 -13.0868 -12.449 -9.5485 -11.927 -19.2495 -20.0329 -16.257 -12.6191 -14.346 -11.4271 -12.2609 -10.6422 -9.0745 -6.906 
-15.3965 -14.2078 -16.4187 -14.9034 -12.019 -18.1994 -17.5164 -19.2131 -20.2092 -17.8087 -16.9264 -17.4068 -14.5825 -14.8947 -22.8875 -21.478 -23.9059 -22.8181 -16.5221 -17.9926 -17.311 -14.1016 -14.1232 -11.3702 
-19.7328 -17.6852 -19.3537 -16.2489 -20.0189 -23.2795 -21.1359 -23.7837 -25.2953 -22.394 -21.2464 -19.5403 -19.9287 -25.8552 -25.116 -25.351 -30.467 -26.7211 -20.1687 -23.8765 -19.1517 -17.5826 -16.4189 
-12.16972 
n/a 
n/a 
n/a 
n/a 
-5.1125 -5.6745 -3.429 -2.3615 -2.5045 -1.8085 -5.239 -2.356 -1.4985 -3.098 -2.871 -3.818 -6.4185 -6.602 -4.5735 -4.5215 -6.939 -2.229 -4.6645 -5.253 -4.0885 -2.9195 -3.925 -3.734 -6.1725 -13.4065 -4.0385 -2.3335 -2.3615 -2.186 -1.8085 -5.1115 -3.7015 -1.4985 -5.59 -5.1125 -4.4925 -4.4525 -5.1125 -4.2465 -4.328 -6.597 -6.8145 -4.1585 -2.3615 -3.6205 -2.186 -5.555 -1.756 -3.4905 -1.4985 -4.6495 -5.1005 -3.2955 -2.3615 -2.0935 -3.091 -3.5205 -4.151 -3.098 -3.188 -4.441 -3.4605 -2.229 -5.1125 -4.185 -8.505501 -5.8855 -4.8725 -2.3335 0 -4.1485 -3.891 0 -3.0365 -2.186 -2.847 -4.2665 -3.918 -1.934 -2.3615 -4.463 0 0 
-9.7815 -8.6175 -5.2645 -5.006 -3.3625 -6.014501 -7.3085 -3.1615 -4.123 -4.554 -6.278 -10.862 -13.8971 -12.5687 -8.4545 -12.6981 -8.9525 -6.5575 -8.457001 -9.6675 -6.889 -6.0985 -8.115 -8.068001 -17.4018 -18.051 -5.771501 -4.2805 -3.5005 -3.164 -6.125501 -7.014501 -4.3435 -7.147 -11.0145 -10.038 -9.5835 -9.8465 -8.4735 -8.3345 -8.442 -14.2201 -9.729501 -6.499001 -5.509501 -5.2355 -6.875 -6.796 -5.521 -5.2835 -5.6025 -9.1085 -9.04 -5.544 -5.0985 -4.5345 -4.613 -7.074 -7.617 -7.041 -5.6375 -7.7695 -5.7745 -7.362 -7.926001 -13.8943 -14.751 -10.688 -7.509501 -2.3335 -4.1485 -8.285 -3.891 -3.0365 -3.66 -4.1045 -6.628 -7.648 -5.666 -3.539 -6.1655 -4.463 0 
-12.7245 -9.543501 -6.8795 -5.589 -7.151501 -7.933001 -7.908501 -6.465 -5.255 -7.54 -14.1094 -18.3406 -19.8638 -16.4497 -17.0347 -14.7116 -13.3996 -10.8634 -13.3005 -12.815 -11.4192 -9.659 -12.7634 -21.3977 -22.6349 -19.784 -7.818001 -5.0055 -4.179 -7.2455 -7.491001 -7.5635 -10.1765 -12.6799 -15.94 -15.2666 -15.0987 -13.3431 -10.6345 -12.6993 -17.5085 -17.1351 -12.412 -10.0475 -6.5235 -9.697001 -7.8435 -11.2814 -6.751 -10.013 -11.1557 -13.1656 -10.3755 -7.5205 -7.732 -6.0845 -9.317 -11.8526 -12.3976 -8.888 -9.0585 -10.4309 -12.0435 -10.7263 -19.1045 -20.1398 -19.5535 -13.325 -7.509501 -6.413 -8.285 -8.285 -7.877501 -3.66 -4.256001 -7.1055 -9.4285 -9.070001 -7.252501 -7.0935 -6.1655 -4.463 
-13.6505 -10.0055 -7.244 -9.885 -8.936501 -8.708501 -11.6208 -8.479 -8.804501 -15.5236 -21.588 -24.3073 -23.7448 -25.0299 -19.0482 -19.1587 -17.7055 -15.7069 -16.448 -17.3452 -14.9797 -14.7056 -26.0931 -25.5904 -24.3679 -21.8305 -8.6695 -5.640501 -8.265 -8.457001 -8.013 -13.9273 -15.7094 -17.6054 -21.1686 -20.7818 -18.5953 -15.5041 -14.9993 -21.7658 -20.4235 -19.8176 -15.9605 -10.679 -11.299 -10.324 -12.6017 -12.5114 -11.6989 -15.5558 -15.2128 -14.5011 -12.352 -9.800501 -8.671 -11.2193 -14.2426 -16.6332 -14.2446 -13.045 -11.8921 -16.6999 -15.4078 -21.9048 -25.35 -24.9423 -22.1905 -13.325 -11.801 -11.3839 -8.285 -12.5205 -8.4875 -4.256001 -7.118501 -10.3165 -11.0401 -10.674 -11.4332 -7.0935 -6.1655 
-14.1125 -10.483 -12.1066 -11.931 -9.569 -12.5428 -13.6348 -11.9749 -17.0079 -23.0022 -27.5547 -28.1883 -32.325 -27.0434 -23.4953 -23.4646 -22.549 -18.8544 -20.9782 -20.9057 -20.0263 -28.0353 -30.2858 -27.3234 -26.4144 -22.682 -9.3 -9.200001 -9.467 -8.948 -14.573 -19.4602 -20.6349 -22.834 -26.6838 -24.2784 -20.7563 -19.8689 -24.0658 -24.6808 -23.106 -23.3661 -16.592 -15.4545 -11.926 -15.0822 -13.8317 -17.4593 -17.2417 -19.6129 -16.5483 -16.4776 -14.632 -10.7355 -14.0892 -16.1449 -19.0232 -18.4802 -18.4016 -15.8786 -18.1611 -20.0642 -26.5863 -28.1503 -30.1525 -27.5793 -22.1905 -17.6165 -16.7719 -11.3839 -12.5205 -13.1305 -9.17 -7.118501 -10.3215 -12.0083 -12.6441 -14.8547 -11.4332 -7.0935 
-7.6625 -8.0705 -3.1495 -3.818 -1.756 -3.6785 -4.5735 -4.5215 -4.712 -3.098 -2.674 -1.7695 -3.4155 -4.5735 -2.0935 -3.188 -4.441 -2.9825 0 
-16.2354 -9.6975 -7.512 -5.4255 -5.2305 -8.737 -8.4545 -10.884 -8.762501 -5.2915 -3.787 -5.648 -8.6705 -6.3135 -5.7145 -5.6375 -6.23 -2.9825 
-17.8624 -14.8568 -9.217 -9.3175 -10.223 -12.7834 -15.2206 -14.9345 -11.1364 -6.0455 -8.790501 -11.4142 -10.8099 -10.543 -7.711 -6.318501 -6.23 
-23.0217 -16.5618 -13.2682 -14.5086 -14.4354 -19.5495 -19.2711 -17.3084 -11.8904 -11.4274 -14.7495 -13.5536 -15.0394 -12.5395 -8.603001 -6.318501 
-24.7267 -20.613 -18.4593 -18.721 -21.2015 -23.6 -21.645 -18.0624 -17.2723 -17.3864 -16.8889 -17.7831 -17.0359 -13.4315 -8.603001 
