-4.759 
n/a 
n/a 
n/a 
n/a 
-4.759 
n/a 
n/a 
n/a 
n/a 
-4.759 
n/a 
n/a 
n/a 
n/a 
-4.759 
n/a 
n/a 
n/a 
n/a 
-4.122 0 -3.2615 -1.4985 -4.7145 -1.7565 -3.5035 -4.7925 0 -1.8085 -4.1395 -4.222 -3.8675 0 -1.7695 -3.8095 -1.8085 -3.452 -2.264 -3.4975 -3.288 -4.177 0 
-4.122 -3.2615 -4.032 -5.647 -5.026 -4.6725 -8.370001 -4.7925 -1.8085 -5.673 -9.056 -6.6295 -3.8675 -1.7695 -4.549 -4.3075 -4.787 -5.2915 -5.6315 -5.946 -7.716 -4.177 
-7.218 -4.032 -6.955 -5.8615 -10.085 -8.7355 -8.370001 -7.2 -5.673 -10.76 -11.6517 -6.6295 -5.071 -4.549 -5.026 -6.3085 -6.1175 -8.1695 -9.271501 -11.1822 -7.716 
-7.915 -6.955 -7.0255 -11.4391 -14.3036 -8.7355 -11.2579 -11.5503 -10.76 -13.3557 -11.6517 -7.104 -9.1035 -5.026 -6.583001 -7.303501 -8.871 -11.9577 -14.9851 -11.1822 
-10.9458 -7.0255 -13.3531 -15.6577 -14.3036 -12.0148 -15.6082 -16.6373 -13.3557 -13.3557 -12.1262 -12.0475 -9.752501 -6.583001 -7.612501 -10.3885 -12.6876 -17.6713 -14.9851 
-3.2615 -2.9805 -4.938 -3.091 -3.5035 -4.082 -1.934 -4.239 0 -1.8085 -4.2185 -3.3035 -4.222 -2.664 -3.8675 -2.356 -3.595 -1.7695 -3.8095 -1.8085 -3.452 -2.264 -5.0435 -1.934 -3.676 0 
-5.2875 -6.533501 -7.073 -6.4465 -6.236 -5.011 -5.464 -4.239 -1.8085 -6.3505 -5.5645 -7.2395 -6.0875 -5.2005 -5.006 -4.882 -4.634 -4.549 -4.3075 -4.787 -5.2915 -6.856 -6.3655 -4.7985 -3.676 
-8.714001 -7.650001 -9.932501 -6.968 -7.499001 -8.3975 -5.464 -6.333 -6.3505 -7.0705 -10.123 -8.017 -6.3575 -5.8335 -7.8015 -6.342 -6.959001 -5.026 -6.3085 -6.1175 -9.239 -7.843 -7.502 -4.7985 
-9.727 -10.354 -9.9545 -8.017 -9.464001 -8.3975 -7.295001 -11.1706 -7.0705 -12.4544 -10.9005 -8.186501 -6.7285 -8.451 -9.174 -9.196501 -7.685 -6.583001 -7.303501 -9.8665 -9.7655 -9.127 -7.502 
-12.528 -10.3855 -10.551 -9.746 -9.464001 -10.6313 -12.3658 -11.8906 -12.4544 -13.2319 -11.07 -8.447001 -10.0745 -9.387 -12.0325 -9.8745 -8.5935 -7.612501 -11.3783 -10.663 -11.4151 -9.127 
-3.321 -2.9805 -3.7555 -1.4985 -3.5035 -4.082 -4.2275 -1.934 -4.239 0 
-5.175 -5.3095 -4.843 -4.4895 -6.236 -6.5915 -5.521 -5.464 -4.239 
-7.106 -6.3935 -8.4685 -8.2685 -10.419 -8.269501 -9.660501 -5.464 
-8.413 -9.894001 -10.5635 -12.4941 -12.097 -12.8022 -9.660501 
-11.9919 -12.1238 -14.7891 -14.1721 -16.6297 -12.8022 
-3.433 -1.7565 -2.3615 0 -1.934 -4.239 -1.8085 -4.2185 -3.3035 -3.43 -2.664 -3.8675 -2.356 -3.595 -2.0935 -3.951 -1.8085 -3.452 -2.7455 -1.4985 -4.53 -3.458 -3.4975 -3.1385 -3.2615 -3.8255 -1.8085 -4.082 -1.934 -3.5035 
-4.1845 -3.523 -2.3615 -1.934 -5.464 -6.333 -6.3505 -5.5645 -6.6005 -5.286 -5.2005 -5.006 -4.882 -5.2035 -5.549 -5.305 -4.787 -5.6515 -3.637 -5.6575 -5.73 -6.962501 -5.4655 -6.552 -5.910501 -4.9995 -5.2615 -5.011 -5.1175 
-5.5485 -3.523 -4.886 -5.464 -7.295001 -11.1706 -7.0705 -9.595 -7.9995 -7.381 -5.8335 -7.8015 -6.4875 -8.4245 -6.7175 -6.427001 -6.0365 -6.3325 -7.3875 -6.0115 -9.6485 -9.517 -8.3255 -9.057 -6.922501 -7.5035 -5.7705 -7.2085 
-5.5485 -6.254001 -8.841001 -7.295001 -12.3658 -11.8906 -11.9264 -11.133 -9.641001 -7.632 -8.451 -9.4325 -10.1385 -9.465501 -8.014501 -7.171 -6.762 -10.3885 -7.6105 -9.821501 -12.1236 -13.2768 -11.1871 -10.1725 -8.8555 -8.001 -7.7575 
-7.9635 -10.009 -10.598 -12.3658 -13.0858 -16.7465 -13.4644 -12.7745 -9.846001 -9.309 -10.0435 -13.1837 -11.4471 -10.1825 -9.163 -7.8415 -10.542 -10.565 -10.586 -12.3248 -15.8834 -16.1384 -12.3026 -12.1055 -9.007001 -10.0345 
