-4.759 
n/a 
n/a 
n/a 
n/a 
-4.759 
n/a 
n/a 
n/a 
n/a 
-4.759 
n/a 
n/a 
n/a 
n/a 
-4.759 
n/a 
n/a 
n/a 
n/a 
-2.4265 -2.186 -2.855 0 -3.4465 -1.7565 -3.188 -2.229 -4.02 
-3.292 -5.8265 -2.855 -3.4465 -4.919 -5.13 -4.279 -5.6085 
-7.339001 -5.8265 -7.0625 -4.919 -7.252 -6.5315 -6.314 
-7.339001 -10.5975 -8.295 -7.252 -9.163501 -8.2665 
-12.1562 -11.83 -10.5325 -9.163501 -10.3355 
-2.3615 -2.186 -2.855 0 -1.7565 -1.4985 -4.834 -3.5085 -4.02 
-3.5005 -5.8265 -2.855 -1.7565 -2.4195 -5.5435 -8.829 -5.651 
-8.1025 -5.8265 -5.367 -2.4195 -5.9845 -8.9935 -9.9835 
-8.1025 -8.462501 -6.0305 -5.9845 -9.0815 -9.992001 
-9.838 -8.990001 -9.858 -9.0815 -10.051 
-2.3615 -2.186 -2.855 0 -1.7565 -1.4985 -3.5085 -4.02 -1.934 -1.4985 -3.188 
-3.5005 -5.8265 -2.855 -1.7565 -2.4195 -4.4755 -5.651 -5.502 -2.6125 -3.619 
-8.1025 -5.8265 -5.367 -2.4195 -5.126 -6.240001 -7.0255 -6.099 -4.377 
-8.1025 -8.462501 -6.0305 -5.126 -6.5205 -7.304 -7.6885 -7.537 
-9.838 -8.990001 -7.8125 -6.5205 -7.487 -7.880001 -9.740001 
-2.3615 -2.186 -4.521 -1.7695 -2.855 0 -1.7565 -3.188 -4.02 0 
-3.5005 -5.5885 -5.107 -5.3235 -2.855 -1.7565 -5.13 -5.6805 -4.02 
-6.4855 -5.6205 -8.078501 -5.3235 -5.367 -5.13 -7.305501 -5.6805 
-6.502 -8.7635 -8.078501 -6.893001 -9.0745 -7.305501 -7.305501 
-9.6505 -8.7635 -9.210001 -10.6465 -10.248 -7.305501 
