-4.759 
n/a 
n/a 
n/a 
n/a 
-4.759 
n/a 
n/a 
n/a 
n/a 
-4.759 
n/a 
n/a 
n/a 
n/a 
-4.759 
n/a 
n/a 
n/a 
n/a 
-3.5125 -4.6525 -2.3335 0 -2.5045 -2.3335 -2.95 0 -2.9805 -5.914001 -4.24 -3.135 -4.141 -1.756 -3.998 -2.5045 -4.926 0 -7.778 0 -1.756 -3.849 -2.3615 -2.5045 -9.387 0 
-7.138 -7.0255 -2.3335 -2.5045 -4.744 -4.8245 -2.95 -2.9805 -7.705 -9.398001 -6.2395 -7.138 -5.81 -5.3905 -6.3415 -7.915501 -4.926 -7.778 -7.778 -1.756 -5.761 -6.3035 -5.006 -12.8089 -9.387 
-8.915 -7.0255 -5.0905 -4.744 -5.158 -4.8245 -5.2005 -7.705 -10.621 -11.5729 -9.972501 -8.661501 -9.861 -8.05 -12.2913 -7.915501 -10.8215 -7.778 -9.703501 -5.761 -8.275001 -9.118501 -16.0772 -12.8089 
-8.915 -9.381001 -6.890501 -5.158 -5.158 -6.404 -10.2755 -10.621 -12.7959 -15.3059 -11.496 -12.8743 -12.6583 -14.006 -12.2913 -14.0966 -10.8215 -9.703501 -13.8335 -8.275001 -11.1818 -20.2305 -16.0772 
-11.3127 -10.7605 -7.189001 -5.158 -6.8525 -11.9348 -13.1915 -12.7959 -16.5289 -16.8294 -15.7088 -15.6716 -18.6143 -14.006 -18.4724 -14.0966 -12.747 -13.8335 -16.3475 -11.1818 -22.2938 -20.2305 
-3.0365 -2.186 -3.074 -1.8085 -10.187 -3.718 -2.3335 -2.264 -4.4525 -2.664 -4.141 -3.7345 -3.115 -4.926 -1.756 -5.914001 -4.2425 -2.3335 -2.4265 -2.7415 -1.8085 -4.926 0 -2.9805 -3.849 -2.3615 -3.5015 -7.005 0 
-3.66 -4.156 -4.639 -12.4939 -14.0884 -5.65 -5.2485 -6.533501 -6.457001 -5.529 -8.591001 -5.8795 -8.134501 -6.396 -7.548 -8.218 -5.5255 -3.913 -3.681 -3.891 -6.1125 -4.926 -2.9805 -5.641 -6.3035 -5.2225 -11.5015 -7.005 
-5.212501 -4.962 -15.9834 -16.3953 -16.0204 -8.9825 -8.8625 -8.6505 -8.869501 -9.204 -10.0515 -11.4536 -9.5415 -13.0154 -9.7845 -8.616501 -6.688001 -4.9035 -4.626 -8.1245 -6.1125 -7.712 -5.641 -7.690001 -8.338 -13.7363 -11.5015 
-5.522501 -16.4746 -19.8848 -18.3273 -19.3529 -12.8405 -10.7495 -10.609 -12.6951 -10.5645 -15.8306 -12.8606 -16.2613 -15.2519 -10.162 -9.600501 -7.427501 -5.884501 -8.973001 -8.1245 -8.217001 -10.389 -7.690001 -9.8415 -17.0226 -13.7363 
-17.3177 -20.376 -21.8168 -21.6598 -23.2109 -14.7275 -12.708 -14.4346 -14.0556 -16.3832 -17.2376 -19.5804 -18.4978 -15.6294 -11.146 -10.1655 -8.182 -10.001 -8.973001 -9.844 -10.9936 -12.438 -9.8415 -18.5759 -17.0226 
-3.0365 -2.9805 -4.24 -1.8085 -4.926 -3.115 -4.141 0 -2.9805 -5.7705 -2.3335 -2.4265 -2.7415 -3.8235 -4.926 0 -2.5195 -2.3335 -2.4265 -2.7415 -3.849 -2.5045 -12.16972 -2.3335 -2.7415 -1.934 -3.5125 -4.894 0 
-5.6105 -5.486 -5.3065 -6.1125 -7.9165 -7.213 -4.141 -2.9805 -7.9445 -7.817 -3.913 -3.681 -7.2935 -8.804001 -4.926 -2.5195 -4.9535 -3.913 -3.681 -5.431 -6.305 -15.59162 -14.50322 -4.2725 -4.5155 -5.129 -8.745 -4.894 
-7.6905 -6.503 -8.790501 -8.503 -10.1035 -7.213 -7.252501 -7.9445 -9.6975 -9.0745 -4.9035 -7.959001 -12.8016 -8.804001 -7.676001 -4.9535 -7.0325 -4.9035 -6.2635 -7.509501 -19.49572 -17.92512 -16.44222 -6.0175 -8.723001 -10.3035 -8.745 
-8.290501 -9.647501 -11.2878 -10.674 -10.1035 -10.134 -12.4671 -9.6975 -11.0564 -9.754001 -8.85 -13.6439 -12.8016 -11.7996 -10.1765 -7.0325 -7.9875 -7.904 -8.654 -21.18802 -21.82922 -19.86412 -18.18722 -10.494 -14.1689 -10.3035 
-11.6606 -12.2178 -13.4588 -10.674 -13.1383 -15.3486 -14.2201 -11.0564 -11.7359 -13.9279 -14.9977 -13.6439 -15.7972 -14.3001 -12.2555 -7.9875 -11.3582 -10.553 -22.30252 -23.52152 -23.76822 -21.60912 -22.66372 -15.9399 -14.1689 
-3.5125 -3.644 -2.9805 -4.811 -1.8085 -4.141 -3.115 -4.926 -1.756 -5.914001 -3.849 -2.4265 -2.5045 -4.926 0 
-7.1905 -5.161 -5.785 -5.963 -7.059 -7.25 -8.134501 -6.396 -7.548 -7.826501 -5.7185 -4.6185 -7.915501 -4.926 
-8.8255 -7.677001 -6.918 -11.8289 -9.441 -12.5109 -9.5415 -13.0154 -9.386001 -9.259501 -8.099 -10.2805 -7.915501 
-11.5051 -8.623501 -13.0811 -14.2109 -15.0193 -13.9179 -16.2613 -14.8534 -10.4685 -11.7814 -13.7964 -10.2805 
-12.4516 -14.971 -15.4631 -19.7892 -16.4263 -20.6377 -18.0993 -15.9359 -13.2916 -17.4788 -13.7964 
