-4.759 
n/a 
n/a 
n/a 
n/a 
-4.759 
n/a 
n/a 
n/a 
n/a 
-4.759 
n/a 
n/a 
n/a 
n/a 
-4.759 
n/a 
n/a 
n/a 
n/a 
-12.16972 -6.112 -3.3235 0 -2.9805 -3.264 0 -12.16972 0 -27.38572 0 -12.16972 0 -2.3335 -4.064 -1.7565 0 -12.16972 0 -29.12322 0 -12.16972 0 
-18.28172 -9.995501 -3.3235 -2.9805 -4.3595 -3.264 -12.16972 -12.16972 -28.20732 -28.20732 -12.16972 -12.16972 -2.3335 -6.046 -4.3045 -1.7565 -12.16972 -12.16972 -29.84042 -29.84042 -12.16972 -12.16972 
-22.16522 -9.995501 -5.709001 -4.3595 -4.3595 -16.34752 -12.16972 -40.37704 -28.20732 -40.37704 -12.16972 -14.50322 -6.046 -6.1565 -4.3045 -14.87542 -12.16972 -42.01014 -29.84042 -42.01014 -12.16972 
-22.16522 -12.4606 -6.8175 -4.3595 -18.04422 -16.34752 -40.37704 -40.37704 -40.37704 -40.37704 -14.50322 -18.21572 -6.1565 -6.1565 -17.89542 -14.87542 -42.01014 -42.01014 -42.01014 -42.01014 
-24.63032 -13.5691 -6.8175 -18.04422 -18.04422 -44.55484 -40.37704 -52.54676 -40.37704 -42.71054 -18.21572 -18.32622 -6.1565 -20.18562 -17.89542 -44.71584 -42.01014 -54.17986 -42.01014 
-12.16972 -3.264 -9.547501 -1.7695 -3.325 -3.1385 
-15.43372 -13.7253 -12.0192 -6.147501 -7.0925 
-25.89502 -16.197 -16.3972 -10.5425 
-28.36672 -20.575 -20.7922 
-32.74472 -24.97 
-3.4945 -4.4265 -4.9435 0 -12.16972 0 -4.064 -1.7565 -4.7135 -1.4985 -4.3095 -2.3335 0 -4.081 -2.3335 -5.337 0 -6.723001 -3.277 -2.3335 -4.493 -3.595 -1.756 -4.3155 0 -3.2495 -4.3955 -2.0935 -1.8085 -3.8235 0 
-6.237 -8.9645 -4.9435 -12.16972 -12.16972 -4.064 -4.3045 -6.247001 -5.658 -5.105 -6.343 -2.3335 -4.081 -6.3485 -8.148001 -5.337 -6.723001 -9.811001 -5.2055 -5.995 -6.393 -4.8 -5.709 -4.3155 -3.2495 -8.3135 -6.302 -3.385 -4.9905 -3.8235 
-10.426 -8.9645 -18.21662 -12.16972 -16.23372 -4.3045 -7.256001 -7.047 -10.2645 -7.5205 -6.343 -6.074 -6.3485 -12.6534 -8.148001 -13.0184 -9.811001 -11.8087 -9.443001 -7.6755 -7.4755 -7.6745 -5.709 -7.228001 -8.3135 -10.4265 -7.731501 -6.634 -4.9905 
-10.426 -22.55302 -18.21662 -16.23372 -16.47422 -7.256001 -8.151 -11.8095 -13.288 -7.5205 -11.1297 -8.822001 -12.6534 -12.6534 -16.082 -16.1064 -11.8087 -16.0462 -10.5545 -8.7015 -9.896501 -7.6745 -8.637501 -12.5754 -10.4265 -11.856 -9.071 -6.634 
-24.01452 -22.55302 -22.28062 -16.47422 -19.42572 -8.151 -12.9599 -14.833 -13.288 -12.6754 -13.8777 -15.1571 -12.6534 -20.5874 -19.17 -18.1041 -16.0462 -17.1577 -11.5805 -11.3475 -9.896501 -11.2026 -14.0675 -14.6884 -11.856 -13.1955 -9.071 
-3.9725 -10.638 -4.584 -1.7695 -4.4885 -3.595 -5.822001 0 
-15.5535 -15.3826 -5.5675 -5.032 -6.061 -8.886001 -5.822001 
-20.2981 -16.3661 -8.038 -6.3985 -11.5688 -8.886001 
-21.2816 -18.8366 -9.118 -11.9847 -11.5688 
-23.7521 -19.9166 -15.0366 -11.9847 
