-4.759 
n/a 
n/a 
n/a 
n/a 
-4.759 
n/a 
n/a 
n/a 
n/a 
-4.759 
n/a 
n/a 
n/a 
n/a 
-4.759 
n/a 
n/a 
n/a 
n/a 
-9.102 0 -12.16972 -4.3165 -3.545 
-9.102 -12.16972 -16.48622 -6.965 
-21.54672 -16.48622 -19.13472 
-25.86322 -19.13472 
-28.51172 
-12.16972 -4.3165 -3.5015 0 -9.9875 
-16.48622 -7.233 -3.5015 -9.9875 
-19.40272 -7.233 -14.484 
-19.40272 -19.6087 
-31.77842 
-9.694 0 -12.16972 -3.5765 -3.655 
-9.694 -12.16972 -15.74622 -7.211 
-22.21832 -15.74622 -19.38072 
-25.79482 -19.38072 
-29.42932 
-9.9875 -12.16972 -4.218 -1.756 -4.582 0 
-22.33582 -16.38772 -5.948 -6.4525 -4.582 
-26.55382 -18.11772 -10.396 -6.4525 
-28.28382 -22.56572 -10.396 
-32.73182 -22.56572 
