-4.759 
n/a 
n/a 
n/a 
n/a 
-4.759 
n/a 
n/a 
n/a 
n/a 
-4.759 
n/a 
n/a 
n/a 
n/a 
-4.759 
n/a 
n/a 
n/a 
n/a 
-13.067 -1.7565 -1.8085 -4.263 -4.658 
-11.8535 -3.2595 -5.341001 -7.952 
-12.8485 -6.831501 -8.165001 
-15.157 -8.738001 
-16.2125 
-8.842501 0 -4.2245 -1.7565 -5.4875 -3.6385 -12.16972 
-8.842501 -4.2245 -4.942 -7.8735 -6.7465 -16.69302 
-11.136 -4.942 -11.8806 -9.683001 -20.66982 
-11.8535 -11.8806 -13.6901 -23.98872 
-18.7921 -13.6901 -27.99582 
-11.0905 0 -4.2245 -1.7565 -12.16972 -1.8085 -5.177 -3.6385 
-11.0905 -4.2245 -4.942 -14.87542 -13.97822 -6.2135 -7.1245 
-15.315 -4.942 -18.88252 -16.68392 -18.38322 -7.337501 
-16.0325 -18.88252 -20.69102 -21.08892 -19.50722 
-29.97302 -20.69102 -25.09602 -22.21292 
-8.842501 -4.2245 -1.7565 -1.8085 -5.177 -4.658 -1.934 -8.6335 
-11.136 -4.942 -3.2595 -6.2135 -7.776 -6.8525 -10.7495 
-11.8535 -5.937 -7.0475 -7.955 -9.1005 -16.0478 
-12.8485 -7.8005 -8.569 -9.17 -18.286 
-14.712 -9.026501 -9.753 -18.3645 
