-4.759 
n/a 
n/a 
n/a 
n/a 
-4.759 
n/a 
n/a 
n/a 
n/a 
-4.759 
n/a 
n/a 
n/a 
n/a 
-4.759 
n/a 
n/a 
n/a 
n/a 
-3.5455 -1.756 -3.75 -5.204 -4.164 -1.934 -4.393 -3.034 0 -3.4635 -3.849 -4.778 -1.7565 -4.3905 -4.1635 -2.0935 -1.8085 -6.02 0 -1.4985 -4.79 -4.4485 -1.7695 -1.4985 -4.5965 -4.579 -1.7565 -4.628 -4.743 -4.196 -5.0075 -9.0135 -3.0365 -2.4945 -4.4595 -5.204 0 
-5.364501 -5.571 -8.610001 -9.59 -5.572 -5.6055 -6.945 -3.034 -3.4635 -7.0935 -6.17 -5.586 -5.6825 -6.3 -4.943501 -3.385 -7.986 -6.02 -1.4985 -5.6215 -7.399501 -5.4235 -2.7955 -6.605 -8.328001 -5.638 -6.107501 -4.7515 -9.082001 -8.732 -10.907 -10.522 -3.688 -6.6855 -7.515 -5.204 
-6.547501 -8.981501 -13.145 -11.1768 -8.93 -7.302001 -6.945 -6.917 -7.0935 -9.192501 -7.317 -8.8695 -7.8635 -6.487 -6.505001 -9.529501 -7.986 -7.700001 -5.6215 -7.5425 -8.201501 -5.788 -7.895 -8.505 -9.207001 -8.7575 -6.281001 -9.088501 -10.3225 -13.831 -12.915 -10.333 -6.880001 -9.6555 -7.515 
-9.208501 -13.5699 -14.7318 -14.5348 -9.631001 -7.302001 -10.586 -10.3285 -9.192501 -9.3535 -9.9005 -10.5235 -8.233 -8.3 -10.6735 -9.529501 -10.301 -12.0674 -7.5425 -8.294001 -8.283001 -9.607 -9.6245 -9.521501 -9.774501 -8.759 -9.441501 -10.3225 -14.252 -15.54 -13.022 -12.8385 -9.6785 -9.6555 
-13.8377 -15.1567 -18.0898 -15.2358 -9.631001 -11.0236 -13.9975 -12.4275 -9.3535 -10.5875 -10.6125 -10.6145 -10.0705 -10.674 -10.6735 -12.2597 -14.6684 -13.9884 -8.294001 -8.366 -10.022 -9.912001 -10.046 -9.797 -9.777501 -10.316 -10.323 -14.387 -15.995 -15.647 -15.594 -15.6932 -9.6785 
-3.9345 -1.7695 -1.4985 -4.222 -3.8675 -3.458 -3.8735 -1.756 -6.6585 -1.934 -4.393 -4.142 -1.756 -4.1225 -3.468 -2.4945 -5.011 -3.918 -1.756 -5.1605 -2.3345 -8.264501 -3.1715 -3.9555 0 
-3.94 -2.7955 -6.037001 -6.6295 -5.3915 -6.666 -5.3865 -8.602501 -8.461 -5.6055 -8.706 -6.013 -5.5775 -6.209001 -5.546 -6.565001 -8.7355 -6.752 -6.781 -6.162 -9.412001 -9.467501 -6.556001 -3.9555 
-4.4455 -7.0565 -6.804 -8.1115 -8.358 -6.711 -9.2065 -10.1765 -12.7501 -9.989 -10.7416 -6.4855 -7.733 -8.160501 -10.111 -10.0155 -12.0425 -12.5408 -7.6935 -13.768 -13.244 -14.5386 -6.556001 
-8.816501 -9.153001 -9.1675 -11.3126 -8.3925 -9.745501 -10.688 -14.6154 -17.1336 -12.0246 -11.2141 -8.351001 -9.5035 -12.8491 -13.5615 -13.3897 -17.8313 -13.4533 -15.4981 -17.6006 -18.0527 -14.5386 
-9.415001 -10.335 -12.466 -11.3471 -11.5644 -11.227 -15.1269 -18.9989 -19.1692 -12.4971 -13.0796 -10.717 -14.2681 -16.2996 -16.9357 -19.1785 -18.7438 -21.2579 -19.3307 -21.8857 -18.0527 
-5.321 -3.5455 -1.756 -3.75 -3.468 -1.934 -4.393 -3.158 -4.7715 -4.743 -1.756 -3.8735 -2.229 -3.8675 -6.781 -1.7565 -3.75 -3.468 -3.074 0 
-10.6375 -5.364501 -5.571 -7.6075 -5.1985 -5.6055 -7.535 -7.9495 -10.4909 -6.5275 -5.724 -5.3655 -6.0635 -11.9589 -9.561501 -5.55 -7.6075 -6.508 -3.074 
-12.7985 -6.547501 -10.411 -9.3205 -8.177501 -9.703001 -13.2629 -13.9277 -12.2754 -7.832 -7.079 -9.632 -14.8421 -14.7394 -13.516 -10.3781 -10.66 -6.508 
-13.7855 -11.9147 -12.124 -12.5999 -12.4408 -15.4309 -19.2411 -15.7122 -13.5799 -9.075001 -10.733 -18.8894 -17.6226 -18.6939 -18.3441 -13.4306 -10.66 
-19.1527 -13.6277 -15.4034 -16.8632 -18.1687 -21.4091 -21.0256 -17.0167 -14.8229 -13.635 -19.9904 -21.6699 -21.5771 -23.522 -21.3966 -13.4306 
-3.9345 -4.222 -3.8675 -1.7565 -3.8735 -1.756 -4.628 -4.743 -2.264 -4.393 0 -3.502 -3.468 -2.4945 -3.918 -3.894 -5.011 -1.756 -6.785501 -2.3345 -4.1225 -3.1715 -4.304 0 
-10.564 -6.6295 -5.702 -5.112 -5.3865 -6.51 -4.7515 -7.426 -7.817 -4.393 -3.502 -7.7665 -5.546 -6.31 -6.265 -8.7355 -7.0065 -7.962 -7.009501 -6.5295 -6.6455 -6.271501 -4.304 
-12.9715 -8.7365 -10.4675 -6.409 -7.3155 -6.654 -7.440001 -13.577 -7.817 -8.1315 -7.7665 -9.818501 -9.547501 -7.2015 -11.7709 -9.9455 -13.8251 -8.236501 -12.0133 -9.637 -10.6461 -6.271501 
-15.0785 -13.7362 -11.7645 -8.469501 -7.32 -8.84 -13.6288 -13.577 -11.8801 -12.7134 -9.818501 -13.9324 -10.376 -12.9176 -12.9809 -16.7641 -14.0996 -13.5349 -15.1208 -13.9628 -10.6461 
-20.0782 -15.0332 -13.825 -8.479501 -9.337501 -15.1336 -13.6288 -17.6401 -16.462 -14.7654 -13.9324 -14.7609 -16.0921 -14.1276 -19.7995 -17.0386 -19.398 -16.6424 -19.4466 -13.9628 
