-4.759 
n/a 
n/a 
n/a 
n/a 
-4.759 
n/a 
n/a 
n/a 
n/a 
-4.759 
n/a 
n/a 
n/a 
n/a 
-4.759 
n/a 
n/a 
n/a 
n/a 
-3.4005 -2.8645 -3.074 -3.1125 -3.43 -3.046 0 -3.133 0 -2.0935 -3.5385 -2.0935 -4.0155 -1.7695 -3.0605 -3.277 -1.7565 -3.7515 -2.4285 -2.925 -1.7695 -3.391 -3.0755 -3.325 -1.4985 -3.401 -1.7565 -3.5385 -1.7695 -3.046 -1.756 -5.3365 -3.4005 -3.685 
-6.1125 -4.846 -5.106 -4.9425 -6.548 -3.046 -3.133 -3.133 -2.0935 -4.6995 -5.82 -5.486 -5.9575 -5.446 -5.5115 -4.296 -4.833 -5.4915 -6.087501 -3.71 -5.7095 -6.519501 -7.1145 -3.898 -3.9525 -4.859 -4.808 -5.216 -5.247 -4.7 -6.849 -6.701 -5.964 
-7.9905 -5.3775 -6.9405 -8.456 -6.548 -6.5085 -3.133 -5.8475 -4.6995 -6.8585 -8.762501 -7.254001 -8.4655 -6.973001 -6.3425 -5.0165 -5.6675 -9.219501 -6.267 -7.649 -8.6765 -10.4425 -7.7795 -6.8245 -5.23 -7.752 -6.695 -8.606501 -7.1035 -7.635 -7.8675 -8.6365 
-8.494 -7.3255 -10.575 -8.456 -11.2163 -6.5085 -5.8475 -8.2375 -6.8585 -10.218 -10.3815 -10.151 -9.104501 -7.792 -6.534 -5.7005 -9.3465 -9.255501 -10.341 -9.336 -12.8539 -10.747 -10.9946 -8.244 -7.823 -7.9775 -8.835 -8.816 -8.503 -8.029 -9.012501 
-10.5358 -10.757 -10.575 -13.5299 -11.2163 -8.571501 -8.2375 -10.0885 -10.218 -11.8454 -13.3145 -10.9836 -10.1425 -7.8545 -7.3355 -9.432501 -9.366 -13.5515 -12.2294 -13.5658 -13.1584 -13.9621 -12.4141 -9.972 -8.040501 -8.851001 -8.867001 -8.859 -8.611 -9.014001 
-1.934 -3.676 -2.674 -3.3715 -3.299 -3.518 -6.074 -1.756 -7.566 -2.674 -3.684 -3.433 0 
-4.7985 -6.567 -5.4105 -6.3805 -4.972 -10.75 -7.292 -8.115 -8.663501 -6.502 -5.6975 -3.433 
-7.231 -9.424 -8.4325 -7.852 -12.7952 -11.968 -12.0595 -9.1635 -12.3305 -8.713 -5.6975 
-10.064 -12.4874 -9.945 -16.0036 -14.0132 -16.7809 -13.1959 -13.0614 -14.1529 -8.713 
-13.1274 -13.9999 -18.0966 -17.2216 -18.8261 -17.8719 -17.1596 -14.8692 -14.1529 
-3.2615 -2.3335 -3.098 -3.7375 -4.9225 -2.4945 -8.775001 -3.222 -1.4985 -3.4975 -1.756 -1.4985 -4.536 -3.074 
-5.0495 -5.0465 -6.5005 -8.279 -6.9525 -12.6977 -12.9552 -3.7835 -4.3125 -5.486 -3.0405 -6.2215 -7.508 
-7.9095 -7.9305 -9.967001 -9.8465 -17.4737 -16.8779 -13.5167 -6.938 -6.726 -7.0575 -7.7235 -8.790501 
-11.0275 -11.5834 -10.4005 -20.5563 -21.6539 -17.4394 -16.6712 -9.158 -7.907001 -12.2419 -10.717 
-14.6804 -12.0169 -21.6729 -24.7365 -22.2154 -20.5939 -18.8912 -10.5676 -13.6344 -15.2354 
-2.0935 -3.93 -3.4005 -3.4975 -5.0495 -3.254 0 -2.8645 -6.288 -2.356 -3.672 -1.756 -3.237 -3.93 -3.4005 -4.8015 -1.756 -2.8645 -3.4295 -3.35 
-5.5695 -4.708 -6.857 -7.1505 -8.530001 -3.254 -2.8645 -8.587 -6.6125 -5.7365 -5.303 -4.7635 -6.903 -4.708 -6.9315 -5.896 -4.3855 -7.0025 -6.0175 
-5.9635 -8.149 -9.335501 -12.3286 -8.530001 -6.0375 -8.587 -8.943001 -10.354 -7.382 -5.9285 -8.3315 -6.9245 -8.521501 -8.186501 -8.5345 -8.5965 -9.9847 
-8.8925 -11.1277 -14.9012 -12.3286 -12.1329 -12.4962 -8.943001 -12.8511 -11.9995 -7.6565 -9.113501 -8.356 -11.3556 -9.892 -10.4185 -12.8473 -11.6919 
-12.4374 -16.6934 -14.9012 -15.9315 -18.5916 -12.8522 -12.8511 -14.4966 -12.274 -11.2931 -9.172501 -13.0491 -12.7261 -12.124 -14.9905 -15.9427 
