-4.759 
n/a 
n/a 
n/a 
n/a 
-4.759 
n/a 
n/a 
n/a 
n/a 
-4.759 
n/a 
n/a 
n/a 
n/a 
-4.759 
n/a 
n/a 
n/a 
n/a 
-4.639 -6.4145 -6.0625 -4.498 -4.6715 -2.9705 -1.934 -7.7105 -2.8645 -4.935 -4.194 -1.7565 -4.8835 
-12.1769 -8.626 -11.4731 -7.872 -7.156 -5.115 -9.2515 -10.598 -7.7435 -6.321001 -5.1445 -6.884501 
-14.3884 -14.0356 -14.8471 -10.001 -9.574501 -13.3513 -12.079 -15.477 -8.995501 -6.993501 -8.8835 
-19.798 -17.4096 -16.9761 -12.4163 -17.7752 -16.1788 -16.958 -16.729 -9.505 -10.485 
-23.172 -19.5386 -19.3914 -20.617 -20.6027 -21.0578 -18.21 -17.2385 -13.0537 
-4.639 -6.863 -4.498 -4.6715 -1.934 -7.896 -2.8645 -1.4985 -4.194 -1.7695 -4.43 -4.8835 -5.722 0 
-9.478001 -11.9944 -7.872 -6.0425 -9.028501 -11.2509 -4.3545 -5.2405 -5.2285 -6.56 -9.920501 -9.2295 -5.722 
-15.6132 -15.3684 -8.953501 -13.9958 -12.6028 -12.7409 -6.487 -5.775 -8.3675 -12.7617 -14.3579 -9.2295 
-18.9872 -16.4499 -17.2444 -17.5701 -14.0928 -14.8734 -6.566 -8.529 -15.1252 -17.1991 -14.3579 
-20.0687 -24.7408 -20.8187 -19.0601 -16.2253 -14.9524 -8.702001 -15.4257 -19.5626 -17.1991 
-4.639 -6.4145 -6.0625 -4.498 -4.6715 -4.3725 -1.934 -12.16972 0 -2.8645 -4.3435 -4.8835 -4.66 0 
-12.1769 -8.626 -11.4731 -7.872 -10.051 -5.022501 -15.11012 -12.16972 -2.8645 -6.4 -7.7415 -9.22 -4.66 
-14.3884 -14.0356 -14.8471 -13.6703 -10.701 -18.97042 -15.11012 -15.03422 -6.4 -9.585501 -12.4912 -9.22 
-19.798 -17.4096 -20.6454 -14.3203 -24.64892 -18.97042 -17.97462 -18.56972 -9.585501 -14.4192 -12.4912 
-23.172 -23.2079 -21.2954 -28.26822 -24.64892 -21.83492 -21.51012 -21.75522 -14.4192 -14.4192 
-4.8835 -3.1385 -2.7765 -3.7825 -1.934 -4.639 -6.863 -6.3715 -4.6715 -1.934 -7.7105 
-7.5965 -5.1855 -5.7225 -5.8855 -7.456 -9.478001 -13.8679 -10.9315 -6.0425 -9.2515 
-10.2865 -7.743501 -7.975 -12.3539 -12.6792 -17.4867 -18.4279 -12.3025 -14.2188 
-12.8445 -9.873501 -14.928 -17.5771 -20.6879 -22.0467 -19.7989 -20.4788 
-14.9745 -17.0241 -20.1512 -25.5858 -25.2479 -23.4177 -27.9752 
