-4.759 
n/a 
n/a 
n/a 
n/a 
-4.759 
n/a 
n/a 
n/a 
n/a 
-4.759 
n/a 
n/a 
n/a 
n/a 
-4.759 
n/a 
n/a 
n/a 
n/a 
-3.948 -4.085 -4.5875 -7.982501 -3.6825 -1.756 -3.4075 -3.9175 -3.5005 -3.135 -2.8965 -4.085 -3.115 -7.068 0 -5.2725 -1.4985 -4.203 -1.756 -4.0875 -1.4985 -4.66 0 
-6.845 -8.436501 -13.943 -9.111501 -5.315 -5.047 -6.927001 -7.6415 -5.832 -4.9085 -5.609 -6.9965 -10.4945 -7.068 -5.2725 -6.1685 -5.438 -5.5325 -5.3545 -5.0195 -6.098001 -4.66 
-10.76 -18.0846 -15.072 -10.688 -8.488 -9.077001 -10.1345 -10.1035 -7.743001 -8.615001 -8.790001 -14.733 -10.4945 -12.9657 -6.1685 -9.7045 -6.5485 -9.066 -6.268001 -8.9895 -6.098001 
-20.4081 -19.2136 -16.6485 -13.861 -10.3285 -12.4059 -12.5965 -12.0145 -12.2973 -10.703 -16.6629 -14.733 -16.3922 -13.8617 -9.7045 -11.0572 -10.238 -10.143 -9.647501 -8.9895 
-21.5371 -20.7901 -19.8215 -15.7015 -13.6574 -14.8679 -14.5075 -16.5688 -14.3853 -18.5759 -16.6629 -20.6307 -17.2882 -17.3977 -11.0572 -14.7467 -11.315 -13.5225 -9.647501 
-3.3715 -3.6825 -3.918 -1.756 -3.43 -1.4985 -6.7485 -3.6825 0 -3.5005 -5.956 -1.756 -3.3715 -4.085 -3.918 -1.756 -4.5485 -1.4985 -4.1865 -3.4075 -3.783 -3.6825 -2.925 -5.2725 -1.756 -5.1605 -1.4985 -3.5435 0 
-7.7875 -8.1195 -6.752 -5.055 -4.7635 -7.882 -6.975501 -3.6825 -3.5005 -9.455 -7.5715 -4.6545 -7.084001 -8.122 -6.752 -6.2885 -5.7605 -5.177 -6.714 -9.047501 -8.344501 -6.5405 -7.0965 -6.769 -6.781 -6.2535 -4.2755 -3.5435 
-12.8147 -10.3045 -9.052501 -6.1685 -11.6064 -8.463 -6.975501 -6.587 -9.455 -10.759 -10.451 -8.8345 -11.526 -10.4425 -9.394501 -7.0055 -9.2735 -7.226 -13.3776 -13.978 -11.4907 -11.0358 -9.3135 -10.5325 -7.9085 -8.7295 -4.2755 
-14.9997 -12.605 -10.1635 -13.1728 -12.1874 -8.463 -10.476 -13.3315 -10.759 -13.6385 -14.631 -13.3013 -13.8465 -13.085 -10.065 -10.4105 -10.026 -14.277 -18.3081 -17.1242 -15.986 -13.2528 -13.1712 -12.0078 -10.4855 -8.7295 
-17.3002 -13.716 -17.1678 -13.7538 -12.1874 -12.3137 -17.2205 -14.6355 -13.6385 -17.8185 -19.0978 -15.6218 -16.489 -13.7555 -13.47 -11.163 -17.3456 -19.2075 -21.4543 -21.6195 -18.203 -17.1105 -14.6465 -14.5848 -10.4855 
-6.7485 -3.6825 -5.227 -4.5485 -2.3345 -3.3715 -4.085 0 -3.687 -4.085 -1.756 -3.135 -2.8965 -4.085 -3.918 -2.5045 -3.4075 -3.9175 -5.2725 -4.203 -1.756 -4.5485 -1.4985 -3.5435 0 
-6.975501 -8.776 -8.5155 -5.4845 -5.279 -7.084001 -4.085 -3.687 -7.3365 -5.327 -4.5755 -4.9085 -5.609 -8.122 -6.762 -6.094501 -6.927001 -10.085 -9.380501 -5.5325 -6.2885 -5.7605 -4.2755 -3.5435 
-12.7106 -12.4005 -9.057 -8.536 -8.347 -7.084001 -8.211 -7.3365 -8.453501 -8.1905 -5.9285 -8.615001 -9.675501 -10.368 -9.9975 -9.783501 -13.4967 -14.3504 -10.8386 -9.4005 -7.0055 -8.2565 -4.2755 
-16.3351 -12.942 -12.2791 -11.7094 -8.347 -10.76 -10.485 -8.453501 -10.494 -9.4685 -9.252001 -12.7257 -12.0751 -13.6035 -13.7735 -16.5472 -17.7621 -15.8085 -14.7066 -10.1515 -9.283001 -8.2565 
-16.8766 -16.1641 -15.4525 -11.7094 -12.2256 -13.034 -11.602 -10.494 -11.772 -13.1398 -13.4169 -15.1253 -15.3106 -17.3795 -20.5372 -20.8126 -19.2202 -19.6765 -15.4576 -12.429 -9.283001 
-1.4985 -7.4095 -6.7485 -3.6825 0 -5.9025 0 -1.756 -3.135 -2.8965 -4.085 -4.267 -2.985 -4.2285 -1.756 -5.0595 -4.203 0 
-8.496 -8.561 -6.975501 -3.6825 -5.9025 -5.9025 -1.756 -4.5755 -4.9085 -5.609 -8.0215 -8.7115 -5.5375 -5.408501 -6.5025 -9.188 -4.203 
-8.818001 -8.594 -6.975501 -8.98 -5.9025 -6.8255 -4.5755 -5.9285 -8.615001 -9.7535 -10.4675 -10.3165 -6.4835 -10.485 -10.9952 -9.188 
-8.832001 -8.594 -12.9146 -8.98 -6.8255 -9.1735 -5.9285 -9.252001 -12.8037 -12.6181 -10.4905 -11.7475 -11.8304 -14.9777 -10.9952 
-8.832001 -14.7725 -12.9146 -10.131 -9.1735 -10.689 -9.252001 -13.4949 -15.6683 -12.6411 -12.9013 -17.0944 -16.3231 -14.9777 
