-4.759 
n/a 
n/a 
n/a 
n/a 
-4.759 
n/a 
n/a 
n/a 
n/a 
-4.759 
n/a 
n/a 
n/a 
n/a 
-4.759 
n/a 
n/a 
n/a 
n/a 
-5.1845 -4.235 -3.3195 0 -8.1575 -3.3195 0 -4.02 -3.3195 -2.8645 -3.383 -3.6975 -2.0935 -3.595 
-8.885 -7.734 -3.3195 -8.1575 -8.578 -3.3195 -4.02 -6.7005 -6.070001 -5.9505 -5.5455 -6.296 -4.819 
-12.5622 -7.734 -9.557501 -8.578 -8.578 -7.703501 -6.7005 -8.849 -9.231001 -9.4805 -7.2415 -9.764 
-12.5622 -14.426 -9.9175 -8.578 -13.2396 -8.469001 -8.849 -12.0348 -12.8812 -11.3607 -10.7903 
-19.2542 -14.786 -9.9175 -13.2396 -14.0051 -11.3119 -12.0348 -15.685 -14.7614 -14.9095 
-2.9805 -2.674 -3.695 -2.356 -5.1845 -4.067 -3.3195 0 -8.1575 -3.3195 -1.756 -4.02 -3.3195 
-5.96 -5.9055 -4.985 -7.8135 -9.2295 -6.9645 -3.3195 -8.1575 -8.578 -4.768 -5.5495 -6.7005 
-9.222 -6.4915 -10.7493 -12.2075 -12.3616 -6.9645 -9.557501 -8.578 -9.926001 -8.472501 -7.5855 
-10.389 -12.4896 -15.1433 -15.3396 -12.3616 -13.7771 -9.9175 -9.926001 -13.6305 -9.3815 
-16.3871 -16.8836 -18.2754 -15.3396 -19.1742 -14.1371 -11.5933 -13.6305 -14.5395 
-2.9805 -2.186 -3.3235 -4.7265 -1.934 -4.067 0 -8.1575 -1.756 -4.02 -6.5675 
-4.1635 -4.976501 -6.059 -5.6355 -6.2455 -4.067 -8.1575 -9.809 -5.5495 -8.8085 
-6.742001 -7.573501 -7.285501 -9.1085 -6.2455 -13.2325 -9.809 -14.0279 -9.856501 
-8.8605 -8.258 -11.0101 -9.1085 -15.8918 -14.884 -14.0279 -18.3349 
-9.457001 -12.0664 -11.0101 -19.138 -17.5433 -19.1029 -18.3349 
-2.9805 -2.7415 -3.4155 -4.8775 -1.756 -3.7555 -4.4265 -3.58 -1.934 -5.1845 -4.7285 -3.3195 0 -4.5475 -3.3195 -1.756 -4.02 -3.3195 0 
-4.004 -5.3605 -7.6365 -6.355 -5.2875 -8.231501 -6.665 -5.135 -6.564 -8.984 -5.882 -3.3195 -4.5475 -5.307 -4.768 -5.5495 -6.7005 -3.3195 
-7.0305 -10.513 -8.316 -10.0285 -9.7755 -10.0675 -7.961501 -9.3135 -10.159 -9.8765 -5.882 -5.927 -5.307 -6.823 -8.472501 -7.5855 -6.7005 
-10.7595 -11.1925 -12.1653 -14.6925 -11.6561 -11.364 -12.4172 -13.4951 -11.1105 -9.8765 -8.284 -6.335001 -6.823 -9.5005 -9.3815 -7.5855 
-11.439 -15.0418 -16.8293 -16.5731 -12.9526 -15.8197 -16.5988 -14.4466 -11.1105 -12.5253 -9.0915 -8.911501 -9.5005 -10.7915 -9.3815 
