-4.759 
n/a 
n/a 
n/a 
n/a 
-4.759 
n/a 
n/a 
n/a 
n/a 
-4.759 
n/a 
n/a 
n/a 
n/a 
-4.759 
n/a 
n/a 
n/a 
n/a 
-4.8955 -4.893 -4.9175 -4.9375 -4.8185 -4.9425 -4.9595 -4.938 -4.9465 -4.8385 
-5.652 -5.6525 -5.656 -5.6675 -5.669 -5.672 -5.675 -5.6735 -5.677001 
-5.654 -5.657 -5.6695 -5.67 -5.673 -5.6755 -5.676001 -5.678 
-5.657 -5.6695 -5.671 -5.673 -5.6755 -5.676 -5.678 
-5.6695 -5.671 -5.673 -5.6755 -5.676 -5.678 
-4.8955 0 -4.893 0 -4.9175 0 -4.9375 0 -4.8185 0 -4.9425 0 -4.9595 0 -4.938 -4.9465 -4.8385 
-4.8955 -4.893 -4.893 -4.9175 -4.9175 -4.9375 -4.9375 -4.8185 -4.8185 -4.9425 -4.9425 -4.9595 -4.9595 -4.938 -5.6735 -5.677001 
-5.652 -4.893 -5.6525 -4.9175 -5.656 -4.9375 -5.6675 -4.8185 -5.669 -4.9425 -5.672 -4.9595 -5.675 -5.6735 -5.678 
-5.652 -5.6525 -5.6525 -5.656 -5.656 -5.6675 -5.6675 -5.669 -5.669 -5.672 -5.672 -5.675 -5.676001 -5.678 
-5.654 -5.6525 -5.657 -5.656 -5.6695 -5.6675 -5.67 -5.669 -5.673 -5.672 -5.6755 -5.676001 -5.678 
-49.087 
n/a 
n/a 
n/a 
n/a 
-49.195 
n/a 
n/a 
n/a 
n/a 
