-4.759 
n/a 
n/a 
n/a 
n/a 
-4.759 
n/a 
n/a 
n/a 
n/a 
-4.759 
n/a 
n/a 
n/a 
n/a 
-4.759 
n/a 
n/a 
n/a 
n/a 
-4.347 -3.2615 -2.6615 -3.277 -2.9805 -3.0465 -2.3335 -3.8685 0 
-8.502501 -5.8865 -4.7555 -5.421 -6.364 -5.3435 -5.971001 -3.8685 
-10.259 -6.438 -6.948501 -10.2535 -7.9125 -8.701501 -5.971001 
-11.0349 -8.740001 -12.0026 -12.075 -10.5425 -8.701501 
-13.3369 -13.7661 -13.8241 -14.705 -10.5425 
-4.347 -2.9805 -3.7555 -1.8085 -3.5015 -1.934 -1.4985 -3.8195 -3.655 -3.2615 -4.191 -4.3225 -3.098 0 
-9.097 -5.3095 -4.597 -4.642 -4.704 -2.6125 -4.771 -5.969501 -6.896 -6.5205 -7.5035 -7.667 -3.098 
-11.393 -6.3225 -7.462501 -5.8375 -5.1615 -5.7325 -6.4265 -8.6035 -9.801001 -10.733 -11.5916 -7.667 
-12.406 -9.236 -7.945 -6.171 -8.5255 -7.0715 -9.0135 -11.7291 -14.4855 -14.8211 -11.5916 
-15.3195 -9.8465 -8.1885 -9.543501 -9.652 -9.4475 -12.1903 -16.4136 -18.5736 -14.8211 
-4.347 -3.2615 -2.6615 -4.3225 -2.9805 -4.358 -3.091 -3.5015 -1.934 -1.4985 -5.1845 -4.6695 -3.655 
-8.502501 -5.8865 -7.0135 -6.911 -8.7925 -7.977 -5.8855 -4.704 -2.6125 -6.5205 -7.0515 -7.573501 
-10.259 -10.1855 -10.047 -13.196 -9.493501 -9.972501 -6.609 -5.1615 -7.672 -9.3865 -9.532001 
-14.7824 -13.6918 -16.332 -13.897 -12.018 -10.143 -6.9125 -10.13 -9.948 -10.101 
-18.2887 -19.9768 -17.033 -16.4215 -12.1885 -10.3525 -12.3026 -12.406 -10.4895 
-4.138 -2.6615 -3.8195 -3.2615 -2.9805 -3.8055 -1.4985 -3.595 -3.5015 -1.7565 -5.0185 0 
-6.698 -7.201501 -6.988 -5.2875 -5.838 -4.870501 -7.311501 -8.0755 -4.783 -6.938001 -4.624 
-11.9678 -10.7556 -8.992001 -8.0815 -6.814 -10.361 -11.8942 -9.814501 -10.2865 -7.324501 
-15.5219 -12.7596 -11.888 -8.938001 -12.5685 -15.2627 -13.6332 -14.9528 -9.7255 
-17.5259 -15.6556 -12.7445 -14.7565 -17.4702 -17.0017 -18.7715 -14.9528 
