-4.759 
n/a 
n/a 
n/a 
n/a 
-4.759 
n/a 
n/a 
n/a 
n/a 
-4.759 
n/a 
n/a 
n/a 
n/a 
-4.759 
n/a 
n/a 
n/a 
n/a 
-3.4005 -1.934 -3.8735 -2.186 -4.7175 -3.672 -2.3345 -1.4985 -3.237 -4.1395 0 -2.356 -3.4985 -1.756 -4.1405 -4.0225 -2.5195 -3.54 -4.033 0 -3.8265 0 -3.1715 0 -1.756 -3.352 -3.736 -3.4005 -2.186 -5.3365 -1.4985 -7.129 -3.35 -2.7415 -1.4985 -4.6365 -6.55 -1.7565 -3.4005 -1.934 -1.4985 -3.188 -4.02 -3.4005 -4.3195 -6.377 -3.222 -4.1865 -3.8475 -2.356 -1.4985 -4.7345 -1.7565 -1.4985 -4.065 -5.6305 
-5.069 -4.885 -5.949 -5.732 -7.871 -4.219 -3.233 -4.1875 -4.9685 -4.1395 -2.356 -6.2395 -4.7925 -5.620501 -7.6885 -5.119 -5.71 -6.066501 -4.033 -3.8265 -3.8265 -3.1715 -3.1715 -1.756 -4.7135 -7 -7 -5.4505 -6.4845 -7.5365 -8.481001 -8.255 -6.342 -4.063 -5.3015 -9.919001 -7.5225 -4.473 -5.069 -2.6125 -3.619 -7.655 -7.509 -7.754001 -8.6245 -7.611001 -7.4145 -6.998 -6.234 -3.1615 -5.1325 -5.089 -2.4195 -4.824 -7.3425 
-7.1525 -6.6635 -9.043 -8.286 -8.164001 -4.9135 -5.7865 -5.665 -4.9685 -6.2995 -6.2395 -7.637 -8.776501 -9.580501 -7.9385 -8.312 -8.2635 -6.066501 -7.923 -3.8265 -5.416 -3.1715 -4.562 -4.7135 -8.0775 -10.1675 -8.876 -8.052501 -8.2355 -14.7808 -9.177001 -9.708 -7.55 -7.0855 -10.2025 -10.476 -8.863001 -6.072001 -5.7525 -4.377 -8.117001 -11.6294 -10.404 -12.358 -9.409 -10.634 -9.2895 -9.290501 -7.1075 -6.577001 -5.2645 -5.766 -5.555 -7.4665 
-8.7535 -9.243501 -9.836 -8.545501 -8.6265 -7.3795 -7.144001 -5.665 -7.5405 -10.2085 -7.637 -10.028 -10.0345 -9.7335 -10.0065 -10.019 -8.2635 -9.219001 -7.923 -5.416 -5.416 -4.562 -5.137 -8.0775 -10.341 -12.2975 -11.6286 -9.683001 -15.5116 -15.4768 -10.139 -11.0142 -10.9815 -13.075 -11.4539 -14.6979 -11.0325 -6.772 -7.4215 -8.458 -12.3322 -14.5244 -15.008 -13.1425 -12.7832 -12.509 -11.6534 -10.0225 -9.836 -6.6635 -5.8985 -8.656 -7.831501 
-11.4079 -9.838 -9.8415 -8.9925 -9.983001 -8.2935 -7.144001 -7.657001 -10.564 -10.594 -10.028 -10.0395 -10.0395 -10.048 -10.049 -10.019 -10.0415 -9.219001 -8.2735 -5.416 -5.7345 -5.137 -8.214001 -10.341 -12.6796 -15.0501 -13.2591 -17.1313 -16.2076 -16.4388 -11.4452 -14.4457 -17.2928 -15.44 -15.7062 -15.7554 -11.683 -8.878 -12.1771 -12.95 -15.2272 -19.1284 -15.7925 -16.5167 -14.6582 -14.8729 -12.3854 -10.6935 -9.870501 -7.089 -8.771 -10.022 
-3.5385 -2.4945 -4.8465 -2.5045 -2.7035 -2.4285 -4.655 -3.7515 0 -3.321 -2.5045 -3.7515 -4.752 -2.925 -3.716 -4.749 0 -3.321 -2.925 -4.1555 -3.93 -3.391 -3.135 -3.468 -3.5385 -3.074 -4.1555 -4.0435 -2.5045 -3.7515 -13.134 -2.229 -2.4945 -3.672 -3.284 -3.518 -3.4005 0 
-5.223 -6.5185 -6.197001 -4.6755 -5.448 -7.503 -8.9285 -3.7515 -3.321 -5.8425 -5.3865 -8.9725 -8.299001 -6.6555 -8.1675 -4.749 -3.321 -5.154 -8.51 -7.73 -7.14 -7.1245 -5.750501 -7.18 -6.6115 -6.571 -7.241501 -6.826 -6.931001 -18.4685 -15.622 -5.159 -4.854 -7.9785 -6.064 -6.6105 -3.4005 
-9.5375 -8.258 -9.557501 -7.837501 -9.198501 -12.0917 -8.9285 -7.1555 -5.8425 -8.189501 -12.2507 -13.1063 -12.2305 -12.054 -8.1675 -8.620001 -5.154 -10.254 -12.1849 -11.49 -10.254 -10.1225 -9.311001 -11.0934 -10.7025 -9.552501 -9.644001 -11.8099 -22.1796 -20.2465 -19.115 -7.67 -9.354 -9.869 -8.330501 -6.6105 
-11.2986 -11.9275 -12.8893 -11.9284 -13.8252 -12.0917 -12.6251 -9.354 -8.189501 -15.5433 -16.3845 -17.0378 -17.629 -12.054 -13.3739 -10.6345 -10.254 -13.9289 -15.9449 -14.604 -13.5618 -13.813 -13.4048 -15.1844 -13.684 -12.2262 -14.6943 -27.0585 -23.9576 -23.7395 -21.6912 -12.5252 -11.3269 -12.5829 -8.330501 
-14.9681 -15.2593 -16.9802 -16.5551 -13.8252 -15.7883 -14.8236 -10.689 -15.5433 -19.6771 -20.316 -22.4363 -17.629 -17.2604 -15.3884 -15.7345 -13.9289 -17.6889 -19.0589 -17.9118 -17.2523 -17.9068 -17.4958 -18.1659 -16.3577 -17.2765 -29.9429 -28.8365 -27.4506 -26.3157 -26.5464 -14.4981 -14.0408 -12.5829 
-3.6055 -3.468 -4.4665 -2.5195 -4.8835 -1.756 -4.99 -1.7695 -3.8725 -3.2495 -3.098 -4.3285 -1.934 -1.4985 -5.572 -3.277 -3.5585 
-8.442 -8.450001 -6.247 -7.485001 -6.4435 -6.536 -7.2045 -6.734001 -6.322001 -7.190001 -6.752 -5.822001 -2.6125 -6.9975 -6.6055 -6.9905 
-13.6902 -10.104 -10.159 -9.14 -6.9655 -9.021501 -12.9914 -9.308001 -10.4425 -11.0846 -7.7925 -6.252501 -8.153 -8.363 -10.7912 
-15.3442 -14.0444 -12.417 -9.763 -9.354 -14.759 -15.5654 -13.5229 -14.3371 -12.1251 -8.7685 -12.5494 -8.750501 -13.0917 
-19.2846 -16.3024 -13.04 -12.3529 -15.1101 -17.333 -19.7803 -17.4175 -15.3776 -13.1011 -15.4302 -13.1469 -13.8982 
-1.934 -3.17 -1.7565 -1.4985 -3.468 -7.103 -4.4665 -2.5195 -2.7035 -1.7695 -2.743 0 -3.8225 0 -5.7445 -4.0005 -2.4285 -4.921 -3.723 0 -4.732 -3.106 -3.277 0 -4.749 -3.723 0 -3.93 -3.4005 -4.5855 0 -4.1555 -1.7695 -3.284 -3.135 -3.468 -3.9915 -5.1475 -3.0605 -2.4285 -3.1205 -3.277 -2.742 -2.489 -8.221001 -3.989 -4.619 -3.8135 -4.111 -3.736 -2.846 0 -1.934 -3.989 -2.4285 -3.5645 -4.619 -4.7675 -3.672 -3.284 -3.5585 -2.4945 -4.9135 0 
-4.8605 -4.179 -2.4195 -5.0815 -11.5522 -12.2495 -6.247 -5.3855 -5.205 -5.122 -2.743 -3.8225 -3.8225 -5.7445 -8.044001 -6.408501 -8.2895 -9.231001 -3.723 -4.732 -7.699 -5.105 -3.277 -4.749 -8.3435 -3.723 -3.93 -4.708 -7.699 -4.5855 -4.1555 -4.988501 -4.9925 -6.704 -5.750501 -7.0785 -10.361 -9.452 -6.028501 -6.405001 -5.5735 -6.0915 -3.301 -10.0285 -12.805 -8.973001 -8.318001 -8.477 -7.979 -7.052 -2.846 -1.934 -6.0845 -6.1165 -5.304501 -7.927501 -8.860001 -8.456 -5.696 -5.26 -5.0345 -6.297501 -4.9135 
-5.8795 -4.497 -5.881001 -13.8433 -16.6987 -14.03 -8.823501 -6.3005 -6.5505 -5.122 -7.131 -3.8225 -10.634 -8.044001 -10.163 -13.0753 -12.8981 -9.231001 -9.0865 -7.699 -9.060501 -5.105 -8.098001 -8.3435 -8.3435 -8.025001 -4.708 -8.977 -7.699 -9.404 -4.988501 -6.815501 -8.040501 -9.318501 -7.7665 -13.7384 -14.6655 -12.6354 -6.989 -7.6905 -8.745501 -6.58 -11.2841 -14.7055 -17.789 -13.0466 -13.2643 -12.4276 -12.1334 -7.052 -5.429 -6.0845 -7.679 -9.004 -9.832001 -12.6299 -13.8383 -11.0112 -7.265 -6.7445 -7.646 -6.297501 
-6.0885 -7.458 -14.8688 -18.9898 -18.4792 -16.6065 -10.647 -7.323 -6.5505 -8.714001 -7.131 -10.634 -12.9335 -10.163 -16.8298 -17.6839 -12.8981 -14.7589 -12.1029 -9.060501 -9.060501 -10.76 -12.8529 -8.3435 -10.76 -9.478001 -8.977 -8.977 -13.0669 -10.412 -6.815501 -10.0645 -10.9334 -10.076 -14.5918 -18.0429 -17.8489 -13.5959 -7.769001 -11.6405 -9.187 -14.7879 -15.9611 -19.6895 -21.8626 -17.9929 -17.2149 -16.582 -12.1334 -9.5325 -10.586 -7.679 -10.361 -14.1811 -14.5344 -17.6082 -16.3935 -12.5802 -8.8485 -9.483001 -7.646 
-7.9965 -16.7344 -20.0153 -20.7703 -21.0557 -18.43 -11.6695 -7.323 -10.5063 -8.714001 -14.3005 -12.9335 -15.0525 -16.8298 -21.4384 -17.6839 -18.426 -17.7753 -13.4644 -9.060501 -14.7085 -15.5149 -12.8529 -10.76 -12.213 -13.7754 -8.977 -14.6531 -14.0749 -12.239 -10.0645 -13.0466 -11.6909 -17.6801 -18.8963 -21.2263 -18.8094 -14.3759 -11.98 -12.082 -17.5461 -19.4649 -20.9451 -23.7631 -26.8089 -21.9435 -21.3693 -16.582 -14.6139 -14.7189 -12.1805 -10.361 -16.2485 -18.8835 -19.5127 -20.1634 -17.9625 -14.1637 -11.7278 -9.483001 
