-4.759 
n/a 
n/a 
n/a 
n/a 
-4.759 
n/a 
n/a 
n/a 
n/a 
-4.759 
n/a 
n/a 
n/a 
n/a 
-4.759 
n/a 
n/a 
n/a 
n/a 
-9.936501 -3.6115 -3.158 -12.16972 -5.2915 -3.644 0 0 -8.2205 -8.4755 -7.406 -8.7875 -12.16972 0 -4.1975 -1.7565 -5.452 -1.756 -3.6905 -1.4985 -3.635 -1.7695 -4.0585 -2.3345 -10.8945 -6.637 -12.16972 -5.1315 -5.8395 0 
-13.6234 -5.488 -16.41992 -17.46122 -9.0235 -3.644 0 -8.2205 -17.4524 -16.2863 -16.6087 -21.17262 -12.16972 -4.1975 -6.0075 -7.0575 -6.7165 -5.719501 -5.833 -4.5375 -5.438 -6.1085 -6.670501 -10.6835 -11.939 -19.59352 -17.30122 -12.0308 -5.8395 
-15.4999 -19.37432 -21.71142 -21.19322 -9.0235 -3.644 -8.2205 -17.4524 -25.2632 -25.489 -28.99382 -21.17262 -16.36722 -6.0075 -12.3423 -9.107 -11.4874 -7.8155 -8.031501 -6.121 -10.078 -8.871 -15.6961 -13.8594 -25.11292 -24.72502 -24.20052 -12.0308 
-29.38622 -24.66582 -25.44342 -21.19322 -9.0235 -12.5689 -17.4524 -25.2632 -34.4659 -37.87412 -28.99382 -25.37012 -18.17722 -12.3423 -14.3918 -14.4151 -13.5834 -9.9175 -9.925001 -11.1428 -12.9513 -18.2108 -18.6892 -26.91652 -30.24442 -31.62432 -24.20052 
-34.67772 -28.39782 -25.44342 -21.19322 -18.0772 -21.8008 -25.2632 -34.4659 -46.85102 -37.87412 -33.19132 -27.18012 -24.51202 -14.3918 -19.6999 -16.5111 -15.6854 -12.2068 -15.228 -14.0161 -22.2911 -21.0971 -31.74632 -32.04802 -37.14372 -31.62432 
-10.1565 -3.6115 -3.158 -5.715 -3.644 -12.16972 -6.637 -12.16972 -9.297501 -8.061001 -4.7665 -3.7375 -4.9225 -1.756 -4.9385 -2.985 -4.045 -3.433 -2.925 -5.452 -1.4985 0 -8.2205 -7.58 -5.169 -8.826501 -8.164001 0 
-13.9478 -5.488 -9.637501 -8.541 -16.51812 -18.80672 -19.59352 -21.46722 -17.5833 -13.1287 -9.507 -8.279 -6.156 -6.501 -7.380001 -6.2275 -7.3335 -4.511 -7.599 -6.955 -1.4985 -8.2205 -16.5569 -13.9966 -15.0395 -10.523 -8.164001 
-15.8243 -12.5919 -12.5293 -21.61512 -23.15512 -31.76324 -28.89102 -29.75302 -22.651 -17.8692 -14.2719 -10.195 -11.7984 -8.456501 -11.1655 -8.752501 -8.286 -9.382 -8.5725 -6.955 -9.8465 -16.5569 -22.9735 -23.8671 -16.736 -10.523 
-22.9282 -15.4837 -25.60342 -28.25212 -36.11164 -41.06074 -37.17682 -34.82072 -27.3915 -22.6341 -16.1879 -15.8374 -13.7539 -12.3384 -13.6905 -9.1855 -13.2834 -10.4355 -8.5725 -15.7226 -18.4439 -22.9735 -32.844 -25.5636 -16.736 
-25.82 -28.55782 -32.24042 -41.20864 -45.40914 -49.34654 -42.24452 -39.56122 -32.1564 -24.5501 -21.8303 -17.7929 -17.6358 -14.8634 -14.1235 -14.3001 -14.3369 -10.4355 -17.5663 -24.32 -24.8605 -32.844 -34.5405 -25.5636 
-1.4985 -4.106 -1.7565 -4.617 -3.1495 -3.9915 -1.7695 -2.664 -4.584 -4.397 -1.934 -2.9705 -1.4985 -3.6065 -4.9715 -1.7565 -5.4805 -2.7765 -2.489 -4.4495 -3.4045 -2.871 -3.571 -2.8645 -2.6165 -3.1125 -3.77 -1.7695 -3.1715 -1.7695 -1.4985 -6.771 0 -3.135 -5.515 -2.674 -3.4765 -6.1275 -3.1495 -8.071501 -2.5045 -3.882 -4.874 -1.756 -6.697001 -2.5045 -4.2235 -3.9535 0 
-5.005 -5.439001 -5.824 -7.3585 -6.336 -5.7605 -4.185 -6.352 -9.295 -6.002501 -4.051 -4.186 -4.8665 -7.048 -5.667 -7.828001 -8.453 -3.495 -5.9125 -7.2665 -6.169001 -5.0305 -6.8245 -4.475 -4.595 -6.495 -4.2755 -4.257 -3.558 -2.7955 -7.702001 -6.771 -3.135 -7.121 -6.748 -5.7815 -8.887 -8.5045 -9.923 -9.897001 -7.137501 -7.6 -6.1495 -7.654 -8.4805 -6.778 -6.426001 -3.9535 
-5.6555 -8.151001 -8.295501 -10.6885 -7.921 -8.2225 -8.042001 -9.882501 -10.6475 -7.148001 -4.6815 -7.479501 -8.039001 -7.6775 -10.5425 -10.5135 -9.5915 -7.138 -8.2335 -9.697001 -7.625501 -8.123 -8.559 -4.915 -7.2375 -7.0665 -6.615 -5.2535 -5.472 -9.214001 -7.702001 -9.604 -7.121 -7.940501 -9.401001 -10.1425 -10.523 -10.7335 -10.7065 -10.7375 -9.326 -8.604 -10.733 -9.277 -10.6475 -8.3055 -6.426001 
-8.344501 -9.723001 -10.733 -10.727 -9.953 -10.7025 -10.6465 -10.6915 -10.74 -7.7875 -7.748001 -10.0925 -8.587501 -10.7325 -10.75 -10.6505 -10.7355 -9.198501 -10.213 -10.7045 -10.426 -9.641001 -9.136001 -7.3565 -8.003 -9.507501 -7.6245 -5.919001 -10.503 -9.214001 -10.523 -10.735 -7.940501 -9.674001 -10.7345 -10.74 -10.75 -10.76 -10.762 -10.764 -10.4865 -10.7335 -10.7595 -10.7335 -10.7555 -8.3055 
-10.322 -10.736 -10.7595 -10.7825 -10.7375 -10.758 -10.7545 -10.745 -10.7815 -10.586 -10.347 -10.6275 -10.733 -10.759 -10.7765 -10.771 -10.762 -10.6875 -10.741 -10.76 -10.673 -9.9825 -10.575 -8.1405 -10.66 -10.469 -8.445001 -10.609 -10.503 -10.734 -10.75 -10.7615 -9.674001 -10.735 -10.761 -10.7665 -10.7765 -10.7865 -10.7885 -10.7905 -10.7495 -10.76 -10.786 -10.76 -10.7555 
-9.936501 -4.255 -9.0865 -4.5875 -4.4885 -1.7695 -8.013 -12.16972 -12.16972 0 -2.0935 -2.3335 -5.866 -3.135 -1.7565 -5.2835 -1.7695 -4.2655 -3.213 -2.0935 -4.584 -3.9725 -12.16972 -6.637 -12.16972 -7.183001 -9.231001 
-14.2669 -14.3225 -13.877 -10.7665 -6.797 -10.575 -20.71092 -24.33944 -12.16972 -2.0935 -4.488501 -8.027 -8.672501 -3.9195 -6.2535 -7.0675 -6.2495 -7.8895 -4.5705 -7.369 -9.081 -17.08522 -18.80672 -19.59352 -19.35272 -16.994 
-24.3344 -19.113 -20.056 -13.075 -16.3127 -23.27292 -32.88064 -24.33944 -14.26322 -4.488501 -10.732 -11.1385 -9.3605 -10.543 -8.175501 -11.9651 -9.365001 -9.455 -9.812 -12.2918 -22.38152 -23.72222 -31.76324 -26.77652 -29.16372 
-29.1249 -25.292 -22.3645 -22.5907 -29.01062 -35.44264 -32.88064 -26.43294 -16.65822 -10.732 -13.8435 -11.8265 -15.9292 -12.465 -13.3601 -15.0806 -11.3111 -14.8649 -15.0378 -25.59232 -29.01852 -36.67874 -38.94624 -36.58752 
-35.3039 -27.6005 -31.8802 -35.28862 -41.18034 -35.44264 -34.97414 -28.82794 -22.90172 -13.8435 -14.5315 -18.3952 -17.8512 -17.6496 -16.4756 -17.0267 -16.721 -20.0907 -28.33832 -32.22932 -41.97504 -43.86174 -48.75724 
