-4.759 
n/a 
n/a 
n/a 
n/a 
-4.759 
n/a 
n/a 
n/a 
n/a 
-4.759 
n/a 
n/a 
n/a 
n/a 
-4.759 
n/a 
n/a 
n/a 
n/a 
-7.331 -4.6045 -1.4985 -3.127 -2.5195 -2.5685 -4.2115 -2.3345 -3.7285 -4.1475 0 
-13.033 -5.713 -4.269 -4.712 -4.7035 -6.653 -6.396501 -6.4285 -7.0225 -4.1475 
-14.5591 -7.028501 -5.8535 -6.7035 -8.4445 -8.907001 -10.66 -10.264 -7.0225 
-16.0946 -8.261001 -7.6425 -10.7319 -10.674 -13.7467 -14.4955 -10.264 
-17.3271 -9.309 -11.9879 -12.9614 -16.1599 -17.5822 -14.4955 
-3.308 -4.398 -2.4265 -4.6045 -2.5685 -1.4985 -2.9195 -1.934 -2.871 -3.5015 -1.756 -3.6845 -9.049001 
-7.011 -6.5915 -7.791 -6.334001 -3.7015 -4.4535 -5.0645 -4.2805 -5.183 -5.087 -5.0105 -14.0103 
-9.3085 -12.3784 -9.234 -6.8415 -6.121 -6.2805 -7.137 -5.298 -6.628 -8.062 -15.6911 
-15.8028 -13.8214 -9.572001 -8.538501 -7.7705 -8.2185 -8.22 -6.7495 -9.3715 -18.9608 
-17.2458 -14.1594 -11.3746 -11.649 -8.266001 -9.255501 -9.878 -9.5045 -20.5045 
-4.6045 -4.267 -2.9195 -2.871 -2.9775 -3.394 -4.548 -2.264 -3.486 -2.95 -3.4605 -1.934 -3.16 -3.6705 -2.9825 
-9.794001 -7.7335 -6.5445 -5.384501 -6.0705 -8.184 -6.000501 -6.119 -4.563 -6.745501 -5.5225 -5.4145 -7.3125 -7.578001 
-13.3745 -12.0481 -8.531501 -9.1525 -11.7499 -10.6317 -11.3173 -8.793501 -9.353001 -10.1225 -8.9575 -10.007 -11.8436 
-17.6891 -14.0351 -13.5621 -14.9621 -14.1976 -15.9485 -13.9918 -13.7507 -12.9954 -13.5575 -13.905 -14.5381 
-19.6761 -19.0657 -19.3717 -17.4098 -19.5144 -18.623 -18.949 -17.3931 -16.4304 -18.505 -18.4361 
-6.658 0 -3.4605 -2.4285 -3.7205 -4.855 -2.9195 -4.367 -1.934 -1.8085 -3.5135 -1.756 -3.837 -3.277 -1.934 -1.8085 -4.7315 -3.333 0 
-6.658 -3.4605 -5.2625 -5.6505 -9.790001 -7.8685 -5.3455 -6.3015 -3.2685 -5.059 -5.143 -5.554 -6.7765 -4.5955 -3.2685 -6.8925 -7.252 -3.333 
-10.674 -5.2625 -8.196501 -13.7706 -12.8491 -10.2985 -7.691501 -8.0775 -6.486001 -6.912 -9.0845 -7.536 -8.0115 -5.592 -7.867001 -8.541 -7.252 
-12.476 -8.196501 -17.2644 -16.8297 -15.2791 -12.8137 -9.0755 -11.6642 -8.224001 -11.3483 -10.75 -8.617001 -8.750501 -9.718 -8.635 -8.541 
-15.41 -17.2644 -20.3235 -19.2597 -17.7943 -14.1977 -13.0882 -13.4022 -12.9041 -13.0138 -11.831 -9.2015 -13.0587 -10.318 -8.635 
