-4.759 
n/a 
n/a 
n/a 
n/a 
-4.759 
n/a 
n/a 
n/a 
n/a 
-4.759 
n/a 
n/a 
n/a 
n/a 
-4.759 
n/a 
n/a 
n/a 
n/a 
-3.508 -2.743 -4.624 -4.622 -3.1435 -5.429 -4.99 -1.7695 -3.38 -3.7345 -4.0465 -2.356 -2.743 -5.77 
-5.574 -7.803 -7.936 -6.0965 -9.419001 -8.1285 -6.7835 -5.55 -5.935 -5.636 -6.124001 -5.844 -7.9115 
-10.3675 -11.4626 -8.901 -13.055 -12.1933 -11.8984 -10.287 -7.844501 -5.995 -7.827001 -9.2215 -9.7405 
-14.0271 -12.4276 -16.2437 -15.8293 -15.9632 -15.4019 -12.8121 -7.883 -8.099 -10.3095 -13.6186 
-14.9921 -19.7703 -19.018 -19.5992 -19.4667 -17.927 -12.8506 -10.6465 -10.316 -15.7824 
-3.508 -2.743 0 -4.624 -2.229 -4.9875 -4.31 -5.429 -5.5435 -3.4045 -3.222 -3.7345 -2.356 -1.8085 -7.659 -4.4365 
-5.574 -2.743 -4.624 -5.544 -7.2415 -6.6795 -8.8065 -8.7665 -6.941501 -6.0715 -6.0775 -5.794 -3.4075 -8.5165 -11.0805 
-5.574 -7.803 -5.544 -7.954 -8.419001 -9.458 -12.4106 -8.779 -8.726001 -7.3885 -7.7485 -6.6735 -8.686501 -8.58 
-10.3675 -9.007001 -7.954 -9.625501 -11.7545 -13.3729 -12.4231 -11.1253 -9.085501 -8.905001 -8.6155 -12.5015 -10.9415 
-11.5715 -11.722 -9.625501 -13.1786 -15.6694 -13.3854 -14.7694 -11.4848 -10.0855 -9.651501 -14.5645 -13.556 
-3.508 -2.743 0 -4.624 -7.684 -6.036 -2.356 -2.743 -4.6195 -2.7415 -4.622 -2.0935 -3.7345 0 
-5.574 -2.743 -4.624 -13.5888 -14.342 -8.058001 -5.844 -8.263 -7.6955 -5.66 -6.731501 -5.848001 -3.7345 
-5.574 -7.803 -13.5888 -20.2468 -16.364 -11.872 -11.9408 -11.6006 -9.986501 -7.8245 -10.513 -5.848001 
-10.3675 -17.1154 -20.2468 -22.2688 -20.178 -17.9688 -15.2784 -13.8916 -12.128 -11.904 -10.513 
-19.6799 -23.7734 -22.2688 -26.0828 -26.2748 -21.3064 -17.5694 -16.0331 -16.2075 -11.904 
-3.508 -2.743 -4.624 -2.229 -5.429 -5.3895 -3.251 -4.622 -2.356 -2.743 -3.1385 -1.7695 -3.38 -3.7345 -4.0465 
-5.574 -7.803 -5.544 -7.6585 -10.1855 -8.1645 -7.033501 -6.5705 -5.844 -6.107 -4.6115 -5.55 -5.935 -5.636 
-10.3675 -9.007001 -9.6785 -12.8914 -13.1403 -12.2096 -9.190001 -9.9055 -8.4235 -8.1085 -9.399 -7.844501 -5.995 
-11.5715 -13.4465 -15.2474 -15.8462 -17.1854 -14.3661 -12.6278 -12.5914 -10.361 -13.4186 -11.7023 -7.883 
-16.011 -19.0154 -18.2022 -19.8913 -19.3419 -17.8039 -15.3137 -14.5289 -15.6711 -15.7219 -11.7408 
