-4.759 
n/a 
n/a 
n/a 
n/a 
-4.759 
n/a 
n/a 
n/a 
n/a 
-4.759 
n/a 
n/a 
n/a 
n/a 
-4.759 
n/a 
n/a 
n/a 
n/a 
-3.428 0 -10.939 0 -12.16972 0 0 -2.701 0 0 -2.7275 0 
-3.428 -10.939 -10.939 -12.16972 -12.16972 0 -2.701 -2.701 0 -2.7275 -2.7275 
-14.9398 -10.939 -23.10872 -12.16972 -12.16972 -2.701 -2.701 -2.701 -2.7275 -2.7275 
-14.9398 -23.10872 -23.10872 -12.16972 -14.87072 -2.701 -2.701 -4.7405 -2.7275 
-27.10952 -23.10872 -23.10872 -14.87072 -14.87072 -2.701 -4.7405 -4.7405 
-3.2495 -4.6945 -1.756 -3.54 0 -9.849501 0 0 -4.483 0 0 -1.8085 0 
-5.97 -6.285001 -5.1005 -3.54 -9.849501 -9.849501 0 -4.483 -4.483 0 -1.8085 -1.8085 
-6.8595 -7.941501 -5.1005 -14.5139 -9.849501 -9.849501 -4.483 -4.483 -4.483 -1.8085 -1.8085 
-8.2585 -7.941501 -16.222 -14.5139 -9.849501 -14.5459 -4.483 -4.483 -5.383 -1.8085 
-8.2585 -19.7836 -16.222 -14.5139 -14.5459 -14.5459 -4.483 -5.383 -5.383 
-3.428 -12.16972 
-16.17052 
n/a 
n/a 
n/a 
-3.428 0 -6.803 -9.5495 0 -3.783 0 0 -5.3565 0 0 -1.8085 0 
-3.428 -6.803 -10.9315 -9.5495 -3.783 -3.783 0 -5.3565 -5.3565 0 -1.8085 -1.8085 
-10.186 -10.9315 -10.9315 -13.6557 -3.783 -3.783 -5.3565 -5.3565 -5.3565 -1.8085 -1.8085 
-14.5005 -10.9315 -15.0377 -13.6557 -3.783 -9.337501 -5.3565 -5.3565 -7.2535 -1.8085 
-14.5005 -15.0377 -15.0377 -13.6557 -9.337501 -9.337501 -5.3565 -7.2535 -7.2535 
