-4.759 
n/a 
n/a 
n/a 
n/a 
-4.759 
n/a 
n/a 
n/a 
n/a 
-4.759 
n/a 
n/a 
n/a 
n/a 
-4.759 
n/a 
n/a 
n/a 
n/a 
-6.316 -2.8645 -3.5185 0 -6.298 -2.8645 -1.7695 -3.7085 -4.092 -1.756 -6.341 -2.8645 -1.7695 -4.4885 
-8.9545 -8.0005 -3.5185 -6.298 -8.759501 -4.4755 -4.19 -6.7625 -5.037 -8.009501 -8.7075 -4.4755 -5.032 
-14.1505 -8.0005 -11.3251 -8.759501 -10.354 -6.884501 -6.9855 -7.9545 -12.7715 -10.553 -10.647 -7.912 
-14.1505 -16.1533 -13.7866 -10.354 -12.7866 -9.9894 -8.3995 -16.1628 -15.315 -12.4925 -14.0835 
-22.3033 -18.6148 -15.3811 -12.7866 -15.8915 -11.4034 -16.769 -18.7063 -17.2545 -15.929 
-6.316 -4.174 -4.2705 0 -6.298 -2.742 -3.619 -3.3435 0 -6.648 -4.174 -3.956 
-9.948501 -6.5105 -4.2705 -6.298 -9.237 -5.5525 -7.2895 -3.3435 -6.648 -11.6142 -8.3575 
-12.6978 -6.5105 -10.7175 -9.237 -12.1463 -9.538 -7.2895 -10.6735 -11.6142 -15.7977 
-12.6978 -14.0037 -13.6565 -12.1463 -16.1318 -9.538 -15.1839 -15.6397 -15.7977 
-20.191 -16.9427 -16.5658 -16.1318 -16.1318 -17.46 -20.1501 -19.8232 
-3.1385 -3.644 -6.316 -1.4985 -4.6495 0 -6.298 -1.4985 -5.3405 0 -5.923 -1.4985 -7.43 
-6.9615 -9.595 -7.747001 -5.6025 -4.6495 -6.298 -7.748 -6.660001 -5.3405 -5.923 -7.530001 -8.580001 
-12.8601 -11.2812 -8.257501 -5.6025 -8.735001 -7.748 -9.43 -6.660001 -10.564 -7.530001 -15.0455 
-14.5463 -11.7917 -8.257501 -8.797001 -8.849001 -9.43 -9.43 -10.6735 -12.171 -15.0455 
-15.0568 -11.7917 -8.908501 -8.855 -10.135 -9.43 -10.7035 -12.2805 -19.6865 
-8.2945 -2.0935 -4.9015 -1.756 -6.298 -2.0935 -4.092 -1.756 -6.648 -2.0935 -5.171 0 
-10.8216 -6.5955 -5.638 -7.8855 -8.81 -5.8335 -5.037 -8.565001 -9.506001 -7.609 -5.171 
-15.3236 -7.185 -12.8713 -10.1425 -12.7602 -6.773 -13.327 -11.7656 -15.2839 -7.609 
-15.9131 -14.7707 -15.1283 -14.1759 -13.6997 -15.9282 -16.5276 -17.5435 -15.2839 
-23.4988 -17.0277 -19.1617 -15.1154 -22.8549 -19.1288 -22.3055 -17.5435 
