-4.759 
n/a 
n/a 
n/a 
n/a 
-4.759 
n/a 
n/a 
n/a 
n/a 
-4.759 
n/a 
n/a 
n/a 
n/a 
-4.759 
n/a 
n/a 
n/a 
n/a 
-2.0935 -2.3335 -4.672 -2.186 -3.917 -2.5045 -1.8085 -3.9515 -2.0935 -5.011 0 
-4.488501 -7.8195 -7.0465 -5.384 -5.6565 -3.3625 -5.7485 -6.0325 -7.0655 -5.011 
-10.7335 -8.7275 -10.7251 -6.7765 -6.4125 -7.0745 -8.394001 -11.7473 -7.0655 
-11.6415 -12.5423 -12.1176 -7.541501 -10.476 -9.111 -14.4594 -11.7473 
-15.4563 -13.9348 -12.8826 -11.774 -12.5125 -15.1886 -14.4594 
-4.4895 -3.9515 -2.7415 -7.942501 
-8.1835 -6.6305 -12.0498 
-10.4345 -16.2396 
-20.0436 
n/a 
-3.834 -2.3335 -4.672 -2.7415 -1.4985 -4.4895 -3.9515 -1.7565 -1.4985 -3.4225 -4.0965 0 
-6.0605 -7.8195 -7.616001 -4.063 -5.6305 -8.1835 -5.368 -2.4195 -3.9655 -4.2 -4.0965 
-12.2723 -9.3035 -8.6675 -8.32 -8.656 -8.767 -5.843 -4.6245 -5.179 -4.2 
-13.7563 -10.2395 -10.382 -9.569 -8.882 -9.026 -7.41 -6.037 -5.179 
-14.6923 -11.954 -12.5954 -9.671 -9.13 -9.769 -8.591001 -6.037 
-7.942501 -3.2875 -2.7415 -1.4985 -3.9515 -1.7565 -4.834 -4.732 -2.3335 -3.8405 
-10.8415 -5.934 -4.063 -5.059 -5.368 -6.5955 -9.7745 -7.120501 -5.7085 
-13.488 -7.2545 -7.179 -5.839 -10.4345 -11.9642 -12.7806 -9.130501 
-14.8085 -8.557501 -7.29 -11.2359 -15.8032 -14.9703 -14.7906 
-16.1115 -8.620001 -13.1379 -16.6046 -18.8093 -16.9803 
