-4.759 
n/a 
n/a 
n/a 
n/a 
-4.759 
n/a 
n/a 
n/a 
n/a 
-4.759 
n/a 
n/a 
n/a 
n/a 
-4.759 
n/a 
n/a 
n/a 
n/a 
-1.934 -2.3615 -4.1215 -4.2085 -4.0185 -2.4945 -3.9205 -1.7695 -2.489 -3.2825 -4.0185 -3.9225 -1.4985 -2.5685 -2.8965 -4.0185 -1.934 -1.4985 -3.188 0 
-3.539 -6.587 -8.479 -7.693001 -5.727 -5.3595 -4.971 -3.1405 -5.7145 -6.339001 -7.4835 -4.463 -4.907001 -4.555 -5.776 -5.436501 -2.6125 -3.619 -3.188 
-7.264 -11.6383 -12.5749 -9.268001 -8.571 -5.7925 -5.645 -6.792 -10.533 -9.833501 -8.219001 -7.892 -7.631001 -7.419 -6.864 -5.7805 -4.377 -3.619 
-12.5369 -15.7342 -14.1499 -12.2408 -9.0345 -6.3405 -9.2355 -10.6735 -14.0275 -10.236 -11.836 -10.3345 -10.894 -7.8755 -7.095 -6.868001 -4.377 
-16.6328 -17.3092 -17.1227 -12.7043 -9.7375 -9.6645 -13.3426 -14.168 -14.43 -13.853 -14.2785 -13.7997 -11.3505 -7.9075 -9.1765 -6.868001 
-2.925 -2.4945 -1.4985 -4.834 -3.2825 -4.0185 -1.7565 -2.3615 -3.5065 
-3.7675 -3.9315 -5.5435 -6.4275 -6.339001 -5.9405 -3.523 -5.0065 
-5.322001 -7.777 -6.762 -8.882 -7.678501 -7.887001 -6.318 
-8.8605 -8.804501 -8.914001 -10.3163 -9.494 -8.6905 
-9.846001 -11.2249 -10.3697 -12.1318 -10.6745 
-1.934 -2.3615 -3.5065 -9.4385 -2.4945 -3.4155 -4.0185 -1.934 -1.4985 -3.188 
-3.539 -5.0065 -14.0288 -10.862 -5.318501 -6.7135 -5.436501 -2.6125 -3.619 
-6.0305 -16.2324 -15.4523 -13.686 -8.119 -7.97 -5.7805 -4.377 
-17.3968 -17.6559 -18.2763 -16.4865 -9.645 -8.408 -6.868001 
-18.8203 -20.4799 -21.0768 -18.0125 -10.363 -9.683001 
-3.691 -4.0185 -2.4945 -1.4985 -3.188 -3.2825 -4.0185 -1.934 -2.3615 -3.5065 
-8.387 -5.727 -3.9315 -3.619 -6.731501 -6.339001 -5.436501 -3.539 -5.0065 
-10.168 -7.4215 -6.2285 -7.2135 -9.625 -6.942 -6.842 -6.0305 
-11.8625 -9.3555 -9.595501 -9.836 -10.376 -8.867001 -8.109 
-13.7965 -13.7595 -12.352 -10.6688 -12.301 -9.9475 
