-4.759 
n/a 
n/a 
n/a 
n/a 
-4.759 
n/a 
n/a 
n/a 
n/a 
-4.759 
n/a 
n/a 
n/a 
n/a 
-4.759 
n/a 
n/a 
n/a 
n/a 
-8.308001 -12.16972 -7.539001 -7.716001 0 -8.382501 0 0 -9.9215 -7.751501 -7.716001 -1.756 -9.611 -7.772501 -7.7735 -2.4945 -3.9225 -2.8965 -5.0455 -4.085 
-21.38192 -19.70872 -8.9855 -7.716001 -8.382501 -8.382501 0 -9.9215 -10.6215 -7.826001 -9.329 -12.3756 -10.139 -8.5345 -11.0364 -5.49 -5.1825 -6.8015 -9.306001 
-28.92092 -21.15522 -8.9855 -9.8205 -8.382501 -8.382501 -9.9215 -10.6215 -10.6675 -9.467001 -20.1558 -12.9036 -10.1455 -12.205 -14.0319 -7.690001 -8.7235 -10.3675 
-30.36742 -21.15522 -9.857501 -9.8205 -8.382501 -18.6592 -10.6215 -10.6675 -12.3085 -20.3498 -20.6838 -12.9101 -13.9764 -15.2005 -16.2319 -10.6465 -12.4021 
-30.36742 -22.02722 -9.857501 -9.8205 -18.6592 -19.3592 -10.6675 -12.3085 -23.1913 -20.8778 -20.6903 -16.741 -16.9719 -17.4005 -19.1884 -14.3251 
-8.382501 0 -6.524 0 -3.074 -3.333 
-8.382501 -6.524 -6.524 -3.074 -4.8285 
-15.2617 -6.524 -10.2185 -4.8285 
-15.2617 -10.2185 -11.973 
-18.9562 -11.973 
-8.382501 0 -6.499 -2.4945 -1.4985 -3.17 -3.6975 -3.9655 -7.115 
-8.382501 -6.499 -10.007 -3.9315 -3.7115 -4.1885 -7.397501 -8.939 
-15.2367 -10.007 -11.444 -5.324 -5.088 -7.752 -12.9726 
-18.7447 -11.444 -12.8365 -6.496 -8.3915 -14.1091 
-20.1817 -12.8365 -14.0085 -9.932501 -14.502 
-3.074 -8.308001 -12.16972 -7.539001 -9.587501 0 -12.16972 -9.517 -9.587501 0 -9.611 -7.772501 -7.7735 -2.4945 -2.3615 -4.085 -2.674 -2.985 -3.9825 -1.7695 -3.6675 0 
-12.3824 -21.38192 -19.70872 -18.1321 -9.587501 -12.16972 -21.68672 -19.9001 -9.587501 -9.611 -10.139 -8.5345 -11.0364 -5.9245 -8.4775 -5.5405 -5.042 -5.797501 -5.7625 -4.3935 -3.6675 
-25.45632 -28.92092 -30.30182 -18.1321 -21.87902 -21.68672 -32.06982 -19.9001 -19.3203 -10.139 -10.1455 -12.205 -14.4664 -12.5239 -10.4345 -8.141001 -8.2885 -7.491 -6.109 -4.3935 
-32.99532 -39.51402 -30.30182 -30.42362 -31.39602 -32.06982 -32.06982 -29.6329 -19.8483 -10.1455 -13.9764 -15.635 -21.0658 -14.4809 -13.035 -11.7527 -8.870001 -8.4375 -6.109 
-43.58842 -39.51402 -42.59334 -39.94062 -41.77912 -32.06982 -41.80262 -30.1609 -19.8548 -13.9764 -17.4064 -22.2344 -23.0228 -17.0814 -16.6467 -12.3342 -8.882 -8.4375 
