-4.759 
n/a 
n/a 
n/a 
n/a 
-4.759 
n/a 
n/a 
n/a 
n/a 
-4.759 
n/a 
n/a 
n/a 
n/a 
-4.759 
n/a 
n/a 
n/a 
n/a 
-3.321 -3.098 -3.4765 -1.4985 -4.4545 -3.4715 -2.264 -2.985 -4.4705 -5.5755 -2.742 -2.6165 -2.489 -5.221 -2.3345 -1.4985 -3.999 -6.501 0 
-6.0555 -7.205 -4.778 -5.324 -6.5295 -5.7995 -4.3835 -6.290501 -10.016 -8.172001 -3.995 -3.82 -6.507 -6.013 -3.233 -4.7585 -7.7105 -6.501 
-10.2865 -8.8085 -8.1575 -7.6095 -8.7745 -7.731 -8.05 -12.3902 -13.1109 -9.654001 -4.35 -7.4255 -7.0955 -6.61 -6.7995 -8.080501 -7.7105 
-11.89 -12.2102 -10.4675 -9.865001 -10.5975 -10.553 -14.2477 -15.4851 -14.5929 -10.183 -8.057 -8.123501 -7.6775 -10.6215 -9.655001 -8.080501 
-15.2917 -14.5202 -12.723 -11.8826 -13.4195 -16.7507 -17.3426 -16.9671 -15.1219 -14.0484 -8.6735 -8.5515 -11.8252 -13.477 -9.655001 
-3.098 -3.321 -1.4985 -4.4545 -3.4715 -2.9705 -3.6955 -2.742 -3.074 -2.6165 -2.489 -6.3145 0 
-6.02 -4.481 -5.324 -6.5295 -6.2135 -6.3585 -7.16 -4.5095 -5.645 -3.82 -9.366 -6.3145 
-7.459 -7.932 -7.6095 -8.538 -9.783001 -10.2985 -9.333 -6.9555 -6.818 -11.4054 -9.366 
-11.071 -10.7175 -9.1745 -12.3157 -13.825 -13.1549 -11.845 -7.381 -14.5502 -11.4054 
-13.8565 -12.2825 -13.1178 -16.3577 -16.6814 -15.6669 -12.2705 -15.4152 -14.5502 
-3.321 -3.098 -1.4985 -4.4545 -3.4715 -4.0225 -3.9875 -1.4985 -3.545 -2.742 -2.489 -4.554 0 
-6.0555 -4.514 -5.324 -6.5295 -7.074 -7.88 -4.653 -4.401 -6.1445 -3.301 -6.8035 -4.554 
-7.007 -8.706 -7.6095 -9.456 -9.8465 -8.6585 -6.6325 -6.6435 -6.7215 -7.923501 -6.8035 
-11.4556 -11.1873 -10.172 -12.7709 -10.252 -9.4535 -9.130501 -7.2375 -11.685 -7.923501 
-13.9369 -13.7498 -13.6995 -13.1764 -11.047 -12.1283 -9.861 -12.3888 -11.685 
-1.934 -3.45 -3.4795 -3.4765 -1.4985 -4.4545 -3.4715 -4.5165 -2.5195 -12.16972 -7.175 -2.6165 -2.489 -5.221 -2.3345 -3.277 0 
-5.009 -5.6655 -6.627501 -4.778 -5.324 -6.5295 -7.4575 -5.5195 -15.36282 -19.34472 -8.4715 -3.82 -6.507 -6.013 -5.5635 -3.277 
-5.997 -8.351501 -7.976 -8.1575 -7.6095 -8.794001 -7.999001 -19.00842 -22.53782 -20.64122 -8.748 -7.4255 -7.0955 -8.455501 -5.5635 
-8.505501 -9.2965 -11.4233 -10.4675 -9.630501 -9.2965 -21.76852 -26.18342 -23.83432 -20.91772 -12.5709 -8.123501 -9.1815 -8.455501 
-9.375 -12.751 -13.7333 -12.4885 -10.324 -23.47182 -28.94352 -27.47992 -24.11082 -24.74062 -13.2689 -10.3285 -9.1815 
