-4.759 
n/a 
n/a 
n/a 
n/a 
-4.759 
n/a 
n/a 
n/a 
n/a 
-4.759 
n/a 
n/a 
n/a 
n/a 
-4.759 
n/a 
n/a 
n/a 
n/a 
-1.4985 -8.3415 -1.756 -8.171 -1.7695 -5.6255 -2.985 -4.6195 -4.0875 -4.023 -4.1665 -3.5455 -1.4985 -3.498 -1.7565 -4.8835 -4.153 0 
-8.610001 -9.065001 -9.609 -10.2435 -5.902501 -6.8155 -6.571 -8.368 -8.764 -6.9525 -6.8945 -3.91 -4.0295 -4.005 -6.9115 -6.8875 -4.153 
-9.288501 -10.029 -11.6839 -14.4885 -7.145501 -9.554001 -10.8379 -13.3641 -9.925501 -9.740001 -7.2 -7.167 -4.188 -8.420501 -8.820001 -6.8875 
-10.3615 -12.1039 -15.9289 -15.7315 -9.974501 -13.9305 -15.834 -14.5256 -12.7852 -10.098 -10.543 -7.3325 -8.618001 -10.0575 -8.820001 
-12.4364 -16.3489 -17.1719 -18.5605 -14.4196 -18.9266 -16.9955 -17.3853 -13.1432 -13.441 -10.7085 -11.9549 -10.4265 -10.0575 
-1.7695 -4.503 -2.985 -5.362 -9.758 -1.756 -8.171 -5.2725 -3.277 -2.5045 -1.4985 -3.498 -1.7565 -4.8835 -4.153 -5.1885 -1.756 -2.3615 -2.7415 -1.4985 -3.0835 -3.6505 -3.7015 -3.277 0 
-4.7785 -6.413 -7.562 -16.1906 -10.674 -9.609 -11.117 -7.476 -5.2685 -3.1915 -4.0295 -4.005 -6.9115 -6.8875 -10.035 -7.2925 -4.4615 -4.455 -4.063 -3.535 -6.697001 -5.5495 -5.6755 -3.277 
-6.5895 -10.5325 -18.6748 -17.1066 -18.527 -12.5574 -13.3205 -8.7965 -5.9055 -4.454 -4.188 -8.420501 -8.820001 -13.3717 -12.0536 -10.543 -5.895 -5.3025 -5.12 -7.090501 -8.809 -7.4295 -5.6755 
-10.8386 -21.6453 -19.5908 -24.9596 -21.4754 -14.7609 -14.641 -9.28 -7.0205 -4.526 -8.618001 -10.0575 -15.3768 -15.3903 -15.3041 -11.9765 -6.674 -6.043 -8.578501 -9.535501 -10.9866 -7.4295 
-21.9514 -22.5613 -27.4438 -27.908 -23.6789 -16.0814 -15.1245 -11.0008 -7.1105 -8.976501 -10.4265 -16.6143 -17.3954 -18.6408 -16.7376 -12.7555 -7.4655 -9.5065 -10.749 -11.8487 -10.9866 
-11.0235 -2.229 -2.4945 -4.196 -4.9375 -3.433 -1.7565 -6.1775 -1.4985 -3.5435 -2.3345 -8.013 -2.229 -1.756 -8.897 -2.229 0 
-13.2525 -5.159 -5.439 -8.203 -7.2785 -4.1845 -8.4595 -8.601 -4.2755 -6.1215 -9.6595 -9.321001 -4.366 -10.7175 -10.9575 -2.229 
-16.1825 -8.1855 -9.371 -10.8858 -7.6105 -11.7769 -10.4505 -11.657 -6.8625 -14.1247 -11.1829 -12.0512 -13.6179 -12.778 -10.9575 
-19.209 -12.3037 -12.3218 -11.2178 -15.5571 -13.7679 -13.5065 -14.244 -15.1685 -15.6481 -13.9131 -21.3031 -15.6784 -12.778 
-23.3272 -15.2545 -12.6538 -19.1644 -17.5481 -16.8239 -16.0935 -22.55 -16.6919 -18.3783 -23.165 -23.3636 -15.6784 
-9.758 -1.756 -8.171 -4.3315 -5.2725 -12.16972 -1.934 -1.4985 -3.498 -1.7565 -4.8835 -4.153 -1.7695 -4.503 -2.985 -4.0965 0 
-10.674 -9.609 -13.0117 -7.995 -18.19382 -14.10372 -2.6125 -4.0295 -4.005 -6.9115 -6.8875 -6.192 -4.7785 -6.413 -7.458 -4.0965 
-18.527 -14.4521 -16.6752 -21.35212 -20.12782 -14.78222 -5.101 -4.188 -8.420501 -8.820001 -8.776501 -8.835001 -6.5895 -9.885 -7.458 
-23.3701 -18.1156 -30.03232 -23.28612 -20.80632 -17.27072 -6.413 -8.618001 -10.0575 -10.7816 -11.6655 -10.5135 -10.095 -9.885 
-27.0336 -31.47272 -31.96632 -23.96462 -23.29482 -18.58272 -10.9372 -10.4265 -12.0191 -13.6706 -13.344 -14.019 -10.095 
