-4.759 
n/a 
n/a 
n/a 
n/a 
-4.759 
n/a 
n/a 
n/a 
n/a 
-4.759 
n/a 
n/a 
n/a 
n/a 
-4.759 
n/a 
n/a 
n/a 
n/a 
-1.8085 -3.284 -3.098 -8.898001 -3.299 -3.284 -1.934 -2.3615 -3.892 -1.756 -3.383 -4.4695 -1.756 -2.186 -3.958 -2.0935 -2.645 -3.1575 -3.3935 -3.277 0 
-4.997 -5.855 -12.3894 -12.5812 -4.0885 -5.0005 -3.539 -5.6425 -5.337 -5.029 -6.6995 -6.175 -3.986 -5.228 -5.537 -3.883 -3.72 -5.109 -5.436 -3.277 
-8.1245 -15.7558 -16.0726 -13.3707 -5.674 -7.117001 -5.9775 -6.95 -8.922501 -8.547001 -7.8595 -8.49 -7.24 -6.569 -7.614 -4.941 -5.317 -6.4635 -5.436 
-18.6065 -19.439 -16.8621 -14.9562 -8.085501 -9.47 -7.2485 -10.199 -12.6483 -9.894501 -9.578501 -11.95 -8.3345 -8.417 -7.860001 -6.5915 -6.4995 -6.4635 
-22.2897 -20.2285 -18.4476 -17.3677 -10.5139 -10.6355 -10.403 -13.9248 -13.9958 -11.6135 -13.0549 -13.0445 -10.4047 -9.477 -9.7685 -6.8 -6.4995 
-8.898001 -3.93 -7.762001 -3.284 -2.186 -3.3935 -3.277 -4.6365 -4.4695 -3.284 -1.934 -2.3615 -3.2875 0 
-11.046 -9.9895 -8.620501 -5.358 -5.526 -5.436 -8.764501 -9.855 -8.0505 -5.0005 -3.539 -5.6385 -3.2875 
-17.1055 -10.177 -10.9433 -8.88 -7.504 -10.6335 -14.2272 -13.5038 -9.1385 -7.117001 -6.1865 -5.6385 
-17.293 -12.4998 -14.4653 -10.155 -13.6815 -16.0962 -17.876 -14.5918 -11.347 -9.085501 -6.1865 
-19.6158 -16.0218 -15.7403 -17.4847 -19.1442 -19.745 -18.964 -16.8003 -13.3155 -9.085501 
-8.6075 -3.93 -4.3715 -3.284 -1.934 -2.3615 -3.8955 -2.186 -3.3935 -3.277 -3.5905 0 
-13.0335 -6.985001 -5.4425 -5.0005 -3.539 -5.9455 -5.924 -5.526 -5.436 -4.7035 -3.5905 
-16.0885 -7.3585 -6.879 -7.117001 -6.432 -7.1715 -9.654 -7.504 -6.697 -4.7035 
-16.462 -8.894 -8.896 -9.2015 -8.005501 -11.2075 -11.71 -7.9485 -6.697 
-17.9975 -10.935 -11.3859 -10.8804 -12.2109 -13.2635 -12.1545 -7.9485 
-8.898001 -3.93 -4.3715 -3.284 -1.934 -2.3615 -3.2875 -2.186 -3.3935 -3.277 -3.5905 0 
-11.046 -6.985001 -5.4425 -5.0005 -3.539 -5.6385 -5.4535 -5.526 -5.436 -4.7035 -3.5905 
-14.101 -7.3585 -6.879 -7.117001 -6.1865 -6.889 -8.936001 -7.504 -6.697 -4.7035 
-14.4745 -8.894 -8.896 -9.085501 -7.768 -10.13 -11.2892 -7.9485 -6.697 
-16.01 -10.935 -11.2699 -10.718 -11.204 -13.1806 -11.7337 -7.9485 
