-4.759 
n/a 
n/a 
n/a 
n/a 
-4.759 
n/a 
n/a 
n/a 
n/a 
-4.759 
n/a 
n/a 
n/a 
n/a 
-4.759 
n/a 
n/a 
n/a 
n/a 
-3.676 -4.5635 -4.065 -2.356 -1.4985 -3.0785 -1.7565 -3.9465 0 
-7.907001 -7.949501 -7.704 -3.1615 -4.779 -5.1815 -5.5135 -3.9465 
-11.7378 -12.2655 -8.5055 -5.297501 -5.2205 -8.976501 -5.5135 
-16.0538 -13.067 -9.779 -5.3145 -9.014501 -8.976501 
-16.8553 -14.3405 -9.789001 -9.1575 -9.014501 
-4.712 -3.193 -2.186 -1.8085 -3.4075 -4.1095 -4.4495 -2.3345 -5.4385 -4.5465 -3.8825 -1.7695 -2.8965 -9.231 -3.371 0 -4.712 -3.193 -5.0305 -3.908 -3.429 -3.5015 -4.6615 -4.712 -3.193 -2.186 -1.8085 -3.8265 -4.1095 0 -3.0415 -2.5685 -7.868 -3.8265 -4.328 
-5.7735 -5.2605 -3.164 -4.782001 -6.6305 -8.9975 -5.666 -7.9505 -8.75 -8.2225 -4.5575 -4.497 -10.884 -9.785 -3.371 -4.712 -5.7735 -6.522 -8.752501 -6.478001 -4.918 -7.8045 -9.521501 -5.7735 -5.2605 -3.164 -5.218 -7.2255 -4.1095 -3.0415 -5.7015 -8.667001 -10.6585 -7.349 
-7.73 -6.203 -5.7735 -7.02 -9.9355 -9.31 -9.953501 -10.259 -10.5865 -8.771501 -6.362 -12.348 -12.462 -10.1505 -8.4245 -5.7735 -7.6175 -10.064 -10.082 -7.719501 -8.246 -10.6215 -9.6125 -7.73 -6.203 -6.4675 -7.6105 -7.2255 -7.1945 -5.7015 -10.7795 -10.7435 -11.5405 
-8.595 -8.146 -7.858 -10.057 -10.0455 -10.4205 -10.3205 -10.595 -10.6055 -10.523 -11.485 -10.794 -10.484 -10.6945 -8.634 -7.6175 -10.513 -10.5485 -10.1695 -10.209 -10.6215 -10.642 -10.601 -8.595 -9.1145 -8.427501 -7.6105 -9.353001 -9.648001 -10.2645 -12.779 -11.003 
-9.683001 -8.5655 -10.3605 -10.116 -10.4285 -10.4335 -10.601 -10.614 -10.6245 -11.087 -10.574 -10.5295 -10.7105 -10.7185 -10.375 -10.513 -10.58 -10.5655 -10.481 -10.63 -10.642 -10.6625 -10.6445 -10.27 -9.165001 -8.427501 -9.413501 -10.5045 -10.5845 -10.5955 -11.0285 
-2.356 -3.0785 -1.7565 -3.9465 -4.3665 -5.2725 -8.1005 -3.4155 -4.559 0 -12.16972 -3.9075 -4.494 -7.6545 -3.5435 
-5.8915 -5.1815 -5.5135 -8.658001 -8.688001 -15.2786 -12.1715 -5.0845 -4.559 -12.16972 -16.07722 -9.161001 -13.5257 -10.7665 
-6.813 -8.976501 -9.9835 -13.5631 -19.0355 -18.2206 -15.0315 -5.0845 -17.74532 -16.07722 -21.33072 -18.6831 -16.6377 
-10.717 -13.6745 -14.5314 -23.9106 -21.9775 -21.0556 -15.0315 -18.58482 -21.65282 -21.33072 -30.85282 -21.7951 
-15.415 -18.2224 -24.8789 -26.8526 -24.8125 -21.0556 -29.00922 -22.49232 -26.90632 -30.85282 -33.96482 
-2.356 -1.4985 -3.0785 -1.7565 -3.9465 0 -3.4975 -4.0415 -5.2725 -6.9625 -4.0415 -1.756 -3.2615 0 -3.4155 -4.559 -2.7415 -4.5385 -1.4985 -3.4975 -3.5435 -2.229 -3.2895 -1.7565 -3.676 -2.229 -4.248 -1.756 -3.676 -2.229 -8.516001 -2.9705 -2.7415 -3.8825 -2.5045 -1.4985 -3.75 -1.7565 -3.9075 -4.4655 0 
-3.1615 -4.779 -5.1815 -5.5135 -3.9465 -3.4975 -6.232 -9.2335 -12.9866 -11.897 -5.4805 -4.788 -3.2615 -3.4155 -5.0845 -6.7625 -5.999001 -5.803 -4.3125 -6.2345 -4.973001 -5.268 -4.9075 -4.4345 -4.593 -6.294 -5.447 -5.918 -4.593 -10.543 -12.1139 -4.512 -5.8535 -5.4165 -3.1915 -4.8715 -5.188 -6.106 -7.500501 -4.4655 
-5.297501 -5.2205 -8.976501 -5.5135 -7.832001 -6.232 -12.1832 -17.2836 -17.9211 -13.336 -9.1 -4.788 -7.285501 -5.0845 -7.5375 -9.601501 -8.072001 -8.917001 -6.705 -8.009501 -7.7005 -7.4525 -8.1555 -5.472 -7.7995 -7.564 -8.828 -6.47 -14.2814 -14.9527 -13.6554 -7.825001 -6.665 -5.7695 -6.528501 -6.1545 -8.2985 -9.824 -7.500501 
-5.3145 -9.014501 -8.976501 -9.434001 -10.757 -12.1832 -20.2333 -22.2181 -19.3601 -16.9555 -9.1 -8.686501 -8.385 -7.5375 -10.5015 -12.7181 -11.2936 -11.5177 -8.0535 -10.8528 -10.0245 -10.543 -8.93 -8.7915 -8.576 -11.2548 -9.5035 -16.5534 -18.6911 -16.4942 -16.9684 -8.783001 -6.896501 -9.718 -7.9265 -9.7075 -12.5247 -9.824 
-9.1575 -9.014501 -13.125 -12.359 -16.7082 -20.2333 -25.1678 -23.6571 -22.9796 -16.9555 -13.0675 -9.9658 -11.4638 -10.5015 -13.6181 -15.9397 -13.8943 -12.8662 -10.9088 -13.1768 -13.196 -11.3175 -12.5223 -9.555501 -12.6948 -11.9303 -19.7327 -20.9631 -20.2326 -19.8072 -17.9264 -9.116 -10.5745 -11.0502 -11.7789 -14.0263 -12.5247 
