-4.759 
n/a 
n/a 
n/a 
n/a 
-4.759 
n/a 
n/a 
n/a 
n/a 
-4.759 
n/a 
n/a 
n/a 
n/a 
-4.759 
n/a 
n/a 
n/a 
n/a 
-4.176 -2.186 -5.867 -3.855 -1.4985 -2.9195 -5.2545 -2.186 -3.383 -5.3235 0 
-6.9315 -7.4665 -10.9315 -4.7575 -4.4535 -8.387501 -7.119 -4.438 -7.55 -5.3235 
-12.4946 -13.2244 -11.834 -9.110001 -10.2275 -10.1635 -8.496 -9.126501 -7.55 
-18.2525 -14.1269 -16.1865 -15.1564 -12.0035 -11.9371 -14.5311 -9.126501 
-19.155 -18.4794 -22.2329 -16.9324 -13.7771 -17.9722 -14.5311 
-5.2545 -1.934 -1.4985 -3.158 -5.011 -5.3235 -4.282 -1.4985 -2.9195 -2.3335 -3.982 -5.867 
-7.0515 -2.6125 -4.178 -7.829 -10.7025 -9.41 -5.6005 -4.4535 -5.5165 -6.815001 -8.3035 
-7.745501 -5.265 -8.259501 -13.8773 -14.789 -10.255 -7.289 -5.977 -9.127501 -9.889501 
-10.634 -8.823501 -14.6484 -17.9638 -15.634 -10.574 -8.0855 -9.557 -12.5248 
-14.1925 -15.3664 -18.7349 -18.8088 -15.953 -11.3705 -11.8877 -13.1021 
-5.2545 -2.7415 -5.3235 -2.264 -1.4985 -2.9195 -1.7565 -3.982 -3.4625 -9.059 0 
-6.742001 -6.054 -7.8675 -2.9195 -4.4535 -5.335 -5.614 -7.989 -13.8881 -9.059 
-10.4585 -8.666 -8.494 -5.958 -6.068 -9.479501 -8.9855 -18.6874 -13.8881 
-13.0705 -9.350501 -11.9357 -7.4925 -10.1145 -13.149 -19.6727 -18.6874 
-13.755 -13.0826 -13.4702 -11.9634 -14.106 -23.8362 -19.6727 
-5.2545 -2.7415 -5.3235 -2.264 -4.7265 -1.4985 -2.9195 -1.7565 -5.3405 -1.7565 -3.982 -1.934 -1.4985 -3.158 -1.7565 -5.011 0 
-6.742001 -6.054 -7.8675 -6.965501 -5.711 -4.4535 -5.335 -6.811501 -6.2495 -5.614 -5.9555 -2.6125 -4.178 -4.71 -6.845 -5.011 
-10.4585 -8.666 -13.1634 -7.667001 -9.219 -6.068 -9.8675 -7.9855 -8.203001 -7.089 -6.579 -5.265 -5.562 -9.320001 -6.845 
-13.0705 -14.2467 -13.8649 -10.7495 -10.239 -10.134 -10.5365 -10.403 -9.401501 -7.6595 -8.5065 -6.3135 -9.677 -9.320001 
-18.6512 -14.9482 -16.9474 -11.7695 -14.334 -10.941 -12.954 -12.2091 -10.412 -9.4095 -9.8695 -10.107 -9.677 
