-4.759 
n/a 
n/a 
n/a 
n/a 
-4.759 
n/a 
n/a 
n/a 
n/a 
-4.759 
n/a 
n/a 
n/a 
n/a 
-4.759 
n/a 
n/a 
n/a 
n/a 
-1.4985 -4.2245 -3.0695 -5.0075 -1.7695 -5.1845 -4.2665 -3.6215 -1.7565 -5.3885 -3.35 0 
-5.2345 -6.189 -7.027 -5.113 -7.4505 -10.907 -8.0575 -3.936 -7.235001 -8.737 -3.35 
-7.4835 -10.107 -7.127 -9.894 -13.594 -14.698 -8.4605 -10.485 -10.7175 -8.737 
-11.5141 -10.229 -12.621 -16.1431 -17.385 -15.101 -15.7891 -13.9675 -10.7175 
-11.6361 -15.8562 -18.8701 -19.9341 -17.788 -22.4296 -19.2716 -13.9675 
-1.934 -5.965 -3.35 -1.4985 -3.8385 -1.7565 -5.1845 -3.326 -3.6215 -2.7415 -2.229 0 
-7.337 -7.746 -5.4735 -4.778501 -4.716001 -6.580501 -9.3995 -6.226501 -6.281 -7.0135 -2.229 
-9.279501 -9.755501 -8.92 -5.202 -9.7375 -9.873501 -12.389 -8.856001 -10.7175 -7.0135 
-11.3874 -13.2786 -9.057 -10.0435 -13.0477 -12.863 -15.0185 -13.4107 -10.7175 
-14.9105 -13.4156 -14.0451 -13.5157 -16.0372 -15.4925 -19.5732 -13.4107 
-5.1845 -3.326 -4.2245 -1.934 -5.3885 -3.35 
-9.3995 -7.1175 -4.929 -6.4035 -8.737 
-13.28 -8.557 -10.4035 -10.264 
-14.7195 -14.2387 -14.264 
-20.4012 -18.0992 
-4.254 -1.934 -5.965 -3.35 -2.264 -5.1845 -3.326 -3.6215 -2.229 
-5.313 -7.337 -7.746 -6.2205 -7.422001 -9.3995 -6.226501 -5.3165 
-10.674 -9.279501 -10.2865 -11.9707 -12.3384 -12.389 -8.618 
-12.6165 -11.9184 -16.1295 -16.8871 -15.3279 -14.7805 
-15.2554 -17.7614 -21.0459 -19.8766 -17.7194 
