-4.759 
n/a 
n/a 
n/a 
n/a 
-4.759 
n/a 
n/a 
n/a 
n/a 
-4.759 
n/a 
n/a 
n/a 
n/a 
-4.759 
n/a 
n/a 
n/a 
n/a 
-2.9805 -3.074 -4.4175 -2.3335 0 -1.934 -3.539 -3.131 -1.4985 -4.431 -2.0935 -1.4985 -5.034 -1.7565 -4.257 -2.5195 -4.2945 -3.2645 -2.489 -3.8535 -2.356 -5.5635 -5.0745 -2.356 -1.4985 -4.9875 -1.756 -4.4395 -3.959 0 
-4.8805 -6.2255 -5.0185 -2.3335 -1.934 -5.011 -4.8825 -4.8555 -6.122001 -6.621 -2.9725 -6.4175 -6.043 -6.290501 -6.821 -5.961 -7.326 -3.7195 -4.6325 -5.2305 -8.889001 -9.986501 -6.6285 -3.1615 -7.651501 -6.2745 -6.1375 -8.792001 -3.959 
-7.0175 -6.364 -5.0185 -4.468 -5.011 -6.404 -6.727 -9.6555 -8.304001 -7.506001 -7.339001 -6.8235 -11.4194 -9.433001 -9.6395 -8.814 -7.7625 -5.709 -5.804 -12.1787 -13.4804 -11.6425 -7.1185 -9.465501 -9.2325 -7.1385 -9.5625 -8.792001 
-7.125 -6.364 -6.7635 -7.6045 -6.404 -7.228 -11.6874 -11.9041 -8.847001 -12.4203 -7.4835 -12.4577 -14.5619 -12.2923 -12.5997 -9.3065 -10.4265 -6.846 -13.046 -16.7701 -15.1364 -12.1325 -13.8631 -10.4355 -9.625001 -10.177 -9.5625 
-7.125 -8.087501 -9.3695 -9.043 -7.228 -12.3308 -13.936 -12.4471 -13.8217 -12.5648 -13.3883 -15.6002 -17.4212 -15.2525 -13.0922 -12.1161 -11.5635 -14.3526 -17.6374 -18.4261 -15.6264 -18.8771 -14.8331 -11.1336 -13.4111 -10.177 
-1.934 -3.539 -3.131 -4.0555 -4.5835 -2.5195 -7.4715 -1.756 -5.0325 -2.356 -4.5405 -3.959 -2.356 -6.1215 0 
-5.011 -4.8825 -7.8005 -10.451 -6.974 -10.0015 -9.367001 -6.3205 -6.8025 -8.273001 -9.995501 -5.6375 -8.349501 -6.1215 
-6.404 -9.869501 -14.5162 -12.8415 -15.4048 -11.9912 -14.1445 -7.896501 -13.2173 -14.107 -11.674 -12.5386 -8.349501 
-10.111 -16.6224 -16.9067 -21.2723 -17.3945 -16.7687 -15.7205 -14.6107 -19.0513 -15.7855 -18.5751 -12.5386 
-16.8639 -19.0129 -25.3375 -23.262 -22.172 -18.3447 -22.4347 -20.4447 -20.7298 -22.6866 -18.5751 
-1.934 -3.539 -3.131 -2.925 -3.264 -3.251 -1.8085 -4.341 -3.9075 -2.356 -1.4985 -4.9875 -1.756 -4.4395 -3.959 -3.2615 -4.124 -3.251 -4.2945 -4.967 0 
-5.011 -4.8825 -6.672 -5.328 -6.716001 -4.1695 -5.406 -8.592501 -5.3505 -3.1615 -7.651501 -6.2745 -6.1375 -8.792001 -7.1315 -6.3975 -7.3425 -8.286 -9.842001 -4.967 
-6.404 -8.477501 -8.772 -7.904 -7.889501 -7.284501 -9.501 -9.889501 -6.4615 -9.465501 -9.2325 -7.1385 -9.5625 -12.5469 -10.7175 -9.678 -10.733 -14.2145 -9.842001 
-8.781 -10.564 -11.6774 -9.322001 -11.1889 -10.7495 -10.3235 -11.0005 -13.3131 -10.4355 -9.625001 -10.177 -13.6074 -16.1329 -13.998 -13.2807 -17.5291 -14.2145 
-10.8947 -13.4694 -13.0954 -12.6394 -14.6539 -11.572 -11.4345 -17.8521 -14.2831 -11.1336 -13.4111 -14.3261 -17.1934 -19.4134 -17.6007 -20.0768 -17.5291 
-4.426 -1.7565 -1.4985 -3.6115 -4.7285 -4.1555 -3.147 -7.592 -3.131 -1.934 -1.4985 -3.277 -5.8465 -3.59 -2.7415 -1.4985 -3.1385 -3.6885 -1.934 -6.0525 -3.794 0 
-5.47 -2.4195 -4.081 -6.5495 -8.4455 -5.77 -11.5872 -9.226001 -5.5375 -2.6125 -4.8015 -9.452001 -10.784 -6.039001 -4.063 -4.2575 -7.495 -5.5135 -9.803 -11.08 -3.794 
-5.9535 -5.180501 -6.670501 -9.978001 -9.541501 -14.3512 -13.2212 -11.7533 -6.4035 -5.7755 -11.2685 -14.5787 -13.233 -7.55 -7.3915 -8.8015 -10.054 -13.9913 -14.9101 -11.08 
-8.462501 -7.797 -10.054 -11.0524 -18.1227 -15.9852 -15.7485 -12.6193 -9.380501 -13.4429 -16.3952 -17.0277 -14.744 -10.609 -12.2123 -10.7175 -18.5318 -19.0984 -14.9101 
-10.2375 -11.2985 -11.1648 -19.6336 -19.7567 -18.5125 -16.6145 -15.5963 -17.1307 -18.5696 -18.8442 -18.5387 -17.803 -15.4298 -14.1283 -19.1953 -23.6389 -19.0984 
