-4.759 
n/a 
n/a 
n/a 
n/a 
-4.759 
n/a 
n/a 
n/a 
n/a 
-4.759 
n/a 
n/a 
n/a 
n/a 
-4.759 
n/a 
n/a 
n/a 
n/a 
-4.267 -5.93 0 -7.959001 0 0 -3.09 0 0 -3.1495 -3.1335 -5.045 -1.4985 -3.3435 -2.95 -4.4245 -4.0725 -4.296 -3.013 0 
-10.8415 -5.93 -7.959001 -7.959001 0 -3.09 -3.09 0 -3.1495 -6.8085 -7.981 -6.222 -4.6745 -5.892 -7.955501 -8.3895 -9.320001 -7.633 -3.013 
-10.8415 -15.1654 -7.959001 -7.959001 -3.09 -3.09 -3.09 -3.1495 -6.8085 -12.5808 -10.172 -10.01 -7.155001 -11.3611 -12.1549 -14.0892 -13.068 -7.633 
-20.0769 -15.1654 -7.959001 -11.263 -3.09 -3.09 -6.172501 -6.8085 -12.5808 -14.7718 -13.96 -12.5801 -13.2547 -15.5605 -17.8546 -17.8372 -13.068 
-20.0769 -15.1654 -11.263 -11.263 -3.09 -6.172501 -8.782001 -12.5808 -14.7718 -18.5598 -16.5301 -18.6798 -17.4541 -21.2602 -21.6026 -17.8372 
-3.5025 -3.1335 -4.2485 0 -6.988 -3.09 0 0 -1.756 -2.985 -2.8965 -3.09 -2.925 -3.9535 -1.7695 -4.603 -3.4605 -2.356 -3.013 -4.81 
-5.3935 -4.9235 -4.2485 -6.988 -9.633501 -3.09 0 -1.756 -4.2025 -6.190001 -5.209 -5.897 -5.863 -5.098001 -5.0665 -8.887501 -5.646501 -6.046 -7.740001 
-5.9595 -4.9235 -12.4835 -9.633501 -9.633501 -3.09 -1.756 -4.2025 -7.415 -8.344 -7.886 -9.658001 -6.7565 -8.800501 -9.7615 -11.3467 -9.106501 -9.1 
-5.9595 -13.5277 -15.129 -9.633501 -9.633501 -4.482 -4.2025 -7.415 -9.537001 -9.867001 -11.8312 -10.5055 -10.5975 -13.6155 -12.2681 -14.8067 -12.2535 
-15.2843 -16.1732 -15.129 -9.633501 -11.1381 -6.8935 -7.415 -9.537001 -10.751 -13.8962 -12.6787 -14.3465 -15.4125 -16.1221 -15.7281 -17.9537 
-4.426 -1.7565 -1.4985 -3.0835 -4.7285 -4.1555 -3.147 -1.8085 -3.16 -3.9885 -3.1335 -2.186 -1.8085 -3.319 -1.7565 -3.5025 -3.9885 -3.1335 -2.3335 -4.111 -4.179 -1.756 -4.0805 -1.7695 -3.2345 -2.985 -3.5205 -3.4605 -4.4825 -3.815 -1.4985 -3.013 0 
-5.47 -2.4195 -3.535 -6.042 -8.4455 -5.77 -5.4375 -4.6915 -4.5575 -5.7985 -4.6915 -3.164 -5.18 -4.165 -5.2375 -6.793 -5.7985 -5.155 -4.936501 -6.9285 -5.146501 -5.1455 -5.518 -3.713 -5.2675 -4.257 -5.8695 -6.882501 -6.1905 -4.676001 -5.357 -3.013 
-5.9535 -4.6785 -6.335501 -9.523001 -9.541501 -7.9705 -8.7445 -6.452 -6.486 -7.628 -6.202 -6.125 -5.543 -7.1445 -8.274501 -8.196 -7.565001 -6.139 -7.55 -7.788 -6.265501 -6.6555 -7.245501 -5.648 -6.0655 -6.9845 -8.84 -8.613001 -6.7335 -7.6675 -5.357 
-8.021 -7.476501 -10.0095 -10.7035 -11.742 -11.4107 -10.5204 -7.3335 -8.085 -8.335 -8.403501 -6.215 -8.1215 -8.580501 -8.6385 -8.691 -8.055 -8.394 -8.268001 -8.533501 -7.3275 -8.238501 -8.516001 -6.3745 -8.8905 -8.907001 -8.908001 -8.7755 -9.032001 -7.6675 
-9.983001 -11.3061 -11.3 -12.904 -15.1822 -13.1866 -11.4019 -8.536 -8.5045 -8.5105 -8.4115 -8.34 -8.592501 -8.728001 -8.7375 -8.765 -8.778 -8.6145 -8.6905 -8.561501 -8.81 -9.158501 -9.000501 -9.066 -9.2685 -8.929501 -8.9125 -11.7394 -9.032001 
-3.3715 -3.4605 -3.9915 -4.078 -1.4985 -4.81 -3.013 -3.433 -1.7565 -1.4985 -5.4145 -3.895 -1.7565 -5.0725 -1.4985 -3.5025 0 -4.619 0 0 -4.2635 0 -3.9345 -1.7695 -1.4985 -3.09 -2.9705 -2.925 -3.807 0 
-7.538501 -7.8325 -8.302501 -4.947 -5.9585 -8.2985 -8.208 -4.1845 -2.4195 -6.751 -9.1055 -5.073 -6.6965 -6.339 -4.16 -3.5025 -4.619 -4.619 0 -4.2635 -4.2635 -3.9345 -3.94 -2.7955 -4.877501 -5.649 -4.773 -8.265501 -3.807 
-12.5483 -12.5447 -9.623501 -8.354 -8.914001 -14.0201 -9.5155 -4.6515 -7.747001 -10.1465 -9.6155 -8.415001 -7.6305 -9.684501 -4.16 -6.897 -4.619 -4.619 -4.2635 -4.2635 -7.779 -3.94 -4.4455 -6.284 -7.144501 -7.6155 -10.586 -8.265501 
-17.2605 -13.8657 -13.1443 -11.6609 -15.0008 -15.3276 -9.8255 -8.509 -11.2563 -10.2655 -13.0013 -9.4615 -11.1246 -9.684501 -7.947001 -6.897 -4.619 -8.3645 -4.2635 -7.779 -7.7845 -4.4455 -8.4645 -8.469501 -8.511001 -13.9819 -10.586 
-18.5815 -17.3865 -16.4512 -17.7477 -16.3083 -15.6376 -13.735 -12.1439 -11.3753 -13.6513 -14.0478 -13.0242 -11.1246 -13.9443 -7.947001 -6.897 -8.3645 -8.3645 -7.779 -7.7845 -8.4145 -8.4645 -10.9858 -9.351001 -15.3736 -13.9819 
