-4.759 
n/a 
n/a 
n/a 
n/a 
-4.759 
n/a 
n/a 
n/a 
n/a 
-4.759 
n/a 
n/a 
n/a 
n/a 
-4.759 
n/a 
n/a 
n/a 
n/a 
-2.3615 -5.9385 -2.186 -3.3715 -3.6065 -7.428 0 -2.3335 -3.757 -2.4265 -2.186 -3.6065 -1.7565 -2.871 -4.055 -1.756 -4.141 -7.264 0 
-8.675 -7.784 -6.375501 -5.106 -12.2063 -7.428 -2.3335 -5.0775 -5.6705 -3.292 -5.206 -7.0225 -4.521 -6.8925 -5.365 -5.6005 -12.6684 -7.264 
-9.805 -12.1893 -8.339001 -14.3134 -12.2063 -10.8625 -5.0775 -6.499001 -6.3965 -6.460001 -7.977 -10.126 -7.996 -8.292 -6.2815 -14.7601 -12.6684 
-14.3589 -14.1528 -17.8232 -14.3134 -15.6408 -13.6065 -6.499001 -7.3145 -9.876 -9.2065 -11.7205 -13.601 -9.3695 -10.3815 -16.4559 -14.7601 
-16.3224 -23.637 -17.8232 -17.7479 -18.3848 -15.028 -7.3145 -10.621 -12.4931 -13.2958 -15.1955 -14.9745 -11.5792 -20.5559 -16.4559 
-1.4985 -4.975 -2.229 -4.113 -2.186 -5.102 -2.3345 -4.2875 -5.522 -1.756 -4.13 -5.3205 -5.015 -4.4715 -4.066 -1.934 -1.4985 -3.519 -1.7565 -4.314 0 
-5.592 -7.498501 -5.9635 -6.241 -5.785 -5.3215 -6.740001 -6.942 -6.7835 -5.737 -7.637 -9.352001 -8.105 -7.866501 -5.226 -2.6125 -4.4155 -4.4175 -5.628 -4.314 
-7.724 -9.476001 -7.325 -8.272501 -5.8495 -8.728001 -8.966001 -7.694 -8.1625 -8.259001 -10.1185 -12.7992 -10.575 -9.1955 -6.2535 -4.8345 -4.839 -8.0935 -5.628 
-9.521001 -10.136 -9.2155 -8.302 -9.0535 -9.420501 -9.302501 -9.285501 -8.3415 -10.1945 -13.7191 -15.2692 -11.904 -9.568501 -6.7845 -4.9455 -8.1385 -8.0935 
-10.1395 -12.4497 -9.251 -9.417001 -9.732 -9.611 -10.534 -9.458501 -10.1945 -13.8801 -16.1891 -16.5982 -12.277 -9.822501 -6.7895 -8.153001 -8.1385 
-4.1095 -1.7565 -5.9385 -2.186 -4.552 -3.222 -3.9615 -5.9385 -4.678 -1.7565 -3.486 -4.0135 -1.7565 -4.2335 -1.756 -4.141 -5.1305 0 
-5.856501 -7.591001 -7.784 -6.013 -6.3065 -6.2675 -11.136 -7.173 -6.317501 -5.9455 -5.938 -4.201 -5.64 -5.316 -5.6005 -8.4585 -5.1305 
-10.2925 -10.204 -11.8268 -7.437 -9.1185 -14.0624 -12.3705 -8.6975 -11.2117 -8.439501 -6.03 -8.2075 -6.341 -7.8435 -8.7505 -8.4585 
-13.3445 -14.2468 -13.2508 -10.1265 -17.3198 -15.2969 -13.895 -13.9235 -13.7057 -9.2235 -9.534 -9.137501 -8.581 -10.4765 -8.7505 
-17.3873 -15.6708 -15.9403 -18.479 -18.5543 -16.8214 -19.121 -16.4175 -14.4897 -12.9529 -9.77 -11.4595 -11.4588 -10.4765 
-2.3615 -3.6835 -3.3435 -2.186 -4.7925 -3.222 -3.3715 -3.7655 -3.115 -1.4985 -3.486 -4.0135 -1.7565 -4.2225 -1.756 -4.2335 0 
-6.7745 -5.7725 -4.9685 -5.544001 -5.2095 -6.256001 -6.8585 -6.4135 -4.2305 -3.5655 -5.938 -4.201 -5.459 -5.3695 -5.8115 -4.2335 
-8.5455 -6.941 -8.445001 -5.673501 -7.636 -8.477501 -8.8365 -8.455501 -6.675001 -5.975 -6.03 -7.933001 -6.398 -6.3125 -5.8115 
-9.3 -10.0005 -8.548 -8.121 -9.323 -10.3745 -10.5035 -11.0182 -8.405001 -6.0705 -9.7735 -9.253 -6.9535 -6.3125 
-12.5135 -10.062 -11.3815 -10.0505 -11.2786 -12.0415 -13.521 -12.7482 -8.4175 -9.791501 -11.2001 -10.164 -6.9535 
