-4.759 
n/a 
n/a 
n/a 
n/a 
-4.759 
n/a 
n/a 
n/a 
n/a 
-4.759 
n/a 
n/a 
n/a 
n/a 
-4.759 
n/a 
n/a 
n/a 
n/a 
-10.7225 -6.745 -7.107 0 -2.847 -7.053 
-17.8843 -11.08 -7.107 -2.847 -10.5068 
-22.2193 -11.08 -9.4685 -10.5068 
-22.2193 -13.4415 -17.9811 
-24.5808 -21.9541 
-12.16972 -6.745 -7.107 0 -2.847 -3.6915 0 
-18.91472 -11.08 -7.107 -2.847 -6.693501 -3.6915 
-23.24972 -11.08 -9.4685 -6.693501 -6.693501 
-23.24972 -13.4415 -14.1678 -6.693501 
-25.61122 -18.1408 -14.1678 
-12.16972 -6.745 -7.107 0 -2.847 -3.6915 0 
-18.91472 -11.08 -7.107 -2.847 -6.693501 -3.6915 
-23.24972 -11.08 -9.4685 -6.693501 -6.693501 
-23.24972 -13.4415 -14.1678 -6.693501 
-25.61122 -18.1408 -14.1678 
-10.7225 -6.745 -7.107 0 -2.847 -7.053 
-17.8843 -11.08 -7.107 -2.847 -10.5068 
-22.2193 -11.08 -9.4685 -10.5068 
-22.2193 -13.4415 -17.9811 
-24.5808 -21.9541 
