-4.759 
n/a 
n/a 
n/a 
n/a 
-4.759 
n/a 
n/a 
n/a 
n/a 
-4.759 
n/a 
n/a 
n/a 
n/a 
-4.759 
n/a 
n/a 
n/a 
n/a 
-4.566 0 -7.337 0 -5.1845 0 
-4.566 -7.337 -7.337 -5.1845 -5.1845 
-10.718 -7.337 -10.688 -5.1845 
-10.718 -10.688 -10.688 
-14.069 -10.688 
-4.566 0 -7.337 0 -5.1845 0 
-4.566 -7.337 -7.337 -5.1845 -5.1845 
-10.718 -7.337 -10.688 -5.1845 
-10.718 -10.688 -10.688 
-14.069 -10.688 
-4.566 0 -6.9275 -5.814 0 -5.1845 0 
-4.566 -6.9275 -9.649 -5.814 -5.1845 -5.1845 
-11.9073 -9.649 -9.649 -10.082 -5.1845 
-14.6288 -9.649 -13.917 -10.082 
-14.6288 -13.917 -13.917 
-4.566 -6.9275 -5.814 0 -5.1845 0 
-11.9073 -9.649 -5.814 -5.1845 -5.1845 
-14.6288 -9.649 -10.082 -5.1845 
-14.6288 -13.917 -10.082 
-18.8968 -13.917 
