-4.759 
n/a 
n/a 
n/a 
n/a 
-4.759 
n/a 
n/a 
n/a 
n/a 
-4.759 
n/a 
n/a 
n/a 
n/a 
-4.759 
n/a 
n/a 
n/a 
n/a 
-2.872 -2.9325 -1.4985 -4.773 -4.432 -4.328 -2.229 -3.4425 -3.644 -2.186 0 -1.4985 -3.5435 -4.416 -3.1435 -4.299 -1.934 -5.1265 -1.4985 -4.0735 -1.756 -2.356 -2.3335 -4.052 -3.772 -4.1095 -4.7365 -1.756 -1.7695 -4.985 -2.5685 -1.4985 -3.6085 -5.204 -1.756 -2.186 -3.383 -3.908 -1.934 -2.985 -4.703 0 
-4.925 -4.365 -5.652 -6.176001 -4.899 -5.7215 -4.72 -6.7725 -5.939 -2.186 -1.4985 -4.2755 -6.877501 -6.264 -6.786 -5.789001 -6.609 -5.8645 -4.947001 -5.4235 -4.553 -4.7045 -6.1885 -8.621 -8.528501 -8.507501 -6.0525 -3.963 -5.2955 -7.785501 -3.7015 -5.023 -8.7255 -6.198501 -3.986 -4.438 -5.7105 -5.9125 -4.111 -7.6575 -4.703 
-6.494 -8.608 -6.6725 -6.196001 -6.1155 -6.4895 -7.013 -9.253 -5.939 -3.339 -4.2755 -7.3035 -8.2535 -8.700001 -8.262501 -9.4425 -6.78 -10.0995 -6.328 -7.9225 -6.313 -10.0575 -11.2913 -13.7751 -13.3143 -9.980501 -8.297501 -6.7565 -8.146001 -8.6505 -7.422 -8.9095 -9.814501 -8.455001 -6.109 -6.5335 -7.101 -7.54 -9.101001 -7.6575 
-11.1674 -9.512501 -6.682 -7.8985 -6.676 -9.134 -9.869501 -9.253 -6.9875 -6.389 -7.3035 -8.6265 -10.254 -10.1945 -12.037 -9.720501 -11.5778 -11.8117 -8.8985 -9.7755 -10.3475 -15.1649 -16.4454 -18.5609 -14.7873 -12.2255 -11.4866 -9.663 -9.090501 -12.6296 -10.76 -9.913 -12.1346 -10.7068 -8.672501 -7.8195 -8.563001 -12.9948 -9.101001 
-12.0719 -9.515 -8.1125 -8.4785 -9.181001 -12.2435 -9.869501 -10.342 -9.6945 -10.459 -8.6265 -10.7784 -12.3353 -13.969 -12.315 -14.4829 -13.29 -14.3822 -11.1585 -14.1376 -15.4549 -20.319 -21.2312 -20.0339 -17.0323 -15.4146 -14.3931 -10.25 -13.0562 -15.9676 -11.7635 -12.2471 -14.3864 -13.2703 -9.491501 -9.876 -14.071 -12.9948 
-3.0415 0 -4.0995 -3.757 -3.4425 -1.934 -1.4985 0 0 -3.5435 -3.469 -3.333 -2.186 -3.383 -3.699 0 -3.0415 -3.518 -1.7695 -2.9995 -3.8465 0 -2.5685 -3.6085 -3.59 -2.186 -3.383 -4.377 0 0 
-3.0415 -4.0995 -9.5835 -6.591001 -5.1105 -2.6125 -1.4985 0 -3.5435 -6.8725 -7.908501 -5.3435 -4.438 -5.014 -3.699 -3.0415 -7.956 -5.4885 -4.358 -6.0585 -3.8465 -2.5685 -6.5315 -6.536 -5.4475 -4.438 -5.902 -4.377 0 
-6.9845 -9.5835 -12.6469 -9.848001 -5.9845 -2.6125 -1.4985 -3.5435 -6.8725 -12.9164 -10.368 -8.065001 -5.451 -5.014 -6.5165 -7.956 -10.3965 -8.466001 -7.323 -6.0585 -6.5795 -6.5315 -9.6675 -9.6555 -7.6035 -6.837 -5.902 -4.377 
-13.6507 -12.6469 -15.9039 -10.722 -5.9845 -2.6125 -4.2755 -6.8725 -12.9164 -15.3759 -13.0895 -8.427001 -5.451 -7.422501 -12.102 -10.3965 -13.374 -11.6884 -7.323 -9.324 -11.1819 -9.6675 -13.0394 -12.1179 -10.204 -6.837 -5.902 
-16.7141 -15.9039 -16.7779 -10.722 -5.9845 -5.924 -8.595501 -12.9164 -15.3759 -18.0974 -13.4515 -8.427001 -7.6565 -13.1348 -14.5425 -13.374 -16.5964 -11.6884 -10.0535 -14.0718 -14.3179 -13.0394 -15.5018 -14.7184 -10.204 -6.837 
-3.5725 -4.773 -4.432 -5.474 -3.264 0 -3.5435 -2.742 -2.9645 -3.091 -4.6195 -1.7695 -5.3225 -2.186 -4.4525 -1.756 -7.295001 -1.4985 -3.9555 -1.756 -3.2345 -2.5685 -1.4985 -3.6085 -3.959 -4.0205 0 
-9.244501 -6.176001 -9.1525 -8.669001 -3.264 -3.5435 -5.655 -5.02 -5.9285 -6.484 -5.89 -8.474 -7.874001 -7.8785 -5.955501 -8.418 -7.747001 -4.988501 -5.1795 -4.5715 -5.6045 -3.7015 -5.023 -8.069 -8.139 -4.0205 
-10.3225 -13.3667 -12.4913 -8.669001 -7.083 -5.655 -7.7615 -7.2775 -7.828501 -7.501 -13.4047 -10.688 -13.7595 -9.0535 -13.3515 -8.9175 -10.586 -6.2535 -8.619 -6.912 -6.186 -7.422 -9.8715 -12.6756 -8.139 
-17.794 -16.7055 -12.4913 -12.7684 -8.5555 -7.7615 -10.564 -9.361 -8.325001 -15.2391 -15.6187 -16.5735 -14.9345 -16.6795 -13.851 -11.8037 -12.8622 -9.5865 -11.1167 -7.599 -10.609 -12.5649 -14.6663 -12.6756 
-21.1328 -16.7055 -16.5907 -14.2409 -11.1388 -10.564 -12.6475 -9.759501 -16.2181 -17.4531 -21.5042 -17.7485 -22.5605 -17.179 -16.7372 -14.0799 -16.1952 -12.239 -11.8037 -11.9516 -15.7519 -17.3597 -14.6663 
-3.4765 -4.445 -3.757 -3.4425 -3.6785 -2.9325 -2.4265 -2.186 -3.5435 -2.186 -11.0235 -3.0465 -3.519 -1.7565 -3.2895 -1.756 -1.7695 -3.429 -3.3365 -1.7565 -3.58 -3.6785 -4.676 -4.394 0 
-8.504001 -8.066501 -6.591001 -7.791 -5.4965 -4.569 -3.292 -6.736501 -5.2365 -14.4199 -14.07 -7.118001 -4.6225 -5.3275 -4.799 -3.963 -4.032 -5.457 -4.7425 -5.27 -7.526501 -9.7605 -8.786 -4.394 
-12.2257 -11.2453 -12.3101 -9.690001 -7.1005 -5.209 -7.6175 -8.862 -18.3074 -17.4664 -18.1415 -8.896001 -9.3595 -6.277 -6.8695 -6.102 -5.5475 -9.4335 -8.658501 -10.031 -14.7875 -13.8473 -8.786 
-15.4045 -16.9644 -14.2091 -11.6324 -7.5695 -9.647501 -10.0155 -22.1117 -21.3539 -21.5379 -19.9195 -14.1086 -10.4605 -8.5015 -8.4005 -8.2325 -9.922501 -13.5795 -13.8967 -17.292 -18.8743 -13.8473 
-21.1236 -18.8634 -16.1515 -12.1014 -12.3036 -12.0845 -23.3432 -25.1582 -25.4254 -23.3159 -25.1321 -15.2096 -13.0538 -10.347 -11.1472 -12.0957 -14.2261 -18.8177 -21.1577 -21.3788 -18.8743 
