-4.759 
n/a 
n/a 
n/a 
n/a 
-4.759 
n/a 
n/a 
n/a 
n/a 
-4.759 
n/a 
n/a 
n/a 
n/a 
-4.759 
n/a 
n/a 
n/a 
n/a 
-10.2555 -12.16972 -4.6865 -9.238501 -8.726501 -10.8075 0 -9.277 -4.1465 0 
-22.42522 -16.85622 -14.7634 -18.1506 -19.844 -10.8075 -9.277 -13.9965 -4.1465 
-27.11172 -26.93312 -23.6755 -29.2681 -19.844 -20.0845 -13.9965 -13.9965 
-37.18862 -35.84522 -34.793 -29.2681 -29.121 -24.804 -13.9965 
-46.10072 -46.96272 -34.793 -38.5451 -33.8405 -24.804 
-2.461 -12.16972 -12.16972 -4.977 -7.389 0 -12.16972 0 -9.277 -4.1465 0 
-14.89832 -24.33944 -17.14672 -12.9754 -7.389 -12.16972 -12.16972 -9.277 -13.9965 -4.1465 
-27.06804 -29.31644 -25.14512 -12.9754 -20.18652 -12.16972 -21.44672 -13.9965 -13.9965 
-32.04504 -37.31484 -25.14512 -25.77292 -20.18652 -21.44672 -26.16622 -13.9965 
-40.04344 -37.31484 -37.94264 -25.77292 -29.46352 -26.16622 -26.16622 
-9.85 -2.186 -3.849 -10.2555 -12.16972 0 0 -7.946001 -12.16972 -9.562 0 
-12.595 -4.8565 -14.2651 -22.42522 -12.16972 0 -7.946001 -20.50192 -21.73172 -9.562 
-15.3087 -15.5536 -26.43482 -22.42522 -12.16972 -7.946001 -20.50192 -30.06392 -21.73172 
-26.0058 -27.72332 -26.43482 -22.42522 -20.11572 -20.50192 -30.06392 -30.06392 
-38.17552 -27.72332 -26.43482 -30.37122 -32.67164 -30.06392 -30.06392 
-12.16972 
n/a 
n/a 
n/a 
n/a 
