-4.759 
n/a 
n/a 
n/a 
n/a 
-4.759 
n/a 
n/a 
n/a 
n/a 
-4.759 
n/a 
n/a 
n/a 
n/a 
-4.759 
n/a 
n/a 
n/a 
n/a 
-5.1845 -3.6885 -3.013 -2.6165 -3.3785 -5.1845 -3.9675 
-7.323501 -6.691501 -3.724 -4.9585 -8.927 -8.286 
-10.8279 -7.6635 -5.2735 -9.805 -12.1647 
-11.7999 -9.776001 -10.103 -13.0427 
-13.9124 -14.9737 -13.3407 
-3.4765 -3.929 -4.2105 -5.1845 -3.6885 0 -2.871 -3.0695 -4.8985 -1.4985 -3.9675 -1.7565 -5.1845 -2.5195 -4.0995 -2.186 -3.074 -8.863001 
-4.589 -8.342 -9.633501 -7.323501 -3.6885 -2.871 -5.059 -7.389 -5.7895 -5.356501 -5.258 -6.580501 -8.509001 -5.673 -6.8505 -4.156 -12.9374 
-9.656501 -14.1844 -12.1167 -7.323501 -6.963 -5.059 -8.7995 -8.139 -9.3585 -5.832 -9.479 -10.1895 -11.9237 -8.251 -9.218 -15.004 
-15.6687 -16.6676 -12.1167 -11.0994 -9.691501 -8.7995 -9.3535 -12.0932 -9.736501 -10.467 -13.978 -13.7718 -14.5017 -10.298 -20.0784 
-18.1519 -16.6676 -15.8926 -13.8279 -13.4252 -9.3535 -13.5161 -12.4712 -14.6821 -14.8546 -17.5603 -16.3498 -16.5487 -21.1584 
-2.925 -4.567 -3.3785 -5.1845 -3.6885 0 -3.4765 -5.1845 -3.9675 -1.756 -3.2615 -3.135 -3.5215 -3.6955 -1.756 -4.752 -2.8705 -3.766 -1.934 -8.35 0 
-5.994 -5.4965 -8.927 -7.323501 -3.6885 -3.4765 -9.377001 -8.286 -4.9775 -4.788 -5.675 -6.2085 -7.13 -5.1395 -6.137 -6.7305 -6.268001 -6.233 -10.8215 -8.35 
-7.2405 -10.2135 -10.703 -7.323501 -7.191501 -9.377001 -12.4945 -9.0775 -8.791 -6.845 -8.777 -9.011001 -8.4575 -8.507 -8.1505 -8.806001 -8.4645 -15.6439 -10.8215 
-12.1071 -11.9895 -10.703 -10.335 -13.6724 -12.4945 -13.286 -13.1 -10.961 -9.793501 -11.7541 -11.0193 -12.117 -11.4631 -10.3414 -11.9339 -18.1224 -15.6439 
-13.8831 -11.9895 -13.7145 -16.9069 -16.7899 -13.286 -17.3085 -15.27 -13.9095 -12.874 -13.7624 -14.6788 -15.0731 -13.654 -13.4693 -21.5918 -18.1224 

n/a 
n/a 
n/a 
n/a 
