-4.759 
n/a 
n/a 
n/a 
n/a 
-4.759 
n/a 
n/a 
n/a 
n/a 
-4.759 
n/a 
n/a 
n/a 
n/a 
-4.759 
n/a 
n/a 
n/a 
n/a 
-5.2545 -2.8645 -4.6505 -1.934 -3.091 -3.452 -3.535 -4.288 0 0 -2.3335 -1.4985 -3.452 -2.3345 -4.1195 -5.1445 0 -1.4985 -4.235 -1.7565 -10.738 -4.2655 0 -1.8085 -3.999 -1.7565 -8.477 0 -4.281 0 -2.264 -1.4985 -4.922 -1.756 -5.7655 -4.706 0 -2.7415 -1.4985 -3.918 -2.0935 -3.595 -1.7695 -3.685 -3.7015 -4.922 0 
-7.918 -6.8295 -5.5835 -4.2105 -5.5575 -7.31 -7.3885 -4.288 0 -2.3335 -3.3515 -4.4485 -5.3825 -5.7055 -5.4255 -5.1445 -1.4985 -5.1495 -5.388 -13.4437 -15.0035 -4.2655 -1.8085 -5.003 -4.5785 -9.3865 -8.477 -4.281 -4.281 -2.264 -2.9195 -5.496 -5.928 -7.127501 -9.227 -4.706 -2.7415 -4.063 -4.8715 -5.5555 -4.819 -4.634 -4.9795 -6.517 -7.080501 -4.922 
-12.0672 -8.143001 -7.6045 -6.003 -10.107 -11.9679 -7.3885 -4.288 -2.3335 -3.3515 -6.384501 -6.509 -8.177 -7.4255 -5.4255 -7.469 -5.1495 -5.680501 -17.8574 -17.7092 -15.0035 -6.6555 -5.003 -5.0445 -13.2079 -9.3865 -13.177 -4.281 -6.54 -2.9195 -7.39 -6.573 -10.6215 -10.749 -9.227 -7.9545 -4.063 -7.6745 -6.561501 -9.011001 -5.5825 -7.3805 -6.984 -9.956 -7.080501 
-13.3807 -9.1295 -8.705501 -10.5745 -14.9423 -11.9679 -7.3885 -6.646 -3.3515 -6.384501 -9.182501 -8.942 -9.5235 -7.4255 -7.843 -9.4505 -5.680501 -18.2987 -22.1229 -17.7092 -17.3935 -9.83 -5.0445 -14.1951 -13.2079 -14.0783 -13.177 -6.54 -6.817 -7.39 -8.2215 -11.5403 -14.243 -10.749 -12.6401 -9.0565 -7.6745 -8.2945 -10.155 -9.661 -8.2515 -9.170501 -10.6735 -9.956 
-14.3672 -9.928 -13.3694 -15.6708 -14.9423 -11.9679 -9.8125 -8.1995 -6.384501 -9.182501 -11.6175 -10.8335 -9.5235 -9.165501 -9.5635 -9.4685 -18.2987 -22.5642 -22.1229 -20.0992 -20.568 -9.8975 -14.1951 -14.1951 -17.8997 -14.0783 -15.436 -6.817 -11.9889 -8.2215 -13.5076 -15.1618 -14.243 -14.1621 -13.7421 -12.8092 -8.2945 -12.1072 -10.805 -12.3636 -10.5325 -13.2824 -10.6735 
-1.4985 -4.235 -1.7565 -5.5635 0 -4.1195 -5.1445 -2.229 -3.452 -2.264 -1.4985 -4.922 -4.5085 -2.985 -4.706 0 -2.7415 -1.4985 -4.031 -2.3335 -3.43 -3.595 -4.3745 -4.922 0 -3.644 -5.2545 -1.934 -3.091 -3.452 -7.816 -4.288 0 
-5.1495 -5.388 -7.003 -5.5635 -4.1195 -5.4255 -6.643001 -5.1815 -5.2915 -2.9195 -5.496 -10.533 -7.833 -7.0135 -4.706 -2.7415 -4.063 -4.771 -5.4725 -5.3295 -5.679 -7.892001 -7.651501 -4.922 -3.644 -8.647 -7.0515 -4.2105 -5.5575 -11.315 -11.6915 -4.288 
-5.680501 -10.151 -7.003 -9.378 -5.4255 -7.502 -9.484 -6.803 -6.054 -7.39 -11.5478 -13.8575 -12.1601 -7.0135 -7.9545 -4.063 -6.482 -5.9855 -8.342501 -6.62 -8.9875 -11.8048 -7.651501 -8.453501 -8.647 -10.6522 -8.159 -6.003 -13.2522 -15.8139 -12.1637 
-10.2865 -10.151 -11.3199 -9.428 -7.502 -10.019 -10.0425 -7.4575 -9.426001 -13.7116 -14.8723 -18.1846 -12.1601 -9.793501 -9.0565 -6.482 -7.680501 -9.0495 -9.684 -9.8105 -12.9807 -11.8048 -11.4942 -13.6519 -10.6522 -11.7597 -9.743001 -13.4935 -17.5877 -15.8139 
-10.2865 -14.5861 -11.3699 -11.9743 -10.019 -10.34 -10.1575 -10.1305 -16.325 -17.0361 -19.1994 -18.1846 -14.9401 -10.3845 -11.6167 -7.680501 -9.867001 -10.4505 -12.8745 -13.8825 -12.9807 -15.6475 -16.6926 -15.6571 -11.7597 -13.3437 -17.6663 -17.8232 -17.5877 
-4.1195 -5.1445 -3.9725 -4.0385 -1.4985 -3.452 -4.281 -2.264 -1.4985 -4.922 -1.756 -2.985 -4.706 -2.3615 -3.837 -2.645 -4.9475 -2.7455 -14.59622 -2.7415 -4.4155 -5.2545 -3.452 -4.281 -2.5045 -5.761 -5.5475 
-5.4255 -5.4925 -7.3785 -5.3245 -4.4485 -7.758 -6.54 -2.9195 -5.496 -5.928 -4.2025 -7.0135 -7.1195 -5.96 -6.336 -7.159 -6.5055 -18.30032 -15.85072 -6.0585 -9.192501 -8.458501 -7.758 -5.893 -8.825001 -10.1635 
-5.5 -9.161 -8.6105 -6.6955 -8.6055 -10.523 -6.817 -7.39 -6.573 -7.562 -7.994 -9.3465 -10.7025 -8.801001 -11.5132 -8.622001 -22.77792 -19.55482 -18.97872 -11.7007 -12.4999 -13.3247 -9.737 -12.5743 -13.6729 
-9.2115 -10.5335 -10.0925 -9.9665 -11.5363 -10.8 -11.9889 -8.2215 -7.906 -8.393001 -10.1385 -13.1223 -13.5435 -14.2834 -12.9762 -25.11922 -24.03242 -22.68282 -24.92752 -15.0081 -17.3661 -15.3037 -16.3845 -17.4222 
-10.544 -12.0155 -13.3635 -13.6229 -11.8133 -15.9719 -12.8204 -8.5505 -8.408 -10.7855 -14.2195 -15.9633 -19.0259 -15.7464 -29.47342 -26.37372 -27.16042 -28.63162 -28.23492 -19.8743 -19.3451 -21.9512 -21.2324 
-5.2545 -4.4155 -1.934 -3.091 -12.16972 -2.3335 -2.264 -1.4985 -4.922 -1.756 -2.985 -4.706 -2.9705 -2.7415 -3.881 -2.3345 -4.1195 -5.1445 -3.9725 -3.0695 -2.7415 -3.264 -1.7695 -2.489 -4.235 -1.7565 -5.5635 -2.7415 -1.4985 -3.534 -1.7565 -4.789 -1.7695 -3.595 -2.3335 -2.9805 -4.5445 -3.4155 -8.723001 -1.7695 -3.277 0 
-9.836 -5.054 -4.2105 -16.54652 -14.50322 -5.2485 -2.9195 -5.496 -5.928 -4.2025 -7.0135 -7.574501 -4.512 -5.344501 -4.5275 -5.7055 -5.4255 -5.4925 -6.484 -4.6395 -5.7545 -4.908 -3.1405 -7.663 -5.388 -7.003 -8.518001 -4.063 -4.636 -4.6265 -6.006001 -5.9565 -4.741 -5.272 -4.1515 -6.026 -6.969501 -13.3527 -10.3675 -4.619 -3.277 
-10.601 -7.2285 -18.01182 -18.88002 -17.41822 -5.8265 -7.39 -6.573 -7.562 -7.994 -9.6005 -9.207001 -6.8555 -5.7685 -7.4535 -7.4255 -5.5 -8.423 -7.467 -7.6185 -6.2895 -5.5165 -7.9445 -8.5585 -10.151 -10.5535 -9.904 -6.8735 -5.288 -6.604 -7.344 -8.4615 -6.1495 -6.0785 -7.519501 -7.963 -17.8621 -14.9972 -13.217 -4.619 
-12.7755 -21.62902 -20.34532 -21.79502 -17.99622 -9.92 -8.2215 -7.906 -8.393001 -10.0885 -11.281 -11.7165 -7.339001 -8.701 -9.014001 -7.6475 -8.4285 -9.2945 -10.2485 -7.6425 -6.659 -9.835501 -8.746501 -13.5259 -13.8197 -11.9395 -12.7145 -6.9805 -7.829 -7.625 -9.384001 -10.5225 -6.9585 -9.903001 -9.59 -19.0186 -19.5066 -17.8467 -13.217 
-27.17602 -23.96252 -23.26032 -22.37302 -22.08972 -10.407 -8.5505 -8.408 -10.107 -11.769 -13.7905 -12.2 -10.5855 -9.978001 -9.5495 -10.099 -9.3015 -12.212 -10.268 -8.0035 -11.24 -10.1295 -13.7481 -17.1946 -15.2057 -14.75 -12.8215 -9.011001 -9.262 -9.4495 -11.3894 -11.3315 -10.8082 -11.9735 -20.77 -20.6631 -22.3561 -17.8467 
