-4.759 
n/a 
n/a 
n/a 
n/a 
-4.759 
n/a 
n/a 
n/a 
n/a 
-4.759 
n/a 
n/a 
n/a 
n/a 
-4.759 
n/a 
n/a 
n/a 
n/a 
-4.267 -1.7565 -3.3975 -2.229 -4.0925 -1.756 -4.0215 -1.7695 -3.3975 -3.8035 -1.7695 -4.2765 -1.4985 -4.0505 0 
-6.9535 -5.1925 -5.377 -6.4425 -5.4815 -5.3795 -5.521 -5.693501 -6.842 -5.74 -4.5005 -5.248 -4.985001 -4.0505 
-11.0519 -8.0155 -9.748501 -7.978 -10.1895 -7.4825 -10.6095 -8.427001 -8.791 -7.928 -5.474 -9.313001 -4.985001 
-13.8749 -12.6638 -11.1388 -13.066 -12.2925 -12.7884 -13.343 -10.233 -11.0542 -9.175 -9.437 -9.313001 
-18.5232 -14.0541 -16.2268 -15.169 -17.5984 -15.5219 -15.149 -12.4962 -12.3012 -13.2844 -9.437 
-4.267 -3.3975 -2.7415 -3.135 -3.1385 -4.1895 -3.3975 -4.3655 -2.7415 -4.1975 -4.2305 0 
-7.521501 -5.9445 -5.6645 -4.8745 -8.186001 -8.279001 -6.302001 -7.3825 -5.841001 -9.7155 -4.2305 
-9.951 -9.4055 -8.2845 -10.168 -12.8321 -11.5295 -9.149 -10.6998 -12.4046 -9.7155 
-13.412 -12.6465 -13.7206 -15.0129 -16.0826 -14.3765 -12.5065 -17.2634 -12.4046 
-16.653 -18.0826 -18.5655 -18.2634 -18.9296 -17.734 -19.0701 -17.2634 
-1.934 -1.4985 -4.267 -4.1455 0 -1.4985 -3.499 -1.7565 -1.4985 -3.3975 -2.4945 -4.1895 -1.7695 -2.871 -3.571 -1.756 -3.074 -4.2705 -1.7695 -4.6675 -1.4985 -3.6885 -4.236 -2.3335 -5.299 -1.934 -1.4985 -3.3975 
-2.6125 -5.119 -8.4245 -4.1455 -1.4985 -4.967 -4.306 -2.4195 -4.584001 -6.032001 -6.3275 -5.1555 -4.5615 -5.0305 -5.557 -4.566 -5.8645 -5.3315 -5.024 -5.326 -4.307 -7.901501 -7.1115 -6.422501 -6.443 -2.6125 -4.584001 
-6.376 -9.7915 -8.4245 -5.8425 -4.967 -5.2225 -4.5175 -5.405 -7.000501 -10.2645 -7.225501 -8.571 -5.7685 -5.9415 -7.9505 -7.1595 -6.5535 -7.772 -5.636 -5.8 -8.594501 -11.305 -11.5659 -7.2105 -6.9905 -5.559 
-10.4765 -9.7915 -9.901501 -9.0185 -5.2225 -5.4195 -6.497 -7.4605 -11.3242 -11.1625 -9.848001 -8.8955 -6.6445 -8.2805 -10.6735 -7.817 -9.311001 -8.262 -6.1305 -9.217 -12.0178 -15.7594 -12.3539 -7.8335 -10.138 
-10.4765 -11.2685 -13.0775 -9.1625 -5.4195 -7.57 -7.8945 -11.8492 -12.2222 -13.785 -9.984 -9.809501 -8.98 -11.1209 -11.331 -10.264 -9.557 -8.578501 -9.935 -12.7491 -16.4722 -16.5474 -12.9769 -11.1126 
-1.934 -4.267 -4.1455 0 -5.1215 -3.0785 -3.345 -2.8965 -1.756 -3.074 -5.081 -3.3975 -3.8035 -6.8065 0 
-6.221 -8.4245 -4.1455 -5.1215 -8.6315 -6.134 -4.4605 -5.196 -4.566 -8.047 -8.503 -6.842 -9.294001 -6.8065 
-9.217501 -8.4245 -8.274 -8.6315 -10.3475 -6.244 -5.3885 -7.639501 -9.528501 -11.722 -10.354 -12.5631 -9.294001 
-9.217501 -12.6978 -12.2756 -10.3475 -10.4295 -7.451 -7.738501 -12.8256 -13.2707 -13.573 -16.0751 -12.5631 
-13.558 -16.6994 -13.9916 -10.4295 -11.6365 -9.801001 -12.974 -16.5678 -15.1217 -19.2941 -16.0751 
