-4.759 
n/a 
n/a 
n/a 
n/a 
-4.759 
n/a 
n/a 
n/a 
n/a 
-4.759 
n/a 
n/a 
n/a 
n/a 
-4.759 
n/a 
n/a 
n/a 
n/a 
-3.8005 -1.756 -4.1865 -3.499 -2.186 -3.213 -2.264 -4.187 -1.756 -5.7905 -4.4325 
-5.2495 -5.8775 -8.3155 -6.068501 -6.363 -4.6045 -6.693001 -5.7165 -6.4375 -9.669001 
-9.064501 -9.474 -11.2994 -10.6617 -7.811 -9.135 -8.002001 -9.331 -10.533 
-12.7 -12.6185 -15.8926 -12.1097 -12.4621 -10.007 -11.9185 -13.4809 
-15.8445 -17.2117 -17.3406 -16.7608 -13.3341 -14.7735 -16.0684 
-3.8005 0 -3.8735 -4.9225 -2.4945 -3.6705 -1.7695 -4.3905 -4.4775 -1.7695 -4.1805 0 -2.3615 -4.1645 -1.7695 -3.849 -4.9455 
-3.8005 -3.8735 -8.646 -6.9525 -5.072001 -5.2245 -6.5635 -8.4685 -6.387001 -5.702 -4.1805 -2.3615 -8.040501 -5.719501 -7.458001 -9.038 
-5.7635 -8.646 -11.445 -9.509001 -6.0065 -11.4143 -10.328 -10.7194 -11.0427 -5.702 -6.9335 -8.040501 -10.0509 -12.1452 -12.9548 
-12.0018 -11.445 -14.0015 -10.436 -12.4745 -15.1788 -12.5789 -15.3751 -11.0427 -8.06 -12.9521 -10.0509 -16.4766 -17.642 
-14.8008 -14.0015 -14.9285 -16.904 -16.239 -17.4297 -17.2346 -15.3751 -13.4007 -14.298 -14.9625 -16.4766 -21.9734 
-4.1125 -1.756 -4.1865 -6.458 -4.254 -1.4985 -4.7985 -2.0935 -4.4995 -1.4985 -4.2745 0 
-5.9005 -5.8775 -10.3745 -10.958 -6.1155 -6.211 -6.28 -7.179 -5.989 -5.3055 -4.2745 
-7.217 -12.5597 -14.8745 -12.8195 -10.004 -8.12 -12.4385 -9.4665 -9.9925 -5.3055 
-14.5282 -17.0597 -16.736 -16.708 -11.913 -13.9793 -14.726 -13.5974 -9.9925 
-19.0282 -18.9212 -20.6245 -18.617 -17.7723 -16.2668 -18.8569 -13.5974 
-6.254 -2.5195 -3.8735 -1.756 -3.8005 -3.152 -4.75 -1.934 -1.4985 -3.6175 -1.7565 -3.94 -1.756 -5.7905 -1.934 -4.4605 
-7.9965 -5.578 -5.3865 -5.53 -6.9795 -6.4525 -4.981 -2.6125 -4.679501 -5.328 -6.403501 -5.875501 -6.4375 -7.7755 -7.085 
-9.1695 -6.7445 -6.318501 -7.759 -10.025 -6.649 -5.6825 -6.2065 -5.948 -8.884501 -7.380001 -6.4995 -8.442501 -13.1815 
-10.045 -7.8365 -8.427501 -10.3955 -10.083 -7.475501 -9.192 -8.170501 -9.229 -9.8925 -7.821001 -8.514501 -13.9333 
-10.64 -9.913 -11.1452 -10.4225 -11.0939 -10.759 -10.0195 -11.4593 -10.287 -10.147 -9.7145 -14.0137 
