-4.759 
n/a 
n/a 
n/a 
n/a 
-4.759 
n/a 
n/a 
n/a 
n/a 
-4.759 
n/a 
n/a 
n/a 
n/a 
-4.759 
n/a 
n/a 
n/a 
n/a 
-4.278 -2.186 -1.8085 -3.046 -2.915 -4.23 -3.534 0 
-5.364 -3.164 -4.2695 -5.9785 -5.7415 -8.205 -3.534 
-5.389501 -5.246 -7.0985 -9.1675 -9.250501 -8.205 
-8.5165 -8.165501 -9.9615 -12.8751 -9.250501 
-12.5032 -10.0505 -14.0449 -12.8751 
-4.1145 -2.186 -1.8085 -3.046 -2.915 -2.9825 
-6.3365 -3.164 -4.2695 -5.9785 -5.72 
-7.133 -5.246 -7.0985 -7.968 
-9.2775 -8.165501 -9.303501 
-12.621 -9.672501 
-4.278 -2.186 -1.8085 -3.046 -3.4605 0 
-5.364 -3.164 -4.2695 -5.652 -3.4605 
-5.389501 -5.246 -6.1005 -5.652 
-8.5165 -7.6065 -6.1005 
-11.9442 -7.6065 
-4.278 -2.186 -1.8085 -3.046 -2.915 -3.5015 
-5.364 -3.164 -4.2695 -5.9785 -6.8605 
-5.389501 -5.246 -7.0985 -10.7718 
-8.5165 -8.165501 -13.2224 
-12.5032 -15.2712 
