-4.759 
n/a 
n/a 
n/a 
n/a 
-4.759 
n/a 
n/a 
n/a 
n/a 
-4.759 
n/a 
n/a 
n/a 
n/a 
-4.759 
n/a 
n/a 
n/a 
n/a 
-2.3345 -4.1885 -6.584 -3.7075 -4.983 -4.0135 -1.4985 -4.885 -4.6625 -1.7565 -3.599 0 
-5.4895 -12.0159 -10.0675 -7.178 -9.662001 -4.874 -5.337 -10.368 -5.9705 -5.282 -3.599 
-13.8045 -15.4994 -13.7638 -12.2656 -10.2665 -10.1635 -10.4675 -11.771 -9.9835 -5.282 
-17.288 -19.1957 -18.8514 -12.8701 -16.0268 -15.294 -11.8705 -15.784 -9.9835 
-20.9843 -24.2833 -19.4559 -18.6304 -21.1573 -16.697 -15.8835 -15.784 
-2.3615 -3.9665 -4.017 -9.77 -1.756 -5.201 -1.4985 -4.7295 -3.9615 -1.4985 -3.7075 -4.983 0 
-6.751 -8.299 -14.7996 -11.707 -6.326 -5.7695 -5.615001 -8.411501 -4.716 -4.6235 -7.178 -4.983 
-11.6969 -19.5178 -16.7366 -16.277 -6.915 -9.048 -9.353001 -8.754001 -7.585001 -7.854001 -7.178 
-22.9157 -21.4548 -21.3066 -16.866 -10.218 -13.1608 -9.638 -10.048 -11.2379 -7.854001 
-24.8527 -26.0248 -21.8956 -20.169 -14.3308 -13.4458 -10.9668 -13.7009 -11.2379 
-2.3615 -3.6445 -5.9465 -1.4985 -4.969 -2.9705 -1.934 -3.9615 -2.3345 -3.7075 -4.983 -3.599 -2.3345 -4.1885 -6.584 0 
-5.0345 -11.117 -6.9455 -6.111 -6.861001 -5.115 -6.076 -6.346 -6.118 -7.178 -9.1145 -6.363 -5.4895 -12.0159 -6.584 
-13.616 -12.116 -12.2518 -8.0675 -8.8345 -10.0575 -8.1885 -10.223 -8.8345 -10.7595 -12.2525 -9.4005 -13.8045 -12.0159 
-14.615 -17.4223 -14.2083 -10.0675 -13.9858 -12.2486 -12.1715 -12.9395 -12.9808 -13.8975 -15.29 -17.7111 -13.8045 
-19.9213 -19.3788 -16.2083 -15.2596 -16.1769 -16.2316 -14.888 -17.0858 -16.1188 -16.935 -23.6006 -17.7111 
-2.3615 -3.319 -1.7565 -3.8725 -6.584 -5.045 -1.7695 -7.4535 0 
-4.9575 -4.165 -6.140501 -11.6935 -12.4956 -6.2415 -10.2865 -7.4535 
-5.092 -8.604501 -14.3425 -17.6051 -13.6921 -16.0349 -10.2865 
-9.368501 -17.0029 -20.2541 -18.8016 -23.4855 -16.0349 
-17.8819 -22.9145 -21.4506 -28.595 -23.4855 
