-4.759 
n/a 
n/a 
n/a 
n/a 
-4.759 
n/a 
n/a 
n/a 
n/a 
-4.759 
n/a 
n/a 
n/a 
n/a 
-4.759 
n/a 
n/a 
n/a 
n/a 
-3.7075 -5.9565 0 -3.7075 -3.3195 0 -3.7075 -2.9195 0 -3.2785 -5.9565 0 -7.772501 -5.9565 0 -8.012501 -5.9565 0 -8.012501 -2.9195 0 -5.6305 -5.9565 0 -5.6305 -3.598 -3.8725 0 -3.757 -5.7715 0 -5.9605 -5.9565 0 -5.9605 -4.021 0 -5.9605 -3.8725 0 -7.3625 -8.8125 0 -2.229 0 
-9.956501 -5.2405 -3.7075 -7.555 -3.3195 -3.7075 -6.134 -2.9195 -3.2785 -7.87 -5.2405 -7.772501 -13.9858 -5.2405 -8.012501 -13.4015 -5.2405 -8.012501 -10.862 -2.9195 -5.6305 -11.168 -5.2405 -5.6305 -9.255501 -7.051001 -3.8725 -3.757 -8.376 -5.7715 -5.9605 -12.124 -5.2405 -5.9605 -9.3785 -4.021 -5.9605 -9.457001 -3.8725 -7.3625 -9.3615 -8.8125 -2.229 -2.229 
-9.745501 -9.863001 -7.555 -7.555 -7.7545 -6.134 -6.134 -7.4025 -7.29 -7.29 -13.4194 -13.9858 -13.9858 -13.6594 -13.4015 -13.4015 -13.6594 -10.862 -10.862 -8.982 -10.2535 -10.2535 -10.9614 -9.255501 -9.432501 -7.051001 -7.231 -8.376 -8.376 -10.115 -10.6755 -10.6755 -11.5369 -9.3785 -9.3785 -10.2925 -9.457001 -9.457001 -12.1182 -9.3615 -9.3615 -11.1415 -2.229 
-14.4504 -14.5473 -7.555 -9.443501 -10.111 -6.134 -11.8154 -12.2405 -7.29 -15.7681 -19.6327 -13.9858 -22.4047 -19.0484 -13.4015 -21.8204 -16.5089 -10.862 -16.9245 -14.0224 -10.2535 -16.1848 -14.8724 -9.432501 -9.432501 -11.3097 -9.651501 -8.376 -10.533 -15.3224 -10.6755 -16.9719 -15.4107 -9.3785 -10.3295 -10.3985 -9.457001 -17.9127 -14.1172 -9.3615 -11.8449 -11.1415 
-19.1347 -14.5473 -9.443501 -10.1395 -10.111 -11.8154 -16.6534 -12.2405 -15.7681 -21.9814 -19.6327 -22.4047 -27.7937 -19.0484 -21.8204 -24.6699 -16.5089 -16.9245 -21.9649 -14.0224 -16.1848 -20.0958 -15.0494 -9.432501 -13.9842 -13.7302 -9.651501 -10.533 -16.0696 -15.3224 -16.9719 -20.8457 -15.4107 -10.3295 -10.4005 -10.3985 -17.9127 -19.9117 -14.1172 -11.8449 -11.8449 
-3.7075 -3.46 0 -3.7075 -3.3195 0 -3.7075 -2.9195 0 -6.8685 0 -7.772501 -4.1745 0 -12.16972 -3.46 0 -12.16972 -2.9195 0 -5.6305 -3.46 0 -5.6305 -2.9195 0 -5.6305 -3.598 -3.8725 0 -3.757 -5.7715 0 -5.9605 -3.46 0 -5.9605 -4.021 0 -5.9605 -3.8725 0 -7.3625 -8.8125 
-6.5895 -3.46 -3.7075 -7.555 -3.3195 -3.7075 -6.134 -2.9195 -6.8685 -6.8685 -7.772501 -11.1415 -4.1745 -12.16972 -15.62972 -3.46 -12.16972 -15.08922 -2.9195 -5.6305 -8.198 -3.46 -5.6305 -8.904 -2.9195 -5.6305 -9.255501 -7.051001 -3.8725 -3.757 -8.376 -5.7715 -5.9605 -8.0985 -3.46 -5.9605 -9.3785 -4.021 -5.9605 -9.457001 -3.8725 -7.3625 -9.3615 
-6.5895 -7.636001 -7.555 -7.555 -7.7545 -6.134 -6.134 -10.4345 -6.8685 -15.1202 -11.1415 -11.1415 -17.59562 -15.62972 -15.62972 -16.46212 -15.08922 -15.08922 -8.982 -8.198 -8.198 -8.720501 -8.904 -8.904 -8.982 -9.255501 -9.432501 -7.051001 -7.231 -8.376 -8.376 -10.115 -8.0985 -8.0985 -8.916 -9.3785 -9.3785 -10.2925 -9.457001 -9.457001 -12.1182 -9.3615 
-8.911501 -9.493 -7.555 -9.443501 -10.111 -6.134 -14.8474 -10.4345 -15.1202 -18.4892 -11.1415 -24.56262 -21.05562 -15.62972 -28.63184 -19.38162 -15.08922 -21.15172 -10.048 -8.198 -9.814 -9.718501 -8.904 -10.0895 -13.0244 -9.432501 -9.432501 -11.3097 -9.651501 -8.376 -10.533 -10.282 -8.0985 -9.262501 -10.0475 -9.3785 -10.3295 -10.3985 -9.457001 -17.9127 -14.1172 
-10.6215 -9.493 -9.443501 -10.1395 -10.111 -14.8474 -14.8474 -18.6862 -18.4892 -18.4892 -24.56262 -28.02262 -21.05562 -28.63184 -31.55134 -19.38162 -21.15172 -22.21772 -10.048 -9.814 -11.1838 -9.718501 -10.0895 -14.7363 -13.2014 -9.432501 -13.9842 -13.7302 -9.651501 -10.533 -10.603 -10.282 -9.262501 -10.7605 -10.0475 -10.3295 -10.4005 -10.3985 -17.9127 -19.9117 
-3.7075 -3.46 0 -3.7075 -3.3195 0 -3.7075 -2.9195 0 -3.2785 -3.46 0 -7.772501 -3.46 0 -10.312 -3.46 0 -10.312 -2.9195 0 -5.6305 -3.46 0 -5.6305 -2.9195 0 -5.6305 -3.598 -3.8725 0 -3.757 -5.7715 0 -5.9605 -3.46 0 -5.9605 -4.021 0 -5.9605 -3.8725 0 -7.3625 -8.8125 0 -2.229 -3.3195 
-6.5895 -3.46 -3.7075 -7.555 -3.3195 -3.7075 -6.134 -2.9195 -3.2785 -7.4135 -3.46 -7.772501 -8.559001 -3.46 -10.312 -10.985 -3.46 -10.312 -13.5335 -2.9195 -5.6305 -8.198 -3.46 -5.6305 -8.904 -2.9195 -5.6305 -9.255501 -7.051001 -3.8725 -3.757 -8.376 -5.7715 -5.9605 -8.0985 -3.46 -5.9605 -9.3785 -4.021 -5.9605 -9.457001 -3.8725 -7.3625 -9.3615 -8.8125 -2.229 -5.3755 
-6.5895 -7.636001 -7.555 -7.555 -7.7545 -6.134 -6.134 -7.4025 -7.4135 -7.4135 -8.999001 -8.559001 -8.559001 -14.6044 -10.985 -10.985 -14.6044 -13.5335 -13.5335 -8.982 -8.198 -8.198 -8.720501 -8.904 -8.904 -8.982 -9.255501 -9.432501 -7.051001 -7.231 -8.376 -8.376 -10.115 -8.0985 -8.0985 -8.916 -9.3785 -9.3785 -10.2925 -9.457001 -9.457001 -12.1182 -9.3615 -9.3615 -11.1415 -5.3755 
-8.911501 -9.493 -7.555 -9.443501 -10.111 -6.134 -11.8154 -12.3125 -7.4135 -13.2907 -9.004001 -8.559001 -20.3104 -15.2774 -10.985 -22.1294 -17.8259 -13.5335 -19.596 -10.048 -8.198 -9.814 -9.718501 -8.904 -10.0895 -13.0244 -9.432501 -9.432501 -11.3097 -9.651501 -8.376 -10.533 -10.282 -8.0985 -9.262501 -10.0475 -9.3785 -10.3295 -10.3985 -9.457001 -17.9127 -14.1172 -9.3615 -11.8449 -14.288 
-10.6215 -9.493 -9.443501 -10.1395 -10.111 -11.8154 -16.7254 -12.3125 -13.2907 -13.2957 -9.004001 -20.3104 -20.9834 -15.2774 -22.1294 -25.3509 -17.8259 -19.596 -20.662 -10.048 -9.814 -11.1838 -9.718501 -10.0895 -14.7363 -13.2014 -9.432501 -13.9842 -13.7302 -9.651501 -10.533 -10.603 -10.282 -9.262501 -10.7605 -10.0475 -10.3295 -10.4005 -10.3985 -17.9127 -19.9117 -14.1172 -11.8449 -14.9914 
-3.7075 -3.46 0 -3.7075 -3.3195 0 -3.7075 -2.9195 0 -3.2785 -3.46 0 -7.772501 -4.718 0 -8.5165 -3.46 0 -8.5165 -2.9195 0 -5.6305 -3.46 0 -5.6305 -2.9195 0 -5.6305 -3.598 -3.8725 0 -3.757 -5.7715 0 -5.9605 -3.46 0 -5.9605 -4.021 0 -5.9605 -3.8725 0 -7.3625 -8.8125 0 -2.229 0 
-6.5895 -3.46 -3.7075 -7.555 -3.3195 -3.7075 -6.134 -2.9195 -3.2785 -7.4135 -3.46 -7.772501 -13.4633 -4.718 -8.5165 -8.6335 -3.46 -8.5165 -12.7378 -2.9195 -5.6305 -8.198 -3.46 -5.6305 -8.904 -2.9195 -5.6305 -9.255501 -7.051001 -3.8725 -3.757 -8.376 -5.7715 -5.9605 -8.0985 -3.46 -5.9605 -9.3785 -4.021 -5.9605 -9.457001 -3.8725 -7.3625 -9.3615 -8.8125 -2.229 -2.229 
-6.5895 -7.636001 -7.555 -7.555 -7.7545 -6.134 -6.134 -7.4025 -7.4135 -7.4135 -8.999001 -13.4633 -13.4633 -13.6023 -8.6335 -8.6335 -10.1425 -12.7378 -12.7378 -8.982 -8.198 -8.198 -8.720501 -8.904 -8.904 -8.982 -9.255501 -9.432501 -7.051001 -7.231 -8.376 -8.376 -10.115 -8.0985 -8.0985 -8.916 -9.3785 -9.3785 -10.2925 -9.457001 -9.457001 -12.1182 -9.3615 -9.3615 -11.1415 -2.229 
-8.911501 -9.493 -7.555 -9.443501 -10.111 -6.134 -11.8154 -12.3125 -7.4135 -13.2907 -16.534 -13.4633 -22.3476 -13.7193 -8.6335 -16.1544 -15.201 -12.7378 -18.8003 -10.048 -8.198 -9.814 -9.718501 -8.904 -10.0895 -13.0244 -9.432501 -9.432501 -11.3097 -9.651501 -8.376 -10.533 -10.282 -8.0985 -9.262501 -10.0475 -9.3785 -10.3295 -10.3985 -9.457001 -17.9127 -14.1172 -9.3615 -11.8449 -11.1415 
-10.6215 -9.493 -9.443501 -10.1395 -10.111 -11.8154 -16.7254 -12.3125 -13.2907 -20.8257 -16.534 -22.3476 -22.4646 -13.7193 -16.1544 -21.2129 -15.201 -18.8003 -19.8663 -10.048 -9.814 -11.1838 -9.718501 -10.0895 -14.7363 -13.2014 -9.432501 -13.9842 -13.7302 -9.651501 -10.533 -10.603 -10.282 -9.262501 -10.7605 -10.0475 -10.3295 -10.4005 -10.3985 -17.9127 -19.9117 -14.1172 -11.8449 -11.8449 
