-4.759 
n/a 
n/a 
n/a 
n/a 
-4.759 
n/a 
n/a 
n/a 
n/a 
-4.759 
n/a 
n/a 
n/a 
n/a 
-4.759 
n/a 
n/a 
n/a 
n/a 
-3.3715 -3.6885 -3.8135 -4.2675 -2.9995 -4.2275 -2.3335 -6.516 -3.1495 -4.244 0 -3.4985 -3.769 -3.61 -2.0935 -4.2 -2.356 -3.776 -4.4145 -2.4265 -2.229 -3.074 -3.768 -1.7695 -4.2985 -4.4145 -2.3345 -4.955 -5.044 -4.065 0 -2.4285 -3.1065 -4.065 
-7.545 -6.305 -8.1145 -5.864 -6.843 -6.395 -7.665501 -8.321 -6.023 -4.244 -3.4985 -5.473 -7.079 -4.5125 -5.3255 -6.2015 -5.6495 -8.272 -7.307 -3.3415 -5.0265 -5.650001 -4.5885 -4.9165 -8.942 -6.9405 -5.811501 -10.143 -7.998 -4.065 -2.4285 -5.672 -5.634 
-8.7965 -11.4042 -10.3345 -9.0565 -8.4705 -12.705 -9.238001 -9.116 -6.023 -7.526 -5.473 -8.1735 -7.961501 -8.9075 -7.5955 -8.743 -9.785001 -11.6693 -8.468 -5.3045 -6.625 -6.042 -7.4055 -9.4975 -10.757 -9.676001 -11.6601 -13.097 -7.998 -6.261 -5.672 -8.250501 
-14.2477 -13.6242 -13.527 -10.1725 -15.3329 -14.2775 -9.949 -9.116 -8.9515 -9.2145 -8.1735 -9.097 -12.6817 -9.943 -10.0095 -13.1439 -13.5795 -12.8303 -10.403 -6.6275 -6.831 -8.935 -12.2057 -11.0985 -13.4925 -15.5076 -14.6141 -13.097 -9.799001 -9.0115 -8.250501 
-16.4677 -16.8167 -14.643 -17.4649 -16.9054 -14.9885 -9.949 -12.2359 -10.513 -12.0498 -9.097 -13.8354 -13.7172 -12.4454 -14.4104 -16.9384 -14.7405 -14.7653 -11.726 -6.831 -10.1465 -13.9918 -13.8067 -13.834 -19.3241 -18.4616 -14.6141 -14.898 -12.5495 -9.4835 
-1.934 -5.1845 -5.74 -3.1715 -3.8195 -3.4865 -3.9795 -2.0935 -3.2825 -4.681 -2.0935 -9.059 -4.1735 -9.028501 -1.934 -3.5905 0 
-6.564 -5.7465 -7.546 -7.534 -7.4135 -6.708 -5.1125 -5.143001 -6.239501 -6.8195 -11.136 -9.441 -9.596001 -10.564 -5.055 -3.5905 
-6.819 -7.548 -9.124001 -10.19 -9.951 -7.4545 -5.999001 -6.9715 -7.448501 -16.347 -11.518 -9.6865 -11.1979 -13.685 -5.055 
-8.446501 -9.123501 -10.209 -10.283 -10.218 -8.7735 -7.411 -7.9725 -17.2974 -16.729 -11.7635 -11.3114 -14.3189 -13.685 
-10.4064 -10.2085 -10.2835 -10.2925 -10.288 -10.3155 -8.361501 -18.1728 -17.6794 -16.9745 -13.3884 -14.4324 -14.3189 
-1.934 -1.4985 -3.158 -3.5905 -2.9805 -3.9955 -1.4985 -3.1715 -3.9795 -2.0935 -1.4985 -3.8195 -9.059 -4.1735 -8.474 
-2.6125 -4.178 -5.795 -6.272 -5.513 -5.0175 -3.994 -6.957001 -5.1125 -2.9725 -4.771 -10.784 -9.441 -9.620001 
-5.265 -6.693 -8.7895 -8.355 -6.2655 -7.3255 -8.201 -7.93 -6.159 -6.207 -12.2357 -11.166 -9.831 
-7.235001 -8.943501 -10.7175 -8.604501 -8.6145 -9.414001 -8.963501 -8.847 -8.413 -13.8607 -12.6177 -11.556 
-9.193001 -10.9007 -10.967 -11.0781 -10.737 -9.705501 -9.8205 -11.5266 -16.3397 -14.2427 -13.0077 
-3.5905 -2.9805 -3.8935 -3.4865 -4.681 -3.9795 -2.5195 -6.557 -3.5435 0 
-6.272 -5.5395 -7.0645 -8.881001 -7.3555 -5.775001 -8.5205 -8.731501 -3.5435 
-7.921 -8.702001 -13.1686 -11.7489 -8.834001 -10.674 -10.368 -8.731501 
-11.6265 -14.8931 -16.0365 -13.2274 -14.152 -12.5215 -10.368 
-17.8176 -17.761 -17.515 -18.5454 -15.9995 -12.5215 
