-4.759 
n/a 
n/a 
n/a 
n/a 
-4.759 
n/a 
n/a 
n/a 
n/a 
-4.759 
n/a 
n/a 
n/a 
n/a 
-4.759 
n/a 
n/a 
n/a 
n/a 
-5.42 -3.16 -3.913 -2.186 -4.3285 -2.5045 -1.8085 -3.8225 -3.8235 0 
-8.781 -6.9215 -5.354 -5.679501 -5.8325 -3.3625 -4.8095 -6.983 -3.8235 
-12.8353 -8.4565 -7.8615 -6.8435 -6.476 -6.4915 -7.366 -6.983 
-14.3703 -11.2614 -10.1985 -7.4635 -9.028001 -9.354 -7.366 
-17.1752 -13.5984 -10.8185 -9.908001 -12.1283 -9.354 
-3.1015 -3.473 -3.3785 -3.8235 -1.7695 -4.598 0 
-6.362 -6.746 -7.660001 -5.489 -6.4925 -4.598 
-10.354 -11.9703 -9.4925 -11.003 -6.4925 
-15.5783 -13.8028 -15.0767 -11.003 
-17.4108 -19.387 -15.0767 
-3.1015 -3.16 -7.528 -2.186 -1.4985 -3.8225 -3.8235 -4.3285 
-6.272 -10.8415 -8.966001 -3.339 -4.887 -6.983 -8.606001 
-15.0859 -12.2795 -10.6316 -6.5005 -8.029 -12.4503 
-16.5239 -13.9451 -13.7931 -9.096001 -13.7095 
-18.1895 -17.1066 -16.3886 -15.2119 
-3.1015 -2.7295 -2.674 -3.16 -4.0605 0 
-4.9525 -3.8 -6.737 -5.8745 -4.0605 
-5.731 -8.147 -9.473001 -5.8745 
-9.543 -11.2772 -9.473001 
-12.911 -11.2772 
