-4.759 
n/a 
n/a 
n/a 
n/a 
-4.759 
n/a 
n/a 
n/a 
n/a 
-4.759 
n/a 
n/a 
n/a 
n/a 
-4.759 
n/a 
n/a 
n/a 
n/a 
-2.264 -4.4525 -1.4985 -5.3305 -1.7565 -12.16972 -1.756 -2.9805 -5.459 -1.7565 -12.16972 -3.8625 -5.227 0 -2.4265 -4.8985 -1.4985 -3.909 -2.3335 -1.4985 -5.009 -2.4945 -3.818 0 
-6.533501 -5.323501 -6.828 -7.0195 -14.87542 -13.92572 -4.3555 -9.928 -6.883 -14.87542 -16.03222 -9.6745 -5.227 -2.4265 -6.579 -5.7895 -4.339 -4.3805 -3.3515 -6.4265 -6.747 -5.7935 -3.818 
-7.2015 -10.5325 -8.262501 -21.06022 -16.63142 -16.52522 -11.8682 -11.352 -20.42112 -18.73792 -21.84422 -9.6745 -8.354 -6.579 -7.2475 -8.148001 -4.4215 -5.1165 -7.891 -7.892001 -9.760501 -5.7935 
-12.5173 -11.967 -22.22502 -22.81622 -19.23092 -24.03792 -13.2922 -24.89012 -24.28362 -24.54992 -21.84422 -12.9195 -13.1187 -7.2475 -9.389501 -8.184 -5.1465 -9.5985 -9.0045 -10.2975 -9.760501 
-13.9518 -25.92952 -23.98102 -25.41572 -26.74362 -25.46192 -26.83032 -28.75262 -30.09562 -24.54992 -25.08922 -17.6842 -13.7872 -9.389501 -9.451501 -8.853001 -9.6455 -10.7468 -11.5586 -10.2975 
-4.5275 -3.5155 -1.4985 -12.16972 -12.16972 -1.756 -12.16972 -9.809501 -2.7295 -2.882 -3.6955 -1.7695 -1.8085 -4.6645 -2.3335 -2.4265 -2.742 -2.489 -3.818 0 
-7.091001 -4.496 -14.76202 -24.33944 -13.92572 -14.93432 -21.97922 -12.6366 -4.7675 -5.719 -4.4705 -3.41 -6.004001 -5.5905 -3.913 -4.095 -3.301 -5.323 -3.818 
-7.5835 -17.84692 -26.93174 -26.09544 -27.10404 -24.74382 -24.80632 -14.6746 -7.570001 -6.581501 -5.808 -6.6435 -6.7965 -6.9345 -5.1505 -4.601 -6.811 -5.323 
-21.23942 -30.01664 -28.68774 -39.27376 -36.91354 -27.57092 -26.84432 -17.4771 -7.9325 -7.929501 -7.180501 -7.3925 -8.408001 -8.592501 -5.627501 -7.956 -6.811 
-33.40914 -31.77264 -41.86606 -49.08326 -39.74064 -29.60892 -29.64682 -17.8396 -9.0225 -9.4045 -7.9605 -8.807501 -9.8135 -8.924001 -9.155001 -7.956 
-2.7835 -2.7295 -4.3325 -1.4985 -5.593 -3.557 -1.934 -1.4985 -5.459 -1.7565 -10.6015 -1.756 -12.16972 0 -2.4265 -2.7415 -3.557 -2.3335 -3.1495 -5.009 -4.114 -1.7695 -2.489 -3.818 0 
-4.405 -7.0885 -6.2565 -7.217 -9.342001 -4.4175 -2.6125 -6.919001 -6.883 -13.3072 -12.6093 -14.93432 -12.16972 -2.4265 -3.681 -5.094501 -4.678 -4.8015 -6.636001 -9.374001 -4.4525 -3.1405 -5.323 -3.818 
-8.5965 -7.627501 -12.2324 -9.7725 -9.712001 -4.9675 -8.469 -7.787001 -18.8529 -15.315 -25.78762 -14.93432 -14.59622 -3.681 -5.985 -6.152 -6.921 -8.047501 -10.4945 -9.5725 -4.8225 -5.6565 -5.323 
-9.262501 -13.7678 -14.7879 -9.948501 -10.517 -10.0505 -9.008 -20.0763 -20.8607 -28.49332 -25.78762 -17.36082 -15.85072 -5.985 -6.1755 -8.238001 -10.1715 -12.413 -10.5795 -9.9925 -7.454 -5.6565 
-15.5292 -16.3233 -14.9639 -11.0087 -15.6 -10.286 -21.4369 -22.0841 -34.03902 -28.49332 -28.21412 -18.61532 -18.15472 -6.1755 -8.2495 -11.5429 -14.6856 -12.498 -10.9995 -12.624 -7.454 
-12.16972 -12.16972 -12.16972 -9.809501 -3.047 -3.776 -2.0935 -4.267 -2.3335 -4.688 -2.186 -3.668 -2.0935 -2.3615 0 
-24.33944 -24.33944 -21.97922 -12.9541 -6.8805 -6.101 -6.121 -7.131001 -6.820001 -6.4885 -7.023001 -5.612 -3.854 -2.3615 
-36.50916 -34.14894 -25.12382 -16.7876 -9.8381 -10.757 -9.5766 -12.1003 -8.448501 -11.8777 -8.67 -7.317501 -3.854 
-46.31866 -37.29354 -28.95732 -19.7452 -14.4941 -14.2126 -14.5459 -13.7288 -14.0023 -13.5247 -10.7577 -7.317501 
-49.46326 -41.12704 -31.91492 -24.4012 -17.9497 -19.1819 -16.1744 -19.2826 -15.6493 -15.6124 -10.7577 
