-4.759 
n/a 
n/a 
n/a 
n/a 
-4.759 
n/a 
n/a 
n/a 
n/a 
-4.759 
n/a 
n/a 
n/a 
n/a 
-4.759 
n/a 
n/a 
n/a 
n/a 
-6.3565 -4.891 0 -3.251 -3.7375 -3.7805 -3.319 -4.5855 -4.4345 -2.0935 -5.046 -4.299 0 
-10.9855 -4.891 -3.251 -6.771 -7.353001 -7.325 -7.173501 -11.0145 -6.634501 -6.9975 -7.1035 -4.299 
-10.9855 -7.578501 -6.771 -10.7335 -11.5209 -11.6613 -14.4947 -13.2145 -9.577001 -9.8065 -7.1035 
-13.673 -11.3397 -10.7335 -14.9014 -15.8572 -18.9825 -16.6947 -16.157 -13.1532 -9.8065 
-17.4342 -15.3022 -14.9014 -19.2377 -23.1784 -21.1825 -19.6372 -19.7332 -13.1532 
-3.599 -4.891 -2.3615 -4.795 -4.3185 -8.9115 -4.0935 -3.135 -3.8935 -12.16972 
-9.017501 -7.842 -9.1405 -10.0315 -14.3878 -13.212 -6.128 -6.063001 -17.17062 
-12.2035 -15.1846 -14.3382 -20.2582 -18.7895 -15.1157 -8.7735 -19.89672 
-19.5461 -20.3823 -24.5649 -24.6599 -20.552 -18.02 -22.80802 
-24.7438 -30.609 -28.9666 -26.4224 -23.4563 -32.05452 
-4.392 -4.891 -3.1495 -4.1965 -1.7565 -4.392 -3.7865 0 -2.3615 -4.114 -3.135 -7.7765 -4.4345 0 
-9.969501 -8.809 -6.497 -5.837501 -6.451001 -7.398 -3.7865 -2.3615 -5.625 -7.077001 -10.3225 -12.6616 -4.4345 
-13.8875 -12.3623 -8.580501 -10.634 -9.312 -7.398 -6.832 -5.625 -9.284 -14.6693 -15.5764 -12.6616 
-17.4408 -14.4458 -13.4996 -13.495 -9.312 -9.9585 -10.2755 -9.284 -17.3769 -19.9232 -15.5764 
-19.5243 -19.3649 -16.3606 -13.495 -12.2117 -13.5774 -13.8701 -17.3769 -22.6308 -19.9232 
-3.599 -4.891 -2.4265 -2.186 -1.8085 -8.802501 -3.515 -2.4265 -2.674 -3.535 -3.319 -4.4345 0 
-9.017501 -7.955 -3.292 -3.164 -11.1094 -12.5343 -6.091001 -5.6185 -6.3905 -7.085 -8.081501 -4.4345 
-12.3165 -8.712001 -4.4005 -13.5065 -14.8412 -15.1103 -10.4292 -9.47 -10.0885 -12.2719 -8.081501 
-13.0735 -9.7165 -15.053 -17.2383 -17.4172 -19.4485 -14.2807 -13.4086 -15.2754 -12.2719 
-14.078 -20.414 -18.7848 -19.8143 -21.7554 -23.3 -18.2193 -18.5955 -15.2754 
