-4.759 
n/a 
n/a 
n/a 
n/a 
-4.759 
n/a 
n/a 
n/a 
n/a 
-4.759 
n/a 
n/a 
n/a 
n/a 
-4.759 
n/a 
n/a 
n/a 
n/a 
-2.3615 -4.0375 -4.3185 -4.015 -7.009501 0 -4.015 -3.9225 -4.2655 -1.756 -4.6605 -3.59 -3.115 -2.3335 -4.164 
-6.665501 -9.445501 -8.7145 -12.2757 -7.009501 -4.015 -8.598001 -8.896501 -5.291 -5.7335 -8.824 -6.476501 -4.7415 -6.461 
-12.7443 -13.8723 -17.1774 -12.2757 -11.136 -8.598001 -13.7358 -10.1265 -7.771501 -9.4165 -11.9317 -8.31 -8.1575 
-17.1711 -22.3352 -17.1774 -16.4022 -15.719 -13.7358 -14.9658 -12.607 -11.9323 -13.236 -13.7652 -11.85 
-25.634 -22.3352 -21.3039 -20.9852 -20.8568 -14.9658 -17.4463 -16.7678 -15.7518 -15.0695 -17.3052 
-7.630001 -2.8645 -3.1125 -4.3215 -2.5045 -3.9675 -3.59 0 
-10.6735 -3.5345 -6.045 -6.389 -8.106 -7.609 -3.59 
-11.3435 -6.5055 -7.308001 -12.5303 -12.1649 -7.609 
-14.3145 -7.602 -13.8211 -16.5892 -12.1649 
-15.411 -14.3851 -17.88 -16.5892 
-3.8735 -4.8165 -2.5045 -1.8085 -4.248 -1.756 -5.387 -3.9675 -3.59 
-8.5255 -6.2845 -3.3625 -6.412001 -5.447 -6.4695 -8.125 -7.609 
-9.848001 -7.085 -7.846 -8.175 -9.554001 -9.2535 -12.1291 
-11.0099 -12.1849 -9.93 -12.4982 -12.7896 -13.5384 
-16.1098 -14.2689 -14.2532 -15.7338 -17.0745 
-2.3615 -3.8265 -3.354 -2.925 -2.8645 -3.1125 -4.8165 -2.5045 -2.664 -4.015 0 -5.387 -1.756 -3.1385 -2.229 -3.9675 
-6.727 -8.393001 -4.3775 -6.5165 -3.5345 -6.263 -6.2845 -4.074 -4.926 -4.015 -5.387 -6.713 -5.0125 -4.6125 -5.411 
-10.0745 -9.039001 -7.755 -7.0695 -6.585 -7.5165 -7.6735 -5.8295 -4.926 -8.800001 -6.713 -10.348 -6.627 -5.422501 
-11.6703 -12.5557 -8.286 -10.513 -7.845 -8.777 -9.52 -5.8295 -9.0795 -9.8325 -10.348 -11.9625 -8.342501 
-15.187 -13.0867 -11.9907 -11.773 -9.028001 -10.8851 -9.52 -10.2235 -10.382 -13.6057 -11.9625 -13.678 
