-4.759 
n/a 
n/a 
n/a 
n/a 
-4.759 
n/a 
n/a 
n/a 
n/a 
-4.759 
n/a 
n/a 
n/a 
n/a 
-4.759 
n/a 
n/a 
n/a 
n/a 
-1.4985 -4.9175 -4.7275 -2.8645 -2.6165 -5.344 -1.934 -1.4985 -4.877 -1.7565 -3.5155 -1.4985 -3.809 -1.756 -1.4985 -3.5905 0 
-5.785501 -9.826 -7.0915 -4.475 -7.5465 -6.538 -2.6125 -5.773001 -5.731501 -4.761 -4.496 -4.9045 -5.3055 -3.0405 -4.435 -3.5905 
-11.4484 -12.245 -8.568501 -7.8795 -8.8085 -6.9975 -6.193501 -5.8675 -7.976001 -5.5705 -7.5545 -5.9845 -6.0505 -6.079 -4.435 
-13.8674 -13.722 -12.3346 -9.17 -9.288 -10.634 -6.217 -8.1555 -8.834001 -8.6415 -7.7865 -6.131001 -7.5635 -6.079 
-15.3444 -17.4881 -13.6251 -9.645 -12.9897 -10.655 -8.4715 -8.945001 -10.434 -8.987 -8.0715 -7.5825 -7.5635 
-5.233 -2.674 -2.6165 -3.7925 -4.436 -2.5195 -1.4985 -4.0335 -1.7565 -5.499 -1.756 -4.7405 -4.9225 0 
-8.158501 -4.447 -4.5805 -8.962501 -6.093 -3.1695 -5.143001 -5.6445 -6.690001 -6.4895 -6.0745 -9.271001 -4.9225 
-9.7305 -5.5455 -10.2185 -10.7575 -6.507501 -6.87 -5.877 -11.4622 -7.670001 -9.288 -10.5745 -9.271001 
-10.17 -12.2275 -12.0135 -11.172 -10.695 -7.1115 -12.0951 -12.4422 -10.354 -14.1514 -10.5745 
-17.815 -14.0225 -12.428 -15.3595 -10.9365 -13.4686 -13.0751 -15.1262 -15.2174 -14.1514 
-2.7295 -4.567 -3.456 -3.4765 -2.0935 -2.8705 -5.054 -2.4285 -1.4985 -7.6105 0 
-6.0885 -6.0965 -6.9795 -5.4895 -4.3745 -7.692 -7.423501 -4.002501 -8.2165 -7.6105 
-7.6675 -9.3985 -8.6645 -7.914001 -9.134001 -10.733 -8.949501 -10.9891 -8.2165 
-10.6335 -11.4083 -10.688 -12.8915 -12.1798 -12.259 -16.1319 -10.9891 
-12.6433 -13.4318 -15.6655 -15.9373 -13.7058 -19.4414 -16.1319 
-2.8705 -4.449 -2.4285 -6.95 -3.013 -5.651501 -4.0135 -5.399 -4.2425 0 
-7.2095 -6.6715 -10.634 -10.495 -8.529501 -8.573501 -10.3085 -8.9865 -4.2425 
-10.316 -15.837 -14.179 -15.2385 -12.4775 -16.3682 -13.896 -8.9865 
-19.4815 -19.382 -18.9225 -20.1899 -19.7369 -20.1875 -13.896 
-23.0265 -24.1255 -23.8739 -27.2189 -23.3244 -20.1875 
