-4.759 
n/a 
n/a 
n/a 
n/a 
-4.759 
n/a 
n/a 
n/a 
n/a 
-4.759 
n/a 
n/a 
n/a 
n/a 
-4.759 
n/a 
n/a 
n/a 
n/a 
-4.474 -2.9195 -3.59 -3.9675 -4.628 -4.743 
-5.582 -6.798 -7.587 -8.7045 -4.7515 
-7.958 -12.0176 -12.7996 -8.8315 
-15.1646 -17.2302 -12.9266 
-20.3772 -17.3572 
-4.474 -6.327001 -4.002 0 -6.6585 
-8.1745 -8.627001 -4.002 -6.6585 
-12.9975 -9.512501 -12.0327 
-13.5743 -19.5312 
-23.593 
-4.474 -2.9195 0 -3.59 -2.9195 0 -10.136 
-5.582 -2.9195 -3.59 -6.3715 -2.9195 -10.136 
-5.582 -6.798 -6.3715 -6.3715 -14.1833 
-7.958 -7.9545 -6.3715 -18.5079 
-11.1015 -7.9545 -18.5079 
-4.474 -2.9195 0 -6.899 -3.4075 -3.301 -4.51 0 
-5.582 -2.9195 -6.899 -10.4765 -7.759 -8.220501 -4.51 
-5.582 -9.151501 -10.4765 -14.828 -13.2181 -8.220501 
-12.5998 -12.9934 -14.828 -20.2871 -13.2181 
-16.4417 -17.3449 -20.2871 -20.2871 
