-4.759 
n/a 
n/a 
n/a 
n/a 
-4.759 
n/a 
n/a 
n/a 
n/a 
-4.759 
n/a 
n/a 
n/a 
n/a 
-4.759 
n/a 
n/a 
n/a 
n/a 
-3.321 -12.88 -4.3215 -1.4985 -3.8275 -2.5045 -3.5315 -3.279 0 
-14.868 -15.6182 -5.252 -4.726 -6.343 -6.109 -5.5205 -3.279 
-20.1899 -16.5487 -9.1715 -6.981501 -10.523 -7.594501 -5.5205 
-21.1204 -20.4682 -11.7484 -11.5579 -12.0085 -7.594501 
-25.0399 -23.0451 -16.3248 -13.0434 -12.0085 
-2.264 -1.4985 -5.462 0 -2.264 -3.5315 -3.279 0 -4.489 -1.756 -10.245 -4.8165 -3.8275 0 
-2.9195 -6.7915 -5.462 -2.264 -4.8735 -5.5205 -3.279 -4.489 -6.2105 -13.0096 -15.0615 -6.523 -3.8275 
-8.347 -6.7915 -8.563001 -4.8735 -6.443 -5.5205 -8.2775 -6.2105 -18.3371 -17.8261 -16.768 -6.523 
-8.347 -10.199 -10.7575 -6.443 -6.443 -9.788 -9.316 -18.3371 -23.1536 -19.5326 -16.768 
-11.8981 -12.6527 -12.327 -6.443 -10.176 -11.5565 -23.322 -23.1536 -24.8601 -19.5326 
-4.064 -1.7565 -2.3615 -4.9455 -3.5315 -4.0925 -1.4985 -2.915 -1.7565 -3.8275 -3.458 -3.8655 -4.675 -4.621 0 
-4.3045 -3.523 -7.8255 -6.9615 -8.7665 -5.5505 -4.1675 -5.2705 -4.8265 -6.105 -6.915 -8.436001 -9.758501 -4.621 
-6.5195 -9.374001 -10.159 -12.3145 -10.177 -8.122001 -6.247001 -10.0645 -7.074501 -10.159 -13.1867 -14.0669 -9.758501 
-12.7747 -11.7623 -15.7526 -13.725 -12.7485 -10.304 -11.4118 -12.4107 -11.2933 -16.2493 -18.8176 -14.0669 
-15.163 -17.3559 -17.1631 -16.2965 -14.9305 -15.4688 -13.758 -16.6295 -17.3836 -21.8802 -18.8176 
-1.934 -3.8385 -1.7695 -2.3615 -9.110001 -4.8165 -1.8085 -3.8275 -4.662 -2.264 -4.9455 -3.5315 0 
-4.4885 -4.2965 -3.736 -11.1735 -10.951 -6.0625 -5.421 -9.257501 -6.387 -6.741501 -6.9615 -3.5315 
-4.5125 -5.924 -12.219 -13.039 -10.8525 -8.0535 -11.7434 -11.1055 -10.4265 -8.033001 -6.9615 
-6.218 -14.8052 -14.508 -15.5327 -13.5307 -15.2099 -13.5914 -15.145 -11.718 -8.033001 
-15.242 -17.0942 -17.0017 -17.5237 -20.6871 -17.0579 -17.6309 -16.4365 -11.718 
