-4.759 
n/a 
n/a 
n/a 
n/a 
-4.759 
n/a 
n/a 
n/a 
n/a 
-4.759 
n/a 
n/a 
n/a 
n/a 
-4.759 
n/a 
n/a 
n/a 
n/a 
-1.934 -4.782 -1.4985 -3.5205 -12.16972 -3.59 -4.1 -2.186 -4.4195 -3.2615 -1.4985 -4.712 -3.193 -1.756 -9.503 -3.8275 0 
-6.01 -6.3955 -6.424001 -16.74602 -15.75972 -8.4585 -5.632501 -5.568 -7.108001 -4.032 -5.918 -5.7735 -4.7435 -8.851501 -11.136 -3.8275 
-7.0235 -11.6374 -20.14932 -20.33602 -20.62822 -9.954 -8.2015 -8.139 -8.192501 -7.989501 -7.354001 -7.433001 -12.4189 -9.878501 -8.513 
-12.479 -25.36272 -23.73932 -25.20452 -22.12372 -12.7482 -10.3345 -8.984 -12.402 -9.241501 -9.275001 -15.5 -13.97 -10.0391 
-26.20432 -28.95272 -28.60782 -26.70002 -24.91792 -14.8812 -11.5583 -13.3773 -13.654 -11.4425 -17.408 -17.0511 -13.97 
-1.934 -3.333 -1.7695 -3.429 -3.355 -1.934 -1.4985 -4.1865 -3.4075 -3.97 0 -3.2615 -3.8735 -4.3195 -3.9675 -1.756 -3.2615 -9.503 -3.8275 -1.934 -4.782 0 -2.9805 -4.3465 -2.925 -3.091 -3.2275 -2.0935 -4.2775 -6.9985 -3.59 0 
-3.9835 -4.022 -4.032 -5.2945 -4.8475 -2.6125 -5.177 -6.714 -6.0725 -3.97 -3.2615 -7.178 -7.817 -9.0555 -6.0065 -4.788 -10.84 -11.136 -5.2615 -6.01 -4.782 -2.9805 -5.5135 -5.5955 -5.3915 -6.733 -5.193501 -6.4785 -10.3165 -10.1345 -3.59 
-4.0425 -6.276 -5.6355 -5.3915 -5.376 -6.116 -7.226 -9.894 -6.0725 -7.2005 -7.178 -9.160501 -10.259 -10.734 -9.121 -12.6285 -12.1515 -9.991 -9.209001 -6.01 -7.1045 -5.5135 -6.684 -6.965501 -9.309 -8.6495 -10.281 -12.8289 -13.4525 -10.1345 
-6.2945 -7.8015 -5.7185 -5.8855 -8.959001 -8.703001 -10.7934 -9.894 -9.373501 -11.6616 -9.160501 -12.1637 -12.0939 -13.8485 -17.0237 -14.019 -13.414 -13.797 -9.209001 -7.320001 -9.742001 -6.684 -7.481501 -10.4945 -11.3073 -13.837 -16.6314 -15.9649 -13.4525 
-7.815 -7.8745 -6.1925 -9.5515 -10.4765 -12.4368 -10.7934 -13.195 -13.8106 -13.6441 -12.1637 -13.9986 -15.2084 -21.7512 -18.4142 -15.2815 -17.5293 -13.8908 -10.5755 -10.0065 -10.5885 -7.481501 -11.0991 -12.4928 -16.4948 -20.1874 -19.7674 -15.9649 
-1.7695 -4.37 -1.934 -1.4985 -4.1865 -3.4075 -10.5895 -3.8735 -4.3195 -3.9675 -1.756 -4.82 -3.8005 -3.8275 -2.9805 -4.753 -1.4985 -4.1635 -1.7565 -4.2775 -3.59 
-4.6705 -4.568501 -2.6125 -5.177 -6.714 -15.652 -14.594 -7.817 -9.0555 -6.0065 -7.4135 -9.0695 -7.814 -6.1635 -6.4575 -5.9215 -5.344501 -6.048 -6.1635 -7.607 
-4.878 -5.054 -6.116 -7.226 -19.9821 -19.6565 -18.5375 -10.259 -10.734 -12.472 -11.9944 -13.2844 -10.1425 -10.1185 -7.2555 -9.163501 -6.63 -9.788501 -9.908501 
-5.32 -9.119 -8.703001 -20.8815 -23.9866 -23.6 -20.9795 -12.0939 -17.1995 -17.0529 -16.2093 -15.6129 -14.1505 -11.0239 -10.4765 -10.6734 -10.1265 -13.6647 
-9.282001 -10.75 -22.5249 -24.886 -27.9301 -26.042 -22.8144 -18.5594 -21.7804 -21.2678 -18.5378 -19.6209 -15.0559 -14.2449 -12.078 -14.1699 -14.0851 
-3.2615 -4.782 0 -1.4985 -4.753 -2.985 -4.2775 -7.539001 -3.59 -4.414 -2.0935 -4.6435 -3.4075 -3.518 -3.97 -1.934 -3.8735 -3.2615 -1.4985 -9.503 -3.8275 0 
-8.269501 -4.782 -1.4985 -6.973001 -6.896 -6.7135 -10.5535 -9.868 -8.947001 -6.461 -6.139 -7.8605 -5.618501 -7.945 -5.72 -4.885 -7.034 -4.032 -7.98 -11.136 -3.8275 
-8.269501 -6.3955 -6.973001 -10.3745 -11.1423 -13.6989 -13.4005 -15.5294 -11.1394 -11.2359 -9.781501 -10.6897 -8.974001 -9.0535 -7.9575 -7.5435 -7.8545 -10.831 -9.7075 -8.513 
-9.274501 -12.1864 -10.3745 -14.6208 -18.1277 -16.5459 -19.0619 -17.7218 -15.9143 -14.8784 -12.6607 -14.0452 -10.209 -10.75 -10.757 -8.3725 -14.1454 -10.5895 -8.835 
-15.1268 -15.5879 -14.6208 -21.6062 -20.9747 -22.2073 -21.2543 -22.4967 -19.5568 -17.7576 -16.0162 -15.2802 -11.9055 -13.5495 -11.586 -14.6854 -14.1989 -10.125 
