-4.759 
n/a 
n/a 
n/a 
n/a 
-4.759 
n/a 
n/a 
n/a 
n/a 
-4.759 
n/a 
n/a 
n/a 
n/a 
-4.759 
n/a 
n/a 
n/a 
n/a 
-3.819 -3.0365 -2.7415 -1.8085 -3.6205 -2.0935 -4.912 -1.8085 -5.0075 -4.304 -2.0935 -3.345 -4.5685 0 -3.0365 -2.7415 -2.847 -3.2015 -2.0935 -1.4985 -3.0835 -4.299 -1.934 -1.4985 -4.5555 -4.5685 -1.756 -3.0415 -1.4985 -3.739 -1.7565 -1.4985 -3.6205 -2.8645 -3.7905 -1.8085 -3.7545 0 
-6.238 -4.2225 -3.891 -5.0325 -4.8125 -6.1945 -5.5775 -6.369 -7.5345 -5.931001 -4.212 -6.8435 -4.5685 -3.0365 -4.2225 -4.8165 -5.984 -4.357 -2.9725 -3.535 -6.939 -5.789001 -2.6125 -5.488 -8.024 -6.1065 -4.454 -4.5735 -4.208 -4.784 -2.4195 -4.755 -6.0125 -4.816 -4.255 -4.5445 -3.7545 
-7.0395 -4.725 -7.428 -5.8585 -9.397 -6.683001 -9.915501 -8.5465 -9.4405 -8.3815 -7.7345 -6.8435 -7.414001 -4.2225 -4.944 -7.8575 -6.4365 -5.1745 -4.594501 -7.533 -8.173 -6.5255 -6.0895 -8.436501 -9.478001 -8.774 -5.862 -7.735001 -4.881 -5.492 -5.5305 -6.739 -8.2515 -5.3875 -8.219001 -4.5445 
-7.238501 -7.784 -8.3645 -9.732 -9.8975 -11.3922 -12.093 -10.3345 -12.0018 -12.135 -7.7345 -9.047001 -8.5815 -4.944 -7.8665 -8.137 -7.37 -7.678 -9.512 -8.692 -8.863001 -9.989 -8.656501 -9.727 -12.1795 -10.1265 -9.054501 -8.315001 -5.5775 -9.066501 -7.924 -9.143001 -8.9335 -8.7825 -8.219001 
-10.749 -8.715 -12.4386 -10.211 -14.6067 -13.5697 -13.881 -12.8958 -15.7553 -12.135 -9.859 -10.311 -9.315001 -7.8665 -8.142 -8.693501 -9.691501 -12.4967 -10.6235 -9.396001 -12.4973 -12.556 -10.134 -12.4567 -13.532 -13.319 -9.673 -8.892501 -9.399501 -11.5968 -10.442 -9.953501 -12.4489 -8.7825 
-4.013 -2.4265 -2.7415 -4.532 -2.3335 -3.345 -4.4695 -3.2645 -2.674 -3.8755 -4.4705 0 -1.934 -1.4985 -4.253 -3.4795 0 -3.5065 -3.0365 -2.186 -2.847 -6.902 -2.5195 -1.4985 -3.1385 -1.7565 -1.4985 -4.5555 0 -2.9805 -3.6205 -2.229 -3.739 -4.179 -4.3195 -2.5045 -3.7545 -3.8015 0 
-5.1265 -3.681 -6.3265 -6.894 -5.1365 -7.2895 -7.9415 -4.542 -6.764 -7.5835 -4.4705 -1.934 -2.6125 -5.429501 -7.027 -3.4795 -3.5065 -5.511001 -3.66 -4.1045 -10.1185 -8.873 -3.1695 -4.2575 -4.861 -2.4195 -5.488 -4.5555 -2.9805 -7.732 -5.8855 -5.3345 -8.5435 -7.583501 -6.9885 -7.3795 -5.988 -3.8015 
-6.1865 -7.1495 -7.913001 -9.129001 -9.2115 -9.663501 -9.2155 -8.7685 -10.5975 -7.5835 -5.796 -2.6125 -6.305 -7.574501 -7.027 -6.225 -5.511001 -5.959001 -4.256001 -12.3418 -12.3419 -9.6225 -5.958 -5.1835 -5.5655 -6.3165 -5.488 -7.8715 -7.732 -9.646 -8.793 -9.459001 -12.0834 -10.1765 -12.2319 -8.531 -5.988 
-9.2295 -7.9665 -10.0125 -13.231 -11.7483 -10.6 -13.6334 -12.6376 -10.5975 -8.899 -6.419 -6.305 -7.779 -7.574501 -9.9835 -8.624001 -5.959001 -6.261001 -12.5635 -14.5652 -13.0914 -12.411 -7.13 -5.8365 -8.339001 -6.3165 -8.3155 -12.8724 -9.646 -12.8011 -13.2841 -13.5815 -14.6764 -15.4199 -13.3834 -8.531 
-10.035 -10.015 -14.1145 -15.7678 -12.6848 -15.0179 -17.5025 -12.6376 -11.913 -9.3815 -10.7495 -7.779 -7.779 -10.733 -12.4441 -9.272 -6.261001 -14.6381 -14.7869 -15.3147 -15.8799 -13.583 -7.7995 -8.5345 -8.339001 -9.224 -13.321 -14.7864 -12.8011 -17.2922 -17.4066 -16.1745 -19.9198 -16.5714 -13.3834 
-3.819 -4.532 -1.7695 -3.2345 -3.1715 -5.2565 -2.872 -2.847 -6.2755 -3.7895 -1.934 -4.8115 -3.0415 -2.4265 -2.186 -3.7545 -1.7565 -3.1435 -3.739 0 
-8.065001 -5.484 -3.713 -7.356 -7.994 -7.9755 -4.974 -9.5105 -8.721001 -4.5695 -6.1155 -8.2335 -4.551 -3.292 -7.253 -4.983 -4.124 -6.028 -3.739 
-8.484 -7.2575 -7.833001 -12.6533 -9.998001 -10.186 -12.1945 -12.121 -9.1875 -9.389501 -9.986001 -9.449 -5.318 -8.246 -8.151501 -7.574 -7.147 -6.028 
-10.019 -11.5519 -13.3057 -14.6573 -12.2085 -17.4065 -14.805 -12.5875 -14.2907 -13.4006 -11.5183 -10.294 -10.138 -8.816501 -10.5035 -9.587501 -7.147 
-14.3724 -17.0246 -15.3097 -16.8678 -19.429 -20.017 -15.2715 -17.6907 -18.3018 -14.9329 -12.3633 -15.114 -10.5925 -11.1373 -12.9 -9.587501 
-3.6055 -4.2605 -1.756 -3.6055 -3.1715 -1.7565 -4.7615 -1.934 -4.225 -3.6205 0 -3.0835 -3.74 -1.7695 -3.5455 -3.75 -5.243 -4.9225 -2.6165 -4.168 -2.0935 -2.3615 -2.871 0 -2.3615 -3.6205 -3.6845 -3.1435 -2.5685 -2.4945 -3.098 -3.7545 -3.8015 0 
-6.5 -5.4775 -5.005 -6.009501 -4.207 -8.212501 -7.204 -6.6915 -8.172001 -3.6205 -3.0835 -6.173 -4.2995 -5.643 -5.228001 -10.089 -11.1165 -7.968 -5.2135 -5.994 -3.854 -4.583 -2.871 -2.3615 -5.509501 -7.476 -6.523 -5.808001 -5.3665 -4.907001 -6.3955 -5.988 -3.8015 
-7.659501 -8.491501 -7.654 -7.488501 -10.218 -9.981001 -12.3981 -11.1107 -8.172001 -6.923 -6.173 -6.9535 -10.75 -7.514 -12.2882 -16.0577 -14.162 -11.0214 -6.7415 -7.485001 -6.0825 -4.583 -5.804 -5.509501 -9.486501 -10.5833 -8.578 -9.992001 -8.362 -10.115 -8.4645 -5.988 
-8.7965 -11.2861 -8.8255 -14.3935 -12.9999 -15.7175 -16.8173 -11.1107 -11.8179 -10.304 -6.9535 -13.788 -12.621 -14.8344 -18.2569 -19.1032 -17.2154 -12.5494 -7.833 -10.4945 -6.0825 -6.851 -9.246 -9.486501 -12.7458 -12.6383 -13.9838 -12.9875 -13.7386 -12.3966 -8.4645 
-11.7397 -12.4576 -16.0431 -17.1754 -18.7364 -20.1367 -16.8173 -14.7566 -15.1989 -10.6075 -13.788 -15.659 -19.9414 -20.8031 -21.3024 -22.1566 -18.7434 -13.6409 -11.2347 -10.4945 -8.116501 -10.0955 -13.5054 -12.7458 -14.8008 -18.0441 -16.9793 -18.3641 -16.0202 -12.3966 
