-4.759 
n/a 
n/a 
n/a 
n/a 
-4.759 
n/a 
n/a 
n/a 
n/a 
-4.759 
n/a 
n/a 
n/a 
n/a 
-4.759 
n/a 
n/a 
n/a 
n/a 
-1.934 -6.144 0 -3.0365 -2.4945 -3.2495 -4.6835 -3.115 -3.9655 -3.515 -1.756 -4.225 0 
-8.226501 -6.144 -3.0365 -3.688 -4.891 -6.718 -7.862 -7.482501 -7.157001 -5.1325 -5.74 -4.225 
-8.226501 -8.919001 -3.688 -5.0435 -8.2805 -10.0575 -12.3277 -10.8748 -9.061001 -9.3555 -5.74 
-11.5559 -9.6735 -5.0435 -8.410001 -12.1432 -14.5976 -15.72 -12.7788 -13.3548 -9.3555 
-12.3104 -11.078 -8.410001 -12.3953 -16.6833 -17.9899 -17.624 -17.0726 -13.3548 
-6.144 -2.186 -4.7925 -3.222 -3.2495 -3.699 -3.9035 0 -2.1715 -4.257 -3.355 -1.756 -2.341 -3.9655 -3.355 
-7.648 -5.544001 -5.2095 -5.334 -6.0885 -6.5465 -3.9035 -2.1715 -6.97 -8.061501 -5.5415 -4.5775 -6.8565 -8.088 
-11.358 -5.673501 -5.913 -8.841001 -8.440001 -6.5465 -5.915 -6.97 -11.3939 -10.534 -8.223001 -9.1415 -11.5822 
-11.4875 -6.411 -9.526 -10.223 -8.440001 -8.660501 -10.434 -11.3939 -13.8664 -13.2155 -13.1166 -13.9558 
-12.225 -10.0675 -10.376 -10.223 -10.1145 -14.0801 -15.5007 -13.8664 -16.5479 -18.1091 -17.9309 
-6.144 -2.8645 -4.257 -1.756 -3.9655 -3.9035 
-7.7125 -8.753 -5.698 -5.0755 -9.1105 
-13.844 -10.168 -9.158501 -9.76 
-15.259 -13.8901 -13.9952 
-18.9811 -18.7268 
-4.257 -3.32 -1.756 -3.9655 -3.32 -2.186 -3.2495 -3.699 -9.420501 -2.0935 -4.891 0 
-8.2645 -5.336 -5.0755 -7.735001 -5.247 -5.841001 -6.0885 -14.4629 -10.784 -7.207 -4.891 
-10.0285 -10.1345 -9.538 -9.638 -8.932 -9.401501 -17.5198 -15.8264 -15.8975 -7.207 
-14.877 -14.597 -11.6142 -13.4082 -12.7305 -20.9546 -18.8833 -20.9399 -15.8975 
-19.3395 -16.6732 -15.3844 -17.2067 -24.2836 -22.3181 -23.9968 -20.9399 
