-4.759 
n/a 
n/a 
n/a 
n/a 
-4.759 
n/a 
n/a 
n/a 
n/a 
-4.759 
n/a 
n/a 
n/a 
n/a 
-4.759 
n/a 
n/a 
n/a 
n/a 
-1.934 -3.9415 -9.219001 -3.6135 -4.0005 -4.9535 -4.3845 -2.7415 -2.9965 0 0 0 -1.934 -4.65 -4.1105 0 0 
-5.2535 -13.6229 -13.1687 -7.376 -7.934501 -9.103001 -7.587 -6.2215 -2.9965 0 0 -1.934 -5.833 -8.164001 -4.1105 0 
-15.4435 -17.5726 -16.9312 -12.0044 -12.3554 -12.6225 -11.306 -6.2215 -2.9965 0 -1.934 -5.833 -10.389 -8.164001 -4.1105 
-19.3932 -21.3351 -21.5596 -16.4253 -15.8749 -16.3415 -11.306 -6.2215 -2.9965 -1.934 -5.833 -10.389 -10.389 -8.164001 
-23.1557 -25.9635 -25.9805 -19.9448 -19.5939 -16.3415 -11.306 -6.2215 -5.558001 -5.833 -10.389 -10.389 -10.389 
-1.934 -3.9415 -1.4985 -4.4345 -1.7565 -4.0005 -3.3855 -4.3845 -2.186 -3.098 -2.9965 0 0 -1.934 -4.569 -2.4265 -2.186 -4.1105 0 0 0 
-5.2535 -5.4665 -5.1515 -4.719 -6.296501 -7.818 -7.721001 -6.8665 -4.5535 -5.758 -2.9965 0 -1.934 -5.777 -7.176001 -3.292 -7.1785 -4.1105 0 0 
-6.2755 -8.4835 -5.274 -10.1265 -10.204 -12.5595 -9.706501 -8.985001 -7.146 -5.758 -2.9965 -1.934 -5.777 -7.55 -7.904 -8.695001 -7.1785 -4.1105 0 
-9.002501 -8.5745 -10.5225 -14.034 -14.9455 -14.545 -12.2262 -11.8825 -7.146 -5.758 -5.558001 -5.777 -7.55 -8.377501 -13.5964 -8.695001 -7.1785 -4.1105 
-9.113501 -13.8572 -14.43 -18.7755 -16.931 -17.0647 -15.1237 -11.8825 -7.146 -8.1315 -9.116 -7.55 -8.377501 -14.2503 -13.5964 -8.695001 -7.1785 
-1.934 -3.9415 -3.6135 -4.0005 -3.681 -4.3845 -2.186 -2.9965 0 -2.872 -4.569 -4.3845 -3.6395 -2.186 -4.1105 0 
-5.2535 -7.9505 -7.376 -8.278 -9.200001 -6.8665 -5.8025 -2.9965 -2.872 -9.316 -8.855 -7.994 -5.2645 -7.1785 -4.1105 
-9.314501 -12.1732 -12.3479 -14.1282 -11.9758 -10.8226 -5.8025 -6.462 -9.316 -13.9806 -13.3363 -9.3785 -8.8125 -7.1785 
-13.6954 -17.1451 -18.1981 -16.904 -15.9319 -10.8226 -8.2945 -13.1144 -13.9806 -18.4619 -14.7208 -12.9175 -8.8125 
-18.6673 -22.9953 -20.9739 -20.8601 -15.9319 -13.3146 -15.2399 -17.779 -18.4619 -19.8464 -18.2598 -12.9175 
-3.5725 -4.768 0 -4.3845 -1.7565 -4.8385 -2.7415 -3.6215 -2.9965 -4.4345 0 -2.264 -4.569 -4.1105 0 0 
-9.792 -4.768 -4.3845 -5.89 -6.314001 -7.676 -6.0725 -6.150001 -7.3065 -4.4345 -2.264 -7.797001 -8.241501 -4.1105 0 
-9.792 -9.27 -5.89 -9.3975 -8.625501 -11.271 -7.9805 -9.443001 -7.3065 -7.110001 -7.797001 -11.9549 -8.241501 -4.1105 
-14.365 -11.4943 -9.3975 -11.7688 -12.3651 -13.179 -11.5091 -9.443001 -10.6356 -13.1362 -11.9549 -11.9549 -8.241501 
-16.5893 -15.0018 -11.7688 -15.5084 -14.2731 -16.7076 -11.5091 -14.0013 -16.6618 -17.2941 -11.9549 -11.9549 
