-4.759 
n/a 
n/a 
n/a 
n/a 
-4.759 
n/a 
n/a 
n/a 
n/a 
-4.759 
n/a 
n/a 
n/a 
n/a 
-4.759 
n/a 
n/a 
n/a 
n/a 
-3.995 -2.229 -1.4985 -5.139 -3.3755 -8.453 -2.186 -4.9 -5.465 0 -5.2945 -5.285 0 -5.638 -6.1555 -5.3245 -4.089 -5.285 0 -5.509 -3.4715 -3.402 -5.285 0 -7.141 -4.1455 0 -5.18 -12.16972 -5.9525 0 -3.7405 -4.1455 -5.18 -7.3645 -5.292 0 -4.1455 -4.2485 -6.4625 -3.2785 0 -4.2485 -1.7565 -1.4985 -5.408 -2.5645 -3.0755 -4.3945 -3.2785 0 -1.756 -6.125 -3.519 -1.7565 -7.665501 -3.0755 -5.58 -3.118 -4.4005 0 
-5.324 -4.123 -8.015 -10.647 -13.6035 -10.791 -8.259001 -10.8622 -5.465 -5.2945 -11.1879 -5.285 -5.638 -12.5181 -11.1885 -9.637501 -10.3225 -5.285 -4.9865 -9.301001 -5.9825 -9.025001 -5.285 -6.4705 -11.197 -4.1455 -5.18 -18.43092 -18.84672 -6.677001 -3.7405 -7.717 -8.4135 -12.5645 -11.6985 -5.292 -4.1455 -6.0765 -11.0145 -9.755501 -3.2785 -4.2485 -5.5065 -2.4195 -6.39 -8.087001 -4.8465 -7.120501 -7.773001 -3.2785 -1.756 -7.422 -9.928 -4.6225 -9.114 -10.2455 -8.619 -9.243501 -7.2895 -4.558 
-8.146501 -9.903501 -12.9082 -21.0534 -16.133 -17.9614 -14.4054 -10.8622 -12.2555 -11.1879 -11.1879 -11.887 -12.5181 -15.9061 -14.402 -16.7461 -10.3225 -11.6355 -9.463501 -11.9865 -12.3731 -9.025001 -12.8789 -11.6296 -11.6296 -8.4135 -18.43092 -25.10792 -18.84672 -11.1438 -7.717 -12.366 -16.0988 -18.2059 -12.1181 -9.855 -6.0765 -13.4603 -14.3075 -9.755501 -7.832 -5.5065 -5.9265 -7.251 -9.542 -10.8496 -8.448 -10.089 -7.773001 -5.3565 -7.422 -10.172 -11.3047 -12.102 -12.3515 -15.8969 -12.4019 -13.4865 -7.24 
-14.3554 -14.7967 -23.3146 -23.4045 -22.7038 -24.1078 -14.4054 -17.6527 -18.1489 -11.1879 -17.7899 -18.7671 -15.9061 -21.8288 -22.5399 -17.0217 -16.673 -16.1125 -12.0083 -18.3989 -12.3731 -17.0237 -18.038 -11.6296 -16.0352 -21.83242 -25.10792 -25.10792 -23.31352 -15.0523 -12.366 -20.0513 -21.6074 -18.2059 -17.0227 -12.1876 -13.4603 -16.7533 -14.3075 -14.3586 -9.177501 -5.9265 -8.828501 -10.4505 -12.413 -14.4511 -11.6245 -10.089 -9.908001 -11.4951 -10.172 -11.9841 -19.138 -15.9611 -18.2512 -19.6798 -16.6449 -13.4865 
-19.2486 -25.2031 -25.6657 -29.9753 -28.8502 -24.1078 -21.1959 -23.5461 -18.1489 -17.7899 -24.67 -22.1551 -21.8288 -28.9025 -22.5399 -23.3722 -21.15 -18.6573 -18.3989 -18.3989 -20.3718 -22.1828 -18.038 -16.0352 -29.45412 -28.50942 -25.10792 -29.57472 -27.22202 -19.8129 -20.0513 -25.5599 -21.6074 -23.1105 -19.3553 -19.5714 -16.7533 -16.7533 -18.9106 -15.7041 -9.762501 -8.828501 -12.046 -13.3215 -16.0145 -17.6276 -11.6245 -12.224 -16.1262 -14.2451 -11.9841 -19.8174 -22.6433 -21.625 -22.0341 -23.9228 -16.6449 
-4.625 -2.186 -12.16972 -5.3245 -1.756 -8.829 -12.16972 -4.625 -2.186 -5.509 -1.756 -3.4715 -4.625 -2.5045 -8.897 -4.197 -4.227 -5.0405 -2.186 -4.8625 -4.653 -1.756 -3.995 -4.197 -4.227 -5.0405 -1.934 -2.341 -4.3365 -2.4945 -14.372 -1.756 -1.4985 -4.227 -4.2485 -2.186 -6.4625 -3.2785 -2.3615 -2.186 -1.4985 -12.16972 0 -4.8715 0 -22.00672 
-6.276 -15.56612 -17.25922 -7.3945 -11.117 -21.16952 -16.79472 -6.276 -8.127501 -7.514501 -4.8875 -7.612 -6.916 -12.351 -13.6675 -5.2115 -9.9755 -6.6265 -8.221001 -9.813 -6.2355 -5.736 -8.955 -5.2115 -9.9755 -6.528 -4.9255 -5.813 -7.054 -18.6075 -16.689 -3.0405 -5.8725 -8.183001 -5.843 -10.0645 -9.755501 -6.52 -3.5005 -3.339 -14.76202 -12.16972 -4.8715 -4.8715 -21.95712 
-20.27592 -20.65562 -19.19872 -16.918 -23.45752 -25.79452 -18.44572 -11.2815 -10.8985 -11.641 -8.9445 -9.6955 -17.327 -18.1359 -16.5284 -11.6838 -11.9269 -13.0325 -13.3407 -11.4587 -10.7025 -10.168 -10.1717 -11.6838 -11.8284 -9.820101 -7.1215 -8.962501 -24.0906 -20.7035 -17.9735 -7.5075 -10.4811 -10.0925 -14.5791 -10.7235 -13.0466 -7.328 -4.3105 -17.11792 -14.76202 -17.04122 -4.8715 -27.54952 
-25.36542 -22.59512 -29.28352 -29.45432 -28.08252 -27.44552 -22.80422 -11.936 -14.1705 -16.245 -11.0886 -20.2255 -22.3123 -20.329 -23.2127 -13.6352 -18.3329 -18.1522 -14.9864 -15.9257 -15.1345 -11.3847 -16.644 -13.5367 -15.1205 -12.0161 -10.5808 -26.0853 -25.8466 -21.988 -22.4405 -12.1395 -12.3906 -18.9426 -15.2381 -14.0146 -13.8546 -8.0755 -18.48422 -17.11792 -19.63352 -17.04122 -27.54952 
-27.30492 -32.67992 -41.62404 -34.07932 -29.73352 -31.80402 -24.10572 -16.705 -18.4105 -18.3891 -21.6186 -25.25 -24.4158 -26.9237 -25.1641 -20.0412 -23.4526 -19.7979 -19.4534 -20.3577 -16.3512 -17.857 -18.4969 -16.8288 -17.3165 -15.4754 -27.7036 -27.8413 -27.1311 -26.455 -27.0725 -14.049 -21.2407 -19.6016 -18.5292 -14.8226 -14.6021 -22.38562 -18.48422 -21.98942 -19.63352 -39.71924 
-8.590501 -3.995 -9.188001 -5.0485 -14.63072 -3.995 -9.099501 -5.509 -3.4715 -8.823 -5.0485 -7.141 -4.692 -5.0405 -7.878 -5.9525 -3.995 -3.4635 -4.692 -3.6445 -5.0405 -7.3645 -5.292 -8.322001 -4.2485 -10.272 -4.622 -12.16972 -4.8715 -14.63072 -3.9745 -1.7565 -5.1795 
-12.8603 -11.1415 -14.6515 -20.79142 -19.24722 -14.2239 -13.345 -9.301001 -13.5457 -14.2579 -11.1045 -12.0335 -7.5105 -13.8651 -14.9652 -11.1865 -7.861 -8.683001 -5.5985 -9.312 -12.1965 -11.6985 -14.4406 -12.8755 -15.6887 -14.9932 -18.05092 -17.04122 -19.58832 -18.87282 -4.5865 -7.120501 
-20.0068 -16.605 -30.39442 -25.40792 -30.10492 -18.4694 -17.822 -19.8765 -18.9806 -21.2117 -17.9979 -15.2846 -16.7761 -20.9523 -20.0645 -16.2421 -13.3317 -9.5365 -10.228 -17.1716 -18.2605 -21.6083 -18.9941 -24.3157 -20.4099 -28.42212 -22.92242 -32.18124 -23.98602 -19.48482 -10.504 
-25.4703 -32.34792 -35.01092 -36.26562 -34.35042 -22.9464 -28.2568 -25.3332 -25.9344 -27.2073 -20.8164 -24.5502 -23.8633 -26.0516 -24.5303 -21.7128 -14.1852 -14.2738 -18.0876 -22.6802 -27.7507 -26.1618 -30.4343 -29.0369 -33.83882 -33.29362 -38.06244 -36.15574 -24.59802 -25.40232 
-41.21322 -36.96442 -45.86862 -40.51112 -38.82742 -33.3812 -33.6917 -32.287 -31.93 -30.0258 -30.082 -31.6374 -28.9626 -30.5174 -30.001 -22.5663 -18.9225 -22.1334 -23.5962 -32.1704 -32.3042 -37.602 -35.1555 -42.46582 -38.71032 -48.43364 -42.03694 -36.76774 -30.51552 
-3.995 -4.2815 -1.7695 -3.992 -4.9 -5.2945 -5.044 -5.638 -6.116 -4.653 -2.461 -3.995 -6.612 -1.7565 -5.509 -3.4715 -5.044 -7.141 -3.7515 -4.8625 -4.653 -4.226 -1.7565 -7.3645 -5.292 -4.2485 -6.4625 -3.2785 -4.2485 -9.071 -3.2785 -4.202 0 -4.8715 0 -14.63072 0 -4.4005 -4.8595 -3.3755 -5.5665 0 
-8.415 -4.4915 -6.829501 -9.9205 -8.914001 -10.9469 -11.5618 -12.4786 -8.762 -7.033 -7.0775 -11.7364 -7.528501 -7.6095 -9.301001 -8.818501 -11.6495 -11.268 -8.83 -9.813 -8.777 -5.8455 -8.9635 -11.6985 -9.8205 -11.0145 -9.755501 -7.832 -14.4877 -12.5681 -8.664001 -4.202 -4.8715 -4.8715 -14.89832 -14.89832 -4.558 -9.709 -9.344001 -8.825001 -5.5665 
-8.605 -10.0645 -13.5784 -14.0297 -14.9236 -17.4647 -18.4024 -15.1246 -11.3016 -12.1437 -15.4477 -12.6529 -13.5781 -12.1205 -15.1493 -16.3448 -17.3818 -16.7791 -14.2873 -14.0002 -10.7925 -14.104 -14.8291 -16.9882 -16.6789 -14.3075 -14.3586 -18.489 -17.9848 -17.9536 -8.664001 -9.928 -4.8715 -20.01152 -14.89832 -19.45632 -8.8675 -14.107 -14.7787 -8.825001 
-14.406 -16.8134 -17.6876 -20.0393 -21.4414 -24.3053 -21.0484 -17.6642 -16.4123 -20.5139 -16.3642 -18.7025 -18.5295 -18.3025 -22.6974 -21.5749 -22.4603 -22.2364 -18.4745 -16.0157 -19.051 -19.936 -20.0226 -23.8466 -19.9719 -18.9106 -25.0156 -21.9861 -23.3703 -17.9536 -14.4684 -9.928 -20.01152 -20.01152 -19.45632 -23.76582 -15.2056 -20.6403 -14.7787 
-21.1549 -20.9226 -23.6972 -26.5571 -28.282 -26.9513 -23.588 -22.7749 -24.7825 -21.4304 -22.4138 -23.6539 -24.2371 -25.8288 -27.9275 -26.6534 -27.9176 -26.4236 -20.49 -24.2742 -24.883 -24.8061 -26.881 -27.1396 -24.575 -29.5676 -28.5127 -27.3716 -23.3703 -23.758 -14.4684 -25.06802 -20.01152 -24.56952 -23.76582 -30.10392 -20.6403 -20.6403 
