-4.759 
n/a 
n/a 
n/a 
n/a 
-4.759 
n/a 
n/a 
n/a 
n/a 
-4.759 
n/a 
n/a 
n/a 
n/a 
-4.759 
n/a 
n/a 
n/a 
n/a 
-5.1845 -2.8645 -2.871 -2.4285 -2.645 -5.0505 -12.16972 
-8.645 -5.417 -4.4275 -4.1105 -8.124001 -18.09742 
-11.4441 -6.628 -4.587 -9.892 -21.61272 
-12.6551 -6.7505 -10.6605 -23.49632 
-12.7776 -13.1134 -24.26482 
-6.557 -2.7415 -3.757 -3.325 -3.6065 -11.071 
-9.448 -5.376 -6.9115 -6.104 -12.4875 
-12.1823 -7.731 -10.218 -16.0252 
-14.5373 -11.6335 -20.1392 
-18.4398 -21.5547 
-9.8155 -2.186 -3.757 -4.289 -1.4985 -2.871 -3.319 -1.7565 -4.6555 0 
-12.0159 -4.779 -8.225 -5.9295 -4.316 -5.859 -4.165 -6.0035 -4.6555 
-14.6089 -9.813001 -10.0005 -8.7465 -7.9205 -6.0035 -9.376 -6.0035 
-19.6429 -11.6669 -12.9273 -12.8268 -8.027 -11.3781 -9.376 
-21.4968 -14.5937 -17.0076 -12.9333 -13.656 -11.3781 
-12.16972 -3.757 -3.2615 -2.871 -3.7905 -3.5435 -3.6445 0 
-15.92672 -7.345 -5.7415 -7.304 -8.0465 -8.1925 -3.6445 
-19.51472 -9.7015 -10.8459 -11.8508 -13.1979 -8.1925 
-21.87122 -14.9375 -15.3927 -17.0022 -13.1979 
-27.10722 -19.4843 -20.5441 -17.0022 
