-4.759 
n/a 
n/a 
n/a 
n/a 
-4.759 
n/a 
n/a 
n/a 
n/a 
-4.759 
n/a 
n/a 
n/a 
n/a 
-4.759 
n/a 
n/a 
n/a 
n/a 
-7.4065 -6.985001 -4.0745 -2.4945 -3.6705 -1.934 -2.3615 -3.3035 0 
-13.48 -9.1455 -5.5115 -5.072001 -4.865 -3.539 -5.2995 -3.3035 
-15.9299 -10.6885 -7.6115 -6.355 -6.5515 -7.0715 -5.2995 
-18.0586 -11.6667 -8.439 -8.007 -9.054501 -7.0715 
-18.8466 -12.9164 -9.876 -10.5225 -9.054501 
-4.067 -3.8445 -4.6945 -4.2405 -4.565 -4.5655 -2.4945 -3.6705 -1.934 -2.3615 -3.9235 0 
-6.7335 -6.199 -6.816 -8.882 -10.4855 -6.0935 -5.072001 -4.865 -3.539 -5.7745 -3.9235 
-8.336 -8.479 -13.0545 -14.3141 -12.0135 -8.851501 -6.355 -6.5515 -7.2945 -5.7745 
-11.0264 -15.1019 -18.4866 -15.8421 -14.7715 -10.209 -8.007 -9.413 -7.2945 
-17.6493 -20.534 -20.0146 -18.6001 -16.129 -11.861 -10.9223 -9.413 
-4.347 -6.985001 -3.1385 -3.213 -1.934 -2.3615 -4.1865 0 
-9.747001 -8.716001 -6.2795 -4.4465 -3.539 -6.354 -4.1865 
-10.354 -10.992 -7.2755 -6.037 -8.191501 -6.354 
-12.1341 -11.8406 -8.7155 -10.238 -8.191501 
-13.1469 -13.4614 -13.2139 -10.238 
-3.0365 -2.4945 -3.6215 -6.985001 -3.1385 -3.6705 -1.934 -2.3615 -3.3035 0 
-3.688 -6.150001 -9.772 -8.716001 -5.9115 -4.865 -3.539 -5.2995 -3.3035 
-6.877501 -11.0165 -10.979 -10.8275 -6.514 -6.5515 -7.0715 -5.2995 
-11.2945 -12.0245 -12.7211 -11.4721 -7.9915 -9.054501 -7.0715 
-12.8954 -14.5776 -13.1881 -13.0256 -10.1505 -9.054501 
