-4.759 
n/a 
n/a 
n/a 
n/a 
-4.759 
n/a 
n/a 
n/a 
n/a 
-4.759 
n/a 
n/a 
n/a 
n/a 
-4.759 
n/a 
n/a 
n/a 
n/a 
-1.934 -1.4985 -3.158 -1.7565 -3.0105 -2.4265 -2.229 -3.6085 -3.4715 -4.5855 -4.3725 -2.186 -4.0925 0 
-2.6125 -4.178 -4.71 -5.2695 -5.9015 -3.3415 -5.8755 -5.7105 -8.0985 -6.848001 -6.1315 -5.4975 -4.0925 
-5.265 -5.562 -7.5085 -7.3475 -6.546 -7.935 -7.7615 -10.6051 -11.1338 -8.948501 -9.627001 -5.4975 
-6.3135 -7.993501 -9.465501 -8.324 -11.5169 -9.7465 -13.1723 -13.6404 -13.2343 -12.4956 -9.627001 
-8.564501 -9.98 -10.4125 -13.3999 -13.3284 -15.2459 -16.2076 -15.7409 -16.7814 -12.4956 
-2.3335 -3.8195 -2.229 -3.6085 -4.426 -2.7415 -3.793 -1.934 -1.4985 -3.158 -3.0105 0 
-6.500501 -5.743 -5.8755 -5.896501 -6.907001 -5.337501 -4.752 -2.6125 -4.178 -5.481501 -3.0105 
-7.848001 -8.9315 -7.5115 -8.177 -8.219501 -5.761 -5.2475 -5.265 -6.349501 -5.481501 
-11.1925 -11.4225 -9.887 -8.749001 -8.483001 -6.272 -7.8855 -6.8925 -6.349501 
-13.6835 -13.798 -10.43 -9.024 -9.5485 -8.7235 -9.8645 -6.8925 
-2.3335 -3.8195 -2.229 -3.6085 -4.426 -2.7415 -3.793 -1.934 -1.4985 -3.158 -3.0105 
-6.500501 -5.743 -5.8755 -5.896501 -6.907001 -5.337501 -4.752 -2.6125 -4.178 -5.481501 
-7.848001 -8.9315 -7.5115 -8.177 -8.219501 -5.761 -5.2475 -5.265 -6.349501 
-11.1925 -11.4225 -9.887 -8.749001 -8.483001 -6.272 -7.8855 -6.8925 
-13.6835 -13.798 -10.43 -9.024 -9.5485 -8.7235 -9.8645 
-1.4985 -3.6085 -4.894 -3.872 -2.186 -3.6915 -2.264 -3.0105 
-5.023 -7.0845 -10.0785 -5.961 -7.249001 -5.8345 -5.783501 
-8.639501 -13.2494 -12.1675 -10.3415 -9.102501 -9.309 
-15.3042 -15.3384 -16.548 -12.195 -12.7552 
-17.3932 -19.7189 -18.4015 -15.8477 
