-4.759 
n/a 
n/a 
n/a 
n/a 
-4.759 
n/a 
n/a 
n/a 
n/a 
-4.759 
n/a 
n/a 
n/a 
n/a 
-4.759 
n/a 
n/a 
n/a 
n/a 
-3.2615 -1.4985 -4.866 -2.0935 -4.248 -3.251 -3.9535 0 -3.3715 -6.5175 -3.251 -4.339 -2.5195 -1.4985 -4.142 -4.5685 0 
-4.032 -5.602 -5.726 -5.816 -7.863501 -6.0795 -3.9535 -3.3715 -8.960001 -9.366501 -6.2005 -5.6135 -3.1695 -5.0295 -6.889501 -4.5685 
-8.425501 -6.096001 -7.0885 -9.071 -10.7575 -6.0795 -7.4185 -8.960001 -12.0244 -12.4098 -7.3605 -6.3705 -6.488 -7.325 -6.889501 
-9.3015 -7.574 -9.885 -12.006 -10.7575 -9.174 -13.4684 -12.0244 -15.0677 -13.5698 -8.078501 -9.309501 -8.6035 -7.325 
-10.5135 -10.3675 -12.8746 -12.006 -13.852 -15.3159 -16.5328 -15.0677 -16.2277 -14.2878 -10.733 -11.5448 -8.6035 
-3.2615 -1.4985 -4.319 -4.4665 0 -2.925 -5.7565 -2.5195 -3.45 -4.088 0 
-4.032 -5.231501 -7.957001 -4.4665 -2.925 -7.5385 -6.703 -5.1315 -6.419 -4.088 
-7.166 -8.239 -7.957001 -7.7075 -7.5385 -8.3995 -9.889501 -8.1175 -6.419 
-9.969001 -8.239 -10.151 -12.531 -8.3995 -11.7226 -13.0369 -8.1175 
-9.969001 -10.354 -14.9745 -13.392 -11.7226 -14.87 -13.0369 
-4.4285 -1.7565 -6.5175 -4.543 -1.4985 -4.142 -4.5685 -3.034 -1.4985 -4.319 -3.9535 0 
-4.6405 -8.1225 -12.0457 -6.1365 -5.0295 -6.889501 -7.6115 -3.947 -5.231501 -7.701 -3.9535 
-9.498501 -13.9229 -13.6392 -9.781 -7.325 -10.1765 -8.4455 -7.5825 -7.824 -7.701 
-15.4391 -15.5164 -17.2837 -12.7461 -10.5425 -11.0105 -12.1848 -8.661 -7.824 
-17.0326 -19.1609 -20.2488 -15.9636 -11.3765 -14.7498 -13.2633 -8.661 
-3.2615 -3.584 -1.4985 -8.842501 -3.8275 -3.0365 -2.4945 -3.3715 -3.9375 -2.4945 -3.0465 -2.9905 -2.5195 -1.4985 -3.5015 0 
-6.944 -5.0595 -10.1945 -12.964 -6.581 -3.688 -4.846 -8.939 -6.696 -6.7005 -4.989 -5.134 -3.1695 -4.737 -3.5015 
-8.8345 -14.3181 -14.316 -15.7175 -7.4055 -4.8765 -10.7899 -12.6961 -11.634 -8.762001 -7.0065 -5.6625 -6.585 -4.737 
-18.2889 -18.4396 -17.0695 -16.542 -8.521501 -10.8698 -14.547 -17.6341 -13.6955 -11.0235 -8.128501 -8.884501 -6.585 
-22.4104 -21.1931 -17.894 -17.658 -14.579 -14.6269 -19.485 -19.6956 -15.957 -12.1455 -11.5003 -8.884501 
