-4.759 
n/a 
n/a 
n/a 
n/a 
-4.759 
n/a 
n/a 
n/a 
n/a 
-4.759 
n/a 
n/a 
n/a 
n/a 
-4.759 
n/a 
n/a 
n/a 
n/a 
-1.934 -1.4985 -3.4425 -4.7365 0 -2.4265 -2.186 -4.8835 -4.1735 -3.59 -2.872 -1.934 -4.02 0 -2.4265 -2.8645 -3.098 -5.5865 -3.748 0 -5.403 -6.3355 0 -3.9345 -1.7695 -2.8845 -4.46 0 -3.098 
-2.6125 -4.4545 -8.108 -4.7365 -2.4265 -3.292 -7.624001 -6.952 -6.9245 -5.904 -4.659 -6.1145 -4.02 -2.4265 -4.1435 -5.4205 -8.652 -7.937 -3.748 -4.877 -10.753 -6.3355 -3.9345 -3.94 -5.851 -7.614 -4.46 -3.098 
-4.866 -9.4475 -8.108 -6.780001 -3.292 -9.3255 -9.703501 -8.554501 -9.468 -7.4265 -9.620501 -6.1145 -6.503 -4.1435 -6.467 -11.216 -10.9505 -7.5045 -9.346001 -10.66 -10.66 -9.529501 -3.94 -8.151501 -9.166 -7.614 -7.977 
-10.159 -9.4475 -9.632 -7.546 -9.3255 -10.6475 -11.484 -11.4782 -11.0825 -12.5486 -9.620501 -8.439 -7.831 -6.467 -12.634 -12.957 -10.411 -12.928 -15.3552 -10.66 -13.9144 -9.537001 -8.151501 -9.236501 -9.166 -11.6262 
-10.159 -11.0115 -9.818001 -13.8515 -10.6475 -12.428 -14.4077 -13.0927 -16.2046 -12.5486 -12.0258 -9.587 -9.7755 -12.634 -14.285 -12.957 -16.1751 -19.2778 -15.3552 -13.9144 -13.9219 -13.7881 -9.236501 -9.236501 -13.8552 
-3.4765 -3.929 -2.4265 -2.186 -1.8085 -3.6135 -3.59 0 -3.1435 -4.02 -2.186 -3.098 -5.5865 -4.5445 0 -5.403 -6.3355 -3.9345 -1.7695 -2.8845 -5.0515 0 
-4.589 -5.029 -3.292 -3.164 -4.4545 -6.519 -3.59 -3.1435 -6.339 -5.624 -4.5535 -8.652 -10.3045 -4.5445 -4.877 -10.753 -9.529501 -3.94 -5.851 -8.345501 -5.0515 
-5.5295 -5.7665 -4.4005 -5.4355 -7.280001 -6.519 -6.9355 -6.339 -7.347 -7.9375 -10.2535 -13.471 -10.025 -10.0345 -10.66 -13.9144 -9.537001 -8.151501 -11.5896 -8.345501 
-6.2005 -6.809 -6.6215 -7.976 -7.280001 -9.969501 -8.969501 -7.347 -9.0635 -12.5155 -15.2179 -13.7694 -15.3811 -15.8175 -13.9144 -13.9219 -13.7881 -14.4005 -11.5896 
-7.199501 -9.002 -9.064501 -7.976 -10.2325 -10.7375 -9.642501 -9.0635 -14.0521 -17.7505 -15.2179 -19.1255 -21.1641 -19.0719 -13.9219 -18.173 -20.0371 -14.4005 
-3.4765 -3.929 -2.4265 -2.186 -1.4985 -4.8835 -4.1735 -3.59 -3.873 -4.7365 0 -1.4985 -4.02 -2.186 -5.5865 -3.748 -3.098 0 -5.403 -5.8465 -1.934 -2.8845 -4.0305 0 
-4.589 -5.029 -3.292 -3.339 -5.37 -6.952 -6.9245 -7.2965 -8.989 -4.7365 -1.4985 -4.914001 -5.624 -8.487501 -7.937 -7.578 -3.098 -4.877 -10.2885 -6.816 -4.7805 -6.832 -4.0305 
-5.5295 -5.7665 -4.5995 -6.7505 -7.1875 -8.554501 -10.586 -10.7335 -8.989 -6.602 -4.914001 -6.2225 -10.982 -10.627 -11.463 -7.578 -8.606501 -10.096 -11.015 -8.398001 -8.833 -6.832 
-6.2005 -7.2825 -7.941 -7.724 -8.814001 -12.5962 -14.023 -10.7335 -10.734 -10.368 -6.2225 -12.0955 -12.431 -14.176 -11.845 -13.0116 -14.0341 -11.015 -12.7118 -13.2203 -8.833 
-7.677501 -10.6875 -8.677 -9.0255 -13.4467 -16.0332 -14.023 -12.4785 -14.5 -11.6765 -12.0955 -13.4945 -16.7715 -14.176 -17.3262 -18.4392 -14.9531 -12.7118 -17.5341 -13.2203 
-1.4985 -3.5085 -4.9225 -5.5865 -4.5445 0 -2.8845 0 0 -2.3615 -2.186 -1.4985 -4.8835 -3.6135 -3.59 -1.934 -3.188 0 
-4.4755 -9.492001 -11.0325 -10.3045 -4.5445 -2.8845 -2.8845 0 -2.3615 -3.5005 -3.339 -5.37 -8.826 -6.519 -5.272 -5.387 -3.188 
-10.757 -15.3243 -15.079 -10.025 -7.439001 -2.8845 -2.8845 -2.3615 -3.5005 -4.3105 -6.7505 -9.4855 -12.2177 -8.241 -7.885 -5.387 
-16.5893 -20.3071 -15.3508 -13.3601 -7.439001 -2.8845 -5.4385 -3.5005 -4.3105 -7.312 -10.281 -12.836 -13.9397 -11.3264 -7.885 
-21.5721 -20.3071 -18.6859 -13.3601 -7.439001 -5.4385 -6.239 -4.3105 -7.312 -11.1669 -13.6315 -14.558 -17.0251 -11.3264 
