-4.759 
n/a 
n/a 
n/a 
n/a 
-4.759 
n/a 
n/a 
n/a 
n/a 
-4.759 
n/a 
n/a 
n/a 
n/a 
-4.759 
n/a 
n/a 
n/a 
n/a 
-2.915 -3.433 -4.4075 -1.756 -4.8405 -2.4945 -3.074 -3.325 -3.9195 
-4.682 -7.127501 -5.199 -5.853 -6.726 -4.4205 -6.4185 -5.395 
-7.732 -8.0815 -9.292001 -7.6365 -8.5255 -7.238 -8.1055 
-8.446501 -12.5963 -11.2557 -9.306001 -11.411 -8.859 
-14.2167 -14.56 -12.9252 -12.2309 -13.032 
-3.17 -3.7375 -4.4075 -2.4945 -7.1595 0 
-8.518 -8.248501 -6.529 -8.568001 -7.1595 
-13.0418 -9.750501 -13.0841 -8.568001 
-14.5438 -16.3056 -13.0841 
-21.0989 -16.3056 
-1.756 -3.3715 -2.4265 -4.4075 -2.4945 -3.88 -3.859 
-4.6545 -6.365001 -7.6885 -6.529 -4.616 -7.833 
-8.581 -10.233 -9.4805 -9.006001 -10.01 
-12.4644 -12.2544 -12.0353 -14.6172 
-14.4858 -14.8092 -17.6465 
-1.756 -3.074 -3.135 -2.915 -3.433 -3.6815 -2.4945 -3.325 -3.9195 0 
-4.566 -5.767 -5.6755 -4.682 -6.4715 -6.5205 -5.3365 -5.395 -3.9195 
-6.741 -8.112 -8.7285 -8.5085 -9.2985 -9.224501 -7.039001 -5.395 
-9.084001 -11.6326 -12.7702 -11.6731 -12.0129 -10.0855 -7.039001 
-12.7112 -15.6743 -15.9348 -14.3875 -12.8739 -10.0855 
