-4.759 
n/a 
n/a 
n/a 
n/a 
-4.759 
n/a 
n/a 
n/a 
n/a 
-4.759 
n/a 
n/a 
n/a 
n/a 
-4.759 
n/a 
n/a 
n/a 
n/a 
-8.6645 0 -7.851 -8.621 0 
-8.6645 -7.851 -8.6755 -8.621 
-10.985 -8.6755 -8.6755 
-11.8095 -8.6755 
-11.8095 
-8.6645 0 0 -7.851 -8.621 0 
-8.6645 0 -7.851 -8.6755 -8.621 
-8.6645 -7.851 -8.6755 -8.6755 
-10.985 -8.6755 -8.6755 
-11.8095 -8.6755 
-8.6645 0 -7.851 -8.621 
-8.6645 -7.851 -8.6755 
-10.985 -8.6755 
-11.8095 
n/a 
-6.7335 0 -7.851 -8.621 0 -7.851 -8.621 0 
-6.7335 -7.851 -8.6755 -8.621 -7.851 -8.6755 -8.621 
-9.044001 -8.6755 -8.6755 -10.368 -8.6755 -8.6755 
-9.159 -8.6755 -10.382 -10.4625 -8.6755 
-9.159 -10.382 -10.463 -10.4625 
