-4.759 
n/a 
n/a 
n/a 
n/a 
-4.759 
n/a 
n/a 
n/a 
n/a 
-4.759 
n/a 
n/a 
n/a 
n/a 
-4.759 
n/a 
n/a 
n/a 
n/a 
-4.722 -4.0555 -1.934 -1.4985 -4.749 -4.153 0 
-10.164 -5.263 -2.6125 -5.759501 -6.386 -4.153 
-11.4679 -6.174 -6.710001 -6.6625 -6.386 
-12.3789 -9.4845 -7.033501 -6.6625 
-15.6894 -10.255 -7.033501 
-1.4985 -5.021 -3.9535 -4.0225 -1.934 -1.4985 -4.749 -4.153 
-6.320001 -9.3135 -6.7915 -5.3785 -2.6125 -5.759501 -6.386 
-9.557001 -12.3819 -7.532001 -6.403 -6.710001 -6.6625 
-12.6398 -13.1224 -8.757 -10.6215 -7.033501 
-13.3803 -14.3474 -12.9743 -10.945 
-5.978 -3.9535 -4.0225 -1.934 -4.749 -4.153 0 
-9.203501 -6.7915 -5.3785 -7.0255 -6.386 -4.153 
-10.4515 -7.532001 -9.1365 -8.073501 -6.386 
-10.5 -11.673 -10.8117 -8.073501 
-16.0972 -13.3482 -10.8117 
-4.722 -3.9535 -1.7695 -3.6955 -1.934 -4.749 -4.153 
-10.2985 -5.098001 -4.452 -4.938 -7.0255 -6.386 
-11.443 -7.0755 -5.7405 -9.9665 -8.073501 
-13.4205 -8.007 -10.2975 -11.0145 
-14.352 -12.805 -11.3455 
