-4.759 
n/a 
n/a 
n/a 
n/a 
-4.759 
n/a 
n/a 
n/a 
n/a 
-4.759 
n/a 
n/a 
n/a 
n/a 
-4.759 
n/a 
n/a 
n/a 
n/a 
-6.557 -3.5435 -2.8645 -4.164 -1.4985 -8.395 -2.8195 -2.5045 -1.4985 -4.4925 -4.4525 -1.7565 -8.395 -1.934 -9.122001 -1.756 -3.074 -1.4985 -3.545 -3.152 -2.9805 -4.657 -1.934 -8.101001 -1.934 -5.3885 -3.074 -4.164 -2.5045 -8.395 -4.4925 -2.8195 0 
-8.731501 -5.259501 -5.1465 -5.1675 -10.2135 -11.9217 -5.7965 -3.583 -5.828501 -9.5835 -5.591001 -9.969501 -10.7025 -10.2485 -10.7665 -4.566 -4.6505 -4.401 -6.7895 -6.542 -5.941 -5.156 -9.250001 -10.1265 -6.4035 -8.795 -6.4525 -6.231 -11.0465 -13.5947 -7.1165 -2.8195 
-10.089 -8.051001 -6.169 -14.5047 -13.8386 -14.8987 -6.977 -8.1075 -10.503 -10.4055 -14.6038 -12.2352 -19.017 -11.893 -13.5765 -5.66 -8.034 -7.238501 -9.536 -9.175501 -6.4985 -13.124 -11.3293 -10.474 -9.34 -12.3923 -8.4095 -15.488 -16.2462 -16.2187 -7.1165 
-12.8805 -8.5825 -15.8652 -18.1298 -16.8156 -16.0792 -11.8549 -12.9816 -11.325 -19.4183 -16.8695 -20.5497 -20.6615 -14.703 -14.6705 -8.942501 -11.1297 -10.047 -10.7585 -10.293 -14.5597 -15.2033 -11.6768 -13.4105 -13.0277 -14.3493 -17.6983 -20.6877 -18.8702 -16.2187 
-13.412 -18.4693 -19.4903 -21.1068 -17.9961 -20.9571 -16.729 -13.8036 -20.3378 -21.684 -25.184 -22.1942 -23.4715 -15.797 -17.953 -12.2596 -13.9382 -11.2927 -11.876 -18.3542 -16.639 -15.5508 -14.6133 -17.0982 -14.9847 -23.6381 -22.898 -23.3117 -18.8702 
-5.1845 -5.74 -3.5435 -8.3485 -9.8555 -4.4925 -1.7695 -9.8555 -4.4925 -1.934 -9.9495 -2.9805 -2.229 -3.511 -1.7695 -4.4925 -2.8195 -1.756 -5.3885 -9.527 -2.9805 -2.229 -3.074 -3.511 -4.4925 -2.8195 -1.7695 -4.1225 0 
-5.7465 -7.83 -13.319 -18.842 -14.5392 -6.3065 -12.6072 -14.5392 -6.5245 -12.8899 -13.0252 -4.2145 -5.825 -5.814 -6.897 -7.1165 -4.6595 -7.377 -15.8833 -12.8381 -4.2145 -5.0265 -6.7665 -8.9475 -7.1165 -4.8875 -6.488 -4.1225 
-7.8315 -18.0789 -23.8125 -23.5257 -16.3532 -17.8142 -17.2909 -16.5712 -18.0538 -15.9656 -14.2592 -8.319 -8.289001 -11.7189 -9.357 -8.988501 -11.4773 -18.2716 -19.1944 -14.0721 -6.030001 -8.7325 -12.9974 -11.9833 -9.72 -10.335 -6.488 
-18.082 -28.5724 -28.4962 -25.3397 -27.8609 -22.4979 -19.3229 -28.1005 -21.1295 -17.1996 -18.3637 -11.6042 -14.8719 -14.1789 -11.8714 -16.1435 -22.3719 -21.5827 -20.4284 -15.8876 -10.3598 -15.2236 -16.0332 -14.5868 -15.2259 -10.335 
-28.5755 -33.2561 -30.3102 -36.8474 -32.5446 -24.5299 -30.8522 -31.1762 -22.3635 -21.3041 -21.6489 -18.1871 -17.3319 -16.6933 -19.0264 -27.0381 -25.683 -22.8167 -22.2439 -20.2174 -16.8509 -18.2594 -18.6367 -20.0927 -15.2259 
-1.934 -3.333 -1.7695 -4.7055 -1.4985 -3.941 -1.7565 -8.3485 -8.395 0 -3.091 -8.574 -2.8195 -1.934 -9.122001 -1.756 -5.3885 -9.13 -2.7415 -4.47 -2.5045 -1.4985 -4.4925 0 
-3.9835 -4.022 -5.7105 -5.343 -5.133 -5.2205 -9.627001 -9.750501 -8.395 -3.091 -12.9508 -12.0079 -4.932 -10.2485 -10.7665 -7.377 -15.4863 -12.0741 -6.424 -6.3885 -3.583 -5.828501 -4.4925 
-4.0425 -7.4945 -6.164001 -9.613501 -5.817501 -13.8356 -11.1526 -9.750501 -12.1932 -12.9508 -16.3847 -14.1204 -13.8543 -11.893 -16.3875 -17.8746 -18.4304 -15.7566 -8.077001 -7.746 -8.1075 -5.828501 
-7.4965 -7.811 -10.5425 -10.3695 -14.7894 -15.3612 -11.1526 -13.7171 -22.053 -16.3847 -18.4972 -23.0427 -15.4988 -17.514 -26.8851 -20.8187 -22.1129 -17.4096 -8.991501 -12.4475 -8.1075 
-7.814001 -12.3293 -10.75 -19.3414 -16.315 -15.3612 -15.1192 -23.5769 -25.4869 -18.4972 -27.4195 -24.6872 -21.1198 -28.0116 -29.8292 -24.5012 -23.7659 -18.3241 -13.811 -12.4475 
-6.557 -3.5435 -4.306 -8.395 -9.9495 -3.545 -1.756 -11.0235 -3.545 -2.0935 -3.091 -4.4925 -3.545 0 
-8.731501 -7.393001 -14.2046 -19.0517 -13.5897 -4.9285 -13.7881 -15.1905 -5.439 -4.5345 -7.319 -7.778501 -3.545 
-12.8184 -17.7068 -24.8613 -22.6919 -14.9732 -17.8662 -17.9551 -17.0845 -7.5925 -8.624001 -10.6605 -7.778501 
-23.1322 -28.3635 -28.5015 -24.0754 -27.9109 -22.0332 -19.8491 -19.238 -12.045 -12.1543 -10.6605 
-33.7889 -32.0037 -29.885 -37.0131 -32.0779 -23.9272 -22.0026 -23.6905 -15.5753 -12.1543 
