-4.759 
n/a 
n/a 
n/a 
n/a 
-4.759 
n/a 
n/a 
n/a 
n/a 
-4.759 
n/a 
n/a 
n/a 
n/a 
-4.759 
n/a 
n/a 
n/a 
n/a 
-1.4985 -3.584 -2.356 -12.16972 -3.0835 -3.9035 -1.756 -3.6955 -12.16972 0 
-4.755 -5.0575 -15.43652 -15.25322 -7.5825 -5.1585 -5.3915 -17.30862 -12.16972 
-7.1575 -18.67642 -18.52002 -19.75222 -9.219 -9.134001 -19.74662 -17.30862 
-21.01522 -21.75992 -23.01902 -21.38872 -13.3619 -23.76472 -19.74662 
-24.09872 -26.25892 -24.65552 -25.53162 -27.99262 -23.76472 
-9.962501 -2.186 -3.355 -1.7565 -12.16972 
-12.2793 -4.764 -3.725 -14.87542 
-14.8573 -4.7845 -17.55832 
-14.8778 -19.03922 
-29.13252 
0 -12.16972 0 -3.584 -2.356 -1.4985 -5.154 -1.7565 0 -10.4215 0 
-12.16972 -12.16972 -3.584 -5.0575 -3.1615 -5.884001 -6.660501 -1.7565 -10.4215 -10.4215 
-12.16972 -15.75372 -5.0575 -5.7595 -7.5625 -7.469001 -6.660501 -13.1272 -10.4215 
-15.75372 -17.22722 -5.7595 -10.4743 -9.5015 -7.469001 -18.7242 -13.1272 
-17.22722 -17.92922 -10.4743 -12.4133 -9.5015 -19.6329 -18.7242 
0 -12.16972 0 -2.3615 -4.957 -4.0225 -1.7695 0 -10.4135 -5.09 0 
-12.16972 -12.16972 -2.3615 -9.080501 -9.300501 -4.9235 -1.7695 -10.4135 -15.5035 -5.09 
-12.16972 -14.53122 -9.080501 -13.4902 -10.271 -4.9235 -13.1652 -15.5035 -15.5035 
-14.53122 -21.25022 -13.4902 -14.4607 -10.271 -17.0162 -18.2552 -15.5035 
-21.25022 -25.65992 -14.4607 -14.4607 -22.5811 -22.1062 -18.2552 
