-4.759 
n/a 
n/a 
n/a 
n/a 
-4.759 
n/a 
n/a 
n/a 
n/a 
-4.759 
n/a 
n/a 
n/a 
n/a 
-4.759 
n/a 
n/a 
n/a 
n/a 
-2.925 -4.0645 -3.7895 -1.934 -4.2815 -4.5165 0 -3.982 -4.231 -2.4945 -1.934 -4.4305 
-8.106501 -7.1415 -4.5695 -5.399 -9.31 -4.5165 -3.982 -9.057 -5.8785 -4.2645 -5.5125 
-10.4115 -7.2545 -8.468 -10.9143 -9.31 -8.6715 -9.057 -11.1347 -7.633 -6.7145 
-10.536 -11.4092 -14.2253 -10.9143 -13.9352 -14.2387 -11.1347 -12.8892 -10.476 
-14.6907 -17.1665 -14.2253 -15.5395 -19.5024 -16.3164 -12.8892 -15.7322 
-3.851 -1.7695 -5.499 -1.7565 -4.22 -1.7695 -4.29 -3.8275 -1.756 -4.7895 0 -3.8035 -5.5365 -1.934 -2.8965 -3.498 -1.7695 -5.694 -1.7565 -4.176 -4.257 
-4.0015 -7.761001 -6.389 -5.651 -4.8015 -6.39 -7.7005 -5.1855 -6.0955 -4.7895 -3.8035 -7.339 -6.492001 -4.391 -5.6375 -5.0505 -8.099501 -6.7065 -5.79 -6.679 
-8.701 -8.4315 -8.6315 -6.572001 -9.286001 -10.1 -9.062 -8.978001 -6.0955 -8.007501 -7.339 -8.3025 -9.120501 -8.820001 -7.106 -12.0409 -8.887001 -10.2645 -8.517501 
-8.9065 -10.513 -9.735001 -10.6335 -12.996 -11.4615 -13.1081 -8.978001 -8.954 -11.7666 -8.3025 -10.7025 -13.6079 -10.5473 -14.5002 -12.8284 -12.4322 -13.3626 
-11.0472 -11.6165 -13.8989 -14.3435 -14.3575 -15.5076 -13.1081 -12.2957 -12.7703 -12.7301 -10.7025 -15.1899 -15.3352 -17.9415 -15.2877 -16.3736 -15.5303 
-3.4765 -2.7835 -1.4985 -4.22 -1.7565 -5.7125 -2.3345 -1.4985 -4.29 -3.8275 0 -1.756 -2.5045 -3.0365 -2.186 -2.847 -4.7665 0 -4.9935 -1.7695 -1.4985 -4.176 -5.6605 -3.8035 -3.8755 -2.264 -1.4985 -2.8965 -4.315 0 
-4.429 -3.7575 -5.3215 -5.4705 -7.5885 -6.2415 -3.233 -5.2375 -7.7005 -3.8275 -1.756 -4.4965 -5.2585 -3.66 -4.1045 -8.1415 -4.7665 -4.9935 -7.4725 -2.7955 -5.1055 -8.399 -10.3415 -6.9705 -5.377 -2.9195 -3.928 -7.349 -4.315 
-5.248 -8.391001 -5.523 -10.0315 -9.536501 -6.867 -6.697001 -8.287001 -7.7005 -5.1855 -4.4965 -7.176001 -5.7025 -4.256001 -9.626 -8.1415 -9.6705 -7.4725 -8.627001 -6.4605 -8.925 -13.1932 -13.5085 -8.9005 -6.455501 -4.648 -7.489 -7.349 
-9.4905 -9.21 -10.0505 -12.0853 -10.08 -10.702 -10.233 -8.287001 -9.062 -7.672501 -7.176001 -7.739501 -6.234 -9.685 -9.626 -13.3773 -12.6615 -8.627001 -12.4244 -10.213 -13.7056 -16.3602 -15.4385 -10.1505 -8.592501 -8.5415 -7.489 
-10.635 -13.9159 -12.1117 -12.6288 -13.915 -14.238 -10.233 -9.7045 -11.8026 -10.6875 -7.739501 -8.099 -11.722 -9.685 -14.914 -16.3683 -13.816 -12.4244 -16.1769 -14.9936 -16.8726 -18.2902 -16.6885 -12.2875 -12.3952 -8.5415 
-3.5725 -5.684 -2.5195 -3.8275 -2.356 -4.2815 0 -1.756 -2.6165 -3.932 -5.4815 -3.6505 -2.5195 -4.176 -5.663 -4.172 -3.277 -3.946 -4.9935 -6.017 -1.934 -2.8965 -3.892 0 
-10.335 -6.746 -6.556 -5.674 -6.132501 -4.2815 -1.756 -4.2965 -5.076 -9.925501 -7.4695 -6.0295 -6.584001 -7.9185 -8.999001 -6.401 -7.141 -8.296 -8.56 -7.1435 -4.391 -6.861 -3.892 
-11.9848 -10.4185 -8.392 -7.4275 -6.132501 -5.558001 -4.2965 -6.473001 -11.2593 -11.9135 -9.885 -9.748501 -10.3965 -10.7175 -11.5772 -11.4656 -12.301 -12.3053 -9.938001 -9.342501 -8.357 -6.861 
-15.6573 -12.2545 -10.5975 -7.4275 -7.1085 -8.509501 -6.473001 -12.9607 -13.2473 -14.329 -13.8454 -14.1518 -13.1955 -13.2957 -16.6418 -16.6256 -16.3103 -13.6833 -12.1598 -13.6385 -8.357 
-17.4933 -14.46 -10.5975 -8.523001 -9.660501 -10.749 -12.9607 -14.9487 -15.6628 -18.2894 -18.2487 -16.9508 -15.7737 -18.3603 -21.8018 -20.6349 -17.6883 -15.9051 -16.4558 -13.6385 
