-4.759 
n/a 
n/a 
n/a 
n/a 
-4.759 
n/a 
n/a 
n/a 
n/a 
-4.759 
n/a 
n/a 
n/a 
n/a 
-4.759 
n/a 
n/a 
n/a 
n/a 
-3.321 -3.135 -4.9225 -2.4945 -5.3905 -1.7695 -8.73 0 -4.933 0 -3.502 -3.976 
-5.9135 -7.305501 -6.9525 -7.002 -6.104 -11.4817 -8.73 -4.933 -4.933 -3.502 -4.3935 
-10.396 -9.003501 -11.778 -7.669001 -16.2088 -11.4817 -13.8964 -4.933 -8.068501 -4.3935 
-12.094 -13.9646 -12.445 -18.097 -16.2088 -16.6481 -13.8964 -8.068501 -8.2135 
-17.0551 -14.6316 -22.873 -18.097 -21.3752 -16.6481 -17.0319 -8.2135 
-3.115 -2.3615 -4.908 0 -12.16972 0 -3.502 -3.976 -3.115 -4.2125 -3.959 -1.7695 -5.1845 -3.1385 -5.818 0 
-4.312 -8.919001 -4.908 -12.16972 -12.16972 -3.502 -4.3935 -7.7545 -7.7335 -5.9505 -5.538 -7.4505 -7.4095 -8.5105 -5.818 
-10.6901 -8.919001 -18.65252 -12.16972 -15.67172 -4.3935 -8.318501 -12.576 -9.748501 -7.262 -12.2072 -9.466001 -13.1579 -8.5105 
-10.6901 -23.33172 -18.65252 -15.67172 -16.56322 -8.318501 -13.2522 -14.591 -11.2406 -14.1696 -14.2227 -15.2828 -13.1579 
-25.10282 -23.33172 -22.15452 -16.56322 -20.48822 -13.2522 -15.2672 -16.0831 -18.1482 -16.1851 -20.0395 -15.2828 
-3.115 -8.27 -6.403 -1.7695 -4.908 0 -4.933 0 -3.502 -3.976 
-10.543 -15.0998 -6.6235 -7.251501 -4.908 -4.933 -4.933 -3.502 -4.3935 
-17.3728 -15.3203 -10.66 -7.251501 -8.368001 -4.933 -8.068501 -4.3935 
-17.5933 -19.3568 -10.66 -9.6295 -8.368001 -8.068501 -8.2135 
-21.6298 -19.3568 -13.6476 -9.6295 -10.001 -8.2135 
-3.115 -2.3615 -5.1845 -3.1385 -8.2755 -1.7695 -3.3715 -3.976 -3.959 -3.115 -4.908 0 -4.933 0 -3.502 -3.976 0 
-4.312 -8.5165 -7.4095 -11.136 -9.481 -5.0445 -8.944 -7.415 -6.08 -8.700001 -4.908 -4.933 -4.933 -3.502 -4.3935 -3.976 
-10.096 -10.9297 -15.7834 -12.3415 -13.0088 -10.3815 -9.685 -9.5465 -9.278 -8.700001 -8.368001 -4.933 -8.068501 -4.3935 -4.3935 
-12.5092 -19.3036 -16.9889 -15.8693 -18.3458 -11.1225 -11.8701 -12.8513 -9.278 -12.4808 -8.368001 -8.068501 -8.2135 -4.3935 
-20.8831 -20.5091 -20.5167 -21.2063 -19.0868 -13.3076 -15.1749 -12.8513 -13.1188 -12.4808 -10.001 -8.2135 -8.2135 
