-4.759 
n/a 
n/a 
n/a 
n/a 
-4.759 
n/a 
n/a 
n/a 
n/a 
-4.759 
n/a 
n/a 
n/a 
n/a 
-4.759 
n/a 
n/a 
n/a 
n/a 
-6.532001 -4.2215 -1.934 -5.3885 0 -6.557 -2.264 -2.7035 -3.609 
-9.672001 -4.885 -6.4035 -5.3885 -6.557 -9.2475 -5.404 -6.079 
-10.9533 -9.021501 -6.4035 -7.7885 -9.2475 -12.3851 -7.683001 
-15.0898 -9.021501 -8.771501 -10.9548 -12.3851 -14.6641 
-15.0898 -11.9253 -12.3036 -14.0924 -14.6641 
-8.467 -2.7415 -4.2215 -1.934 -3.488 -4.642 -1.934 -5.3885 0 -6.557 
-11.117 -4.7885 -4.885 -4.9205 -6.354 -6.7555 -6.4035 -5.3885 -6.557 
-13.164 -5.2365 -7.4515 -8.735001 -8.931001 -11.7316 -6.4035 -7.7885 
-13.612 -7.975 -11.5542 -11.6886 -13.9717 -11.7316 -8.771501 
-16.3505 -11.9921 -14.5078 -16.7293 -13.9717 -14.0996 
-3.488 -4.642 -8.467 -4.2705 -1.934 -5.1845 -5.74 -2.5045 -5.3885 
-6.354 -14.1754 -13.3519 -6.203 -6.564 -5.7465 -8.604 -7.3385 
-16.957 -19.0603 -15.2844 -11.4572 -6.819 -8.611501 -10.2755 
-21.8419 -20.9928 -20.5386 -11.7122 -9.2395 -10.2755 
-23.7744 -26.247 -20.7936 -14.1327 -11.0795 
-5.7305 -2.7415 -4.2215 -1.934 -5.3885 -3.488 -4.642 
-7.8285 -4.7885 -4.885 -6.4035 -8.756001 -6.354 
-9.265 -5.2365 -9.021501 -9.7615 -11.9962 
-9.629001 -9.341001 -12.9153 -13.0017 
-10.5455 -13.3208 -16.1555 
