-4.759 
n/a 
n/a 
n/a 
n/a 
-4.759 
n/a 
n/a 
n/a 
n/a 
-4.759 
n/a 
n/a 
n/a 
n/a 
-4.759 
n/a 
n/a 
n/a 
n/a 
-3.4765 -3.135 -3.8435 -3.664 -5.6205 -2.3615 -2.5045 -17.274 0 -2.3335 -2.7415 -2.6165 -1.934 -3.485 -3.895 0 
-5.966001 -6.488501 -6.97 -10.361 -8.203501 -5.006 -12.4945 -9.767 -2.3335 -4.2725 -4.266 -4.552 -5.457 -6.1565 -3.895 
-9.3 -10.115 -14.2576 -12.944 -11.63 -13.5104 -11.9214 -12.5832 -4.2725 -5.727 -5.921 -7.854501 -7.659501 -6.1565 
-13.1581 -17.512 -16.8406 -16.3705 -20.7864 -14.1624 -16.1479 -15.0422 -5.727 -7.3815 -9.9615 -10.131 -7.659501 
-20.5551 -20.095 -20.2671 -25.5269 -20.7864 -18.3889 -18.2101 -16.4967 -7.3815 -10.7575 -12.2398 -10.131 
-4.426 -1.7565 -1.4985 -3.0835 -4.7285 -4.1555 -6.282001 -3.433 -3.664 -2.4945 -4.7135 -3.115 -2.3335 -9.531 -2.872 -2.3335 -2.186 -2.6165 -1.934 -3.485 -3.1015 0 
-5.47 -2.4195 -3.535 -6.042 -8.4455 -8.847501 -10.3545 -7.0855 -5.315001 -6.238501 -8.484 -4.7415 -12.6355 -12.728 -4.5445 -3.7085 -3.5105 -4.552 -5.457 -7.9025 -3.1015 
-5.9535 -4.6785 -6.335501 -9.523001 -12.3295 -13.1224 -13.9199 -8.6355 -8.964001 -9.9835 -9.938001 -12.491 -14.552 -12.422 -5.501 -4.873 -5.3075 -7.854501 -10.3815 -7.9025 
-8.021 -7.476501 -10.0095 -13.4915 -17.4877 -16.8472 -15.4699 -12.4919 -13.322 -11.4173 -18.0549 -17.2464 -17.2371 -14.4596 -6.1975 -6.523 -8.4685 -13.33 -10.3815 
-9.983001 -11.3061 -14.088 -18.6497 -20.6187 -18.3972 -19.3263 -16.8499 -14.7558 -19.5342 -22.5307 -19.0797 -18.2311 -15.2016 -8.440001 -9.748 -14.4022 -13.33 
-3.135 -4.0865 -3.2945 -4.972 -2.3615 -2.5045 -15.465 -2.9705 -2.7415 -2.6165 -1.934 -3.895 -2.9995 -2.645 0 
-7.345 -7.354 -9.0815 -7.405 -5.006 -12.2535 -12.262 -4.512 -4.266 -4.552 -5.1555 -7.1435 -5.0895 -2.645 
-11.2883 -14.369 -11.7691 -10.071 -14.6998 -14.854 -12.863 -6.0655 -5.921 -7.566501 -8.084001 -8.933001 -5.0895 
-18.3033 -17.0566 -14.4351 -18.7773 -17.6064 -15.5616 -15.0461 -7.684 -9.331 -10.2925 -9.884501 -8.933001 
-20.9909 -19.7226 -23.1414 -22.6714 -18.8299 -17.2731 -16.6646 -10.476 -12.1658 -12.093 -9.884501 
-3.135 -3.0435 -5.27 -5.922 -3.115 -15.465 -2.872 -2.3615 -2.186 -2.6165 -1.934 -1.4985 -4.3435 0 
-6.3955 -8.7305 -12.1878 -8.751 -12.2945 -12.095 -4.6665 -3.5005 -3.5105 -4.552 -2.6125 -5.6925 -4.3435 
-12.8053 -15.9735 -15.0168 -17.3987 -14.56 -12.652 -5.2445 -4.744 -5.3075 -5.1725 -7.1225 -5.6925 
-20.0483 -18.8025 -23.6645 -20.7628 -16.8967 -13.7387 -6.015501 -7.101 -5.8215 -10.181 -7.1225 
-22.8773 -27.4502 -27.0286 -22.6279 -17.1892 -14.9045 -8.385501 -7.632 -10.6875 -10.181 
