-4.759 
n/a 
n/a 
n/a 
n/a 
-4.759 
n/a 
n/a 
n/a 
n/a 
-4.759 
n/a 
n/a 
n/a 
n/a 
-4.759 
n/a 
n/a 
n/a 
n/a 
-1.934 -2.8845 0 -1.934 -4.6535 -4.219 -6.389 -3.986 -3.9955 -1.4985 -3.757 -3.275 -1.756 -4.3195 -1.4985 -5.9445 -3.757 -1.756 -3.074 -4.3195 -1.4985 -3.0835 -7.71 -1.7695 -2.489 -3.757 -1.7565 -1.4985 -3.4225 -3.468 0 
-4.7805 -2.8845 -1.934 -6.738 -5.671 -8.887501 -6.917 -6.5985 -5.0175 -4.5435 -7.945001 -5.3045 -5.563 -5.1515 -6.455 -6.534 -4.8735 -4.566 -6.3765 -5.1515 -3.535 -6.9455 -7.7415 -3.1405 -6.173 -4.5665 -2.4195 -3.9655 -3.628 -3.468 
-4.7805 -5.2765 -6.738 -7.857 -10.543 -8.898001 -9.6815 -7.2615 -8.3125 -8.9755 -9.901501 -9.115 -6.3685 -8.5665 -6.6725 -7.733 -8.120001 -7.788 -7.171 -5.8475 -6.546 -8.52 -8.016001 -6.370501 -7.002 -4.9145 -4.6245 -4.053 -3.628 
-6.427001 -9.4145 -7.857 -13.126 -10.6035 -12.6877 -9.958501 -10.757 -13.5097 -11.0078 -13.7806 -9.9255 -9.85 -8.764 -8.780001 -12.2601 -10.4505 -8.504001 -7.686 -7.5015 -7.274001 -7.960501 -9.525001 -7.164001 -7.141 -5.6745 -4.7175 -4.053 
-11.0954 -11.4739 -13.126 -13.1865 -14.3932 -12.9647 -13.5362 -15.9542 -15.542 -14.8869 -14.5911 -13.443 -9.943501 -10.164 -12.8925 -14.5906 -11.1665 -9.059501 -9.5015 -8.081 -7.9725 -9.370001 -9.727501 -7.299001 -7.396 -5.6885 -4.7175 
-1.934 -1.4985 -3.158 -2.8845 -6.389 -3.986 -3.0695 -4.5635 -2.0935 -3.4225 -9.627001 -3.757 -1.7565 -3.676 -1.756 -2.9805 -2.186 -1.4985 -3.0835 -4.2125 -3.0695 -4.098 -2.3615 -3.5015 0 
-2.6125 -4.178 -5.403501 -9.381001 -6.917 -6.513 -6.065001 -6.576 -5.9305 -14.0075 -10.7085 -4.5665 -4.4345 -5.0365 -4.3555 -4.1635 -3.339 -3.535 -6.297 -7.7665 -5.783501 -6.7725 -5.2225 -3.5015 
-5.265 -6.3145 -12.349 -9.651501 -9.043501 -9.810501 -9.022 -10.1765 -17.2841 -15.0026 -10.789 -7.748001 -5.903501 -7.5695 -5.5675 -5.312 -4.8925 -6.4585 -10.316 -10.7701 -8.0185 -9.578501 -5.2225 
-7.255001 -13.6938 -12.6195 -11.8322 -12.4854 -13.0173 -12.7509 -21.5301 -17.7356 -15.6475 -13.9744 -9.164001 -8.344001 -8.526501 -6.7545 -6.942 -7.7155 -10.347 -13.3196 -13.0051 -10.322 -9.578501 
-15.0169 -13.9643 -14.8002 -15.2741 -15.6922 -16.7462 -24.1045 -21.9816 -18.3805 -18.4065 -15.4846 -10.504 -9.234 -9.6675 -8.379001 -8.397501 -11.9932 -13.3506 -15.5546 -15.3086 -10.322 
-4.4225 -3.6825 -2.229 -4.4305 -4.7955 -3.986 -4.645 -2.5045 -3.757 -1.934 -2.8845 -2.9805 -2.186 -5.9445 -3.757 -1.7565 -3.676 0 -3.0835 -4.2125 -1.7695 -4.3195 -3.757 
-5.3855 -5.3925 -6.8825 -8.678 -8.439501 -7.420001 -6.168001 -5.468 -5.7505 -4.7805 -6.1735 -4.1635 -8.791 -6.534 -4.5665 -4.4345 -3.676 -3.0835 -6.297 -7.6445 -7.421 -6.517 
-6.873 -11.0158 -10.688 -8.992001 -12.3369 -8.98 -7.354001 -7.1115 -7.1975 -6.7015 -7.1615 -10.586 -10.2335 -6.752501 -7.748001 -4.4345 -6.6295 -6.297 -8.5625 -13.6232 -9.740001 
-13.0469 -14.8213 -11.002 -13.0062 -13.8969 -9.512001 -8.632001 -8.870001 -8.740001 -7.861001 -14.14 -12.3937 -10.6825 -9.5115 -7.748001 -7.784 -10.204 -8.5625 -15.032 -15.9422 
-16.8524 -15.1353 -15.0162 -14.5662 -14.4289 -10.7556 -10.0605 -10.1945 -9.6175 -14.9421 -15.9477 -12.8427 -12.3025 -9.5115 -10.31 -11.6667 -12.2473 -15.032 -17.351 
-1.934 -1.4985 -3.158 -2.8845 0 -4.714 -3.986 -3.0695 -3.9955 -1.4985 -4.6535 -4.219 -2.3345 -4.7255 -1.4985 -4.4225 -3.6825 -2.7415 -1.4985 -5.9445 -1.756 -1.4985 -3.0835 -4.2125 -3.4975 -1.7695 -2.489 -1.4985 -3.757 0 
-2.6125 -4.178 -5.403501 -2.8845 -4.714 -4.759 -6.513 -5.72 -5.0175 -5.567 -5.671 -6.4095 -7.0135 -5.2815 -5.0975 -5.3855 -6.0635 -4.063 -6.455 -7.752001 -3.0405 -3.535 -6.297 -4.861 -6.378 -3.1405 -3.9675 -4.5435 -3.757 
-5.265 -6.3145 -5.403501 -6.1305 -4.759 -7.141 -8.656501 -6.2455 -7.7375 -6.4145 -7.819 -11.7199 -7.558001 -8.679001 -5.812 -7.6075 -7.421 -8.726 -8.4345 -9.025001 -5.3975 -6.4585 -6.384501 -6.9965 -7.3975 -4.568 -6.9355 -4.5435 
-7.255001 -6.3145 -9.4715 -6.135 -7.141 -9.123 -9.038 -8.887501 -7.9755 -8.512 -13.2494 -12.2644 -11.1267 -8.92 -7.784501 -8.650001 -12.3568 -10.6165 -9.084001 -9.136001 -7.8425 -6.54 -7.1185 -7.8385 -8.8395 -7.2485 -6.9355 
-7.255001 -9.4835 -9.512001 -10.054 -9.123 -9.466001 -12.0174 -9.186501 -9.363501 -14.0644 -13.7939 -15.8331 -11.3677 -10.4115 -8.7615 -13.8754 -14.2473 -11.266 -9.1385 -12.8184 -7.897 -7.154 -7.937 -9.3245 -10.0635 -7.2485 
