-4.759 
n/a 
n/a 
n/a 
n/a 
-4.759 
n/a 
n/a 
n/a 
n/a 
-4.759 
n/a 
n/a 
n/a 
n/a 
-4.759 
n/a 
n/a 
n/a 
n/a 
-6.0695 0 -12.16972 -3.7865 -4.725 -2.186 -3.383 -4.4525 0 
-6.0695 -12.16972 -15.95622 -9.606501 -7.432501 -4.438 -8.5185 -4.4525 
-19.12062 -15.95622 -21.77622 -12.3958 -9.564501 -9.327001 -8.5185 
-22.90712 -21.77622 -24.56552 -14.5278 -14.5331 -9.327001 
-28.72712 -24.56552 -26.69752 -19.4964 -14.5331 
-5.1875 0 -8.736 -5.2835 -4.725 -2.674 -3.699 -3.5015 0 
-5.1875 -8.736 -14.3943 -10.841 -8.551001 -6.3895 -6.8615 -3.5015 
-15.1547 -14.3943 -19.9518 -14.667 -12.3645 -10.31 -6.8615 
-20.813 -19.9518 -23.7778 -18.4805 -16.285 -10.31 
-26.3705 -23.7778 -27.5913 -22.401 -16.285 
-1.934 -5.1875 0 -5.3765 -3.7865 -4.725 -2.186 -1.4985 -3.699 -2.871 
-7.1715 -5.1875 -5.3765 -9.897 -9.606501 -7.432501 -3.339 -5.264 -6.3315 
-7.1715 -8.878501 -9.897 -15.8974 -12.3958 -8.518001 -6.9335 -7.808001 
-11.5897 -13.9156 -15.8974 -18.6867 -13.4813 -12.3305 -8.186 
-16.6268 -19.916 -18.6867 -19.7722 -17.2938 -13.583 
-4.725 -2.4945 -3.383 -3.699 -3.5015 -1.934 -5.1875 0 -5.389 -3.7865 
-8.1975 -4.732 -5.014 -6.8615 -4.704 -7.1715 -5.1875 -5.389 -8.625 
-10.1995 -6.204 -8.0045 -7.21 -9.456 -7.1715 -7.3205 -8.625 
-11.6715 -10.4035 -8.335 -10.3405 -9.456 -9.110001 -11.4801 
-15.871 -10.9752 -11.5767 -10.3405 -11.6655 -13.684 
