-4.759 
n/a 
n/a 
n/a 
n/a 
-4.759 
n/a 
n/a 
n/a 
n/a 
-4.759 
n/a 
n/a 
n/a 
n/a 
-4.759 
n/a 
n/a 
n/a 
n/a 
-5.1845 -6.844 -4.248 -4.5845 -4.231 -4.6075 -4.866 0 
-6.9655 -10.078 -9.545 -8.545 -8.892501 -10.4945 -4.866 
-10.2085 -15.6952 -13.8443 -13.6061 -15.4889 -10.4945 
-15.8529 -19.9945 -18.9054 -20.2025 -15.4889 
-20.1522 -25.0556 -25.5018 -20.2025 
-4.901 -3.8275 -3.9875 -2.3345 -5.267 -4.891 -1.7565 -5.1845 -6.844 0 
-7.6935 -8.3985 -6.002 -7.063001 -11.0884 -6.8725 -6.580501 -6.9655 -6.844 
-13.6495 -9.514501 -9.611 -13.2944 -13.0699 -7.181 -7.1625 -6.9655 
-14.7655 -13.3037 -15.803 -15.2759 -13.3784 -7.202001 -7.1625 
-18.5547 -19.4957 -17.7845 -15.5844 -13.3994 -7.202001 
-1.8085 -8.4405 -4.866 -2.7415 -6.315001 -2.3345 -5.1845 -7.643 -5.3745 -4.891 0 
-10.0645 -13.6945 -7.1765 -8.786 -7.748501 -7.449 -9.794001 -13.3547 -7.061501 -4.891 
-15.5683 -16.005 -13.6418 -9.0085 -13.1038 -12.5655 -15.7667 -15.0417 -7.061501 
-17.8788 -22.4703 -13.8643 -14.676 -18.2203 -18.5382 -17.4537 -15.0417 
-24.3441 -22.6928 -19.5318 -19.7925 -24.193 -20.2252 -17.4537 
-4.6075 -3.8275 
-8.123501 
n/a 
n/a 
n/a 
