-4.759 
n/a 
n/a 
n/a 
n/a 
-4.759 
n/a 
n/a 
n/a 
n/a 
-4.759 
n/a 
n/a 
n/a 
n/a 
-4.759 
n/a 
n/a 
n/a 
n/a 
-4.74 -4.219 -5.715 -2.4945 -3.333 -1.934 -5.1845 -5.74 
-9.911001 -8.6285 -7.493 -4.3655 -4.374 -6.564 -5.7465 
-14.5763 -11.1487 -9.641001 -5.2835 -9.109501 -6.819 
-17.0965 -13.2967 -10.1365 -9.948001 -9.6975 
-19.2445 -13.7922 -15.4662 -10.213 
-3.264 -1.7565 -4.304 -4.66 -1.934 -6.557 -2.186 -4.74 0 
-3.6125 -6.06 -7.750501 -5.929 -7.536 -8.833 -8.0425 -4.74 
-8.3065 -8.936001 -8.614 -12.4382 -9.352501 -14.7873 -8.0425 
-9.467001 -9.8345 -15.2 -14.2547 -15.2664 -14.7873 
-10.369 -16.5331 -17.0165 -20.1686 -15.2664 
-3.0365 -2.4945 -4.74 -3.1715 -4.881 -5.8355 -1.934 -6.557 
-3.688 -8.375 -8.3885 -5.834001 -10.7495 -7.0645 -7.536 
-8.645 -12.2561 -11.416 -12.0283 -11.9785 -13.2173 
-12.6815 -15.2836 -17.6103 -13.2573 -18.1313 
-15.709 -21.4779 -18.8393 -19.4101 
-3.264 -1.7565 -4.5375 -4.304 -5.8355 -1.934 -5.1845 -5.74 -2.4945 -4.74 0 
-3.6125 -5.984001 -6.076 -7.895501 -7.0645 -6.564 -5.7465 -8.4305 -8.375 -4.74 
-7.653501 -8.040501 -9.627001 -8.729001 -9.8695 -6.819 -8.4355 -14.3924 -8.375 
-10.248 -10.7495 -10.496 -10.4675 -9.873 -8.826 -14.3978 -14.3924 
-12.957 -11.6185 -12.2345 -10.482 -11.981 -14.8047 -14.3978 
