-4.759 
n/a 
n/a 
n/a 
n/a 
-4.759 
n/a 
n/a 
n/a 
n/a 
-4.759 
n/a 
n/a 
n/a 
n/a 
-4.759 
n/a 
n/a 
n/a 
n/a 
-3.17 -4.4695 -3.9155 -3.5865 -1.934 -6.3215 -2.186 -9.821 -3.9155 -3.5865 0 
-5.473001 -9.0695 -6.432 -5.4235 -7.453 -8.5 -13.2174 -14.2429 -6.432 -3.5865 
-9.975 -10.4515 -8.076501 -9.461 -9.5135 -19.901 -17.6393 -16.7594 -6.432 
-11.357 -12.096 -12.4202 -11.8727 -20.9291 -24.3229 -20.1558 -16.7594 
-13.0015 -16.4397 -14.8319 -23.2883 -25.351 -26.8394 -20.1558 
-9.821 -3.5865 -1.7565 -3.9155 -2.186 -1.8085 -3.383 -4.4695 -3.9155 -3.5865 -1.934 -6.3215 0 
-10.3745 -4.5285 -5.171 -6.2465 -3.164 -4.1695 -6.6995 -9.0695 -6.432 -5.4235 -7.453 -6.3215 
-10.5865 -5.8595 -7.449501 -7.051 -4.954 -7.171 -10.7595 -10.4515 -8.076501 -9.461 -7.453 
-10.69 -7.9615 -8.415001 -8.719501 -7.764501 -11.4868 -12.1415 -12.096 -12.4202 -9.461 
-12.792 -9.064 -10.7575 -11.8436 -12.2283 -12.8688 -13.786 -16.4397 -12.4202 
-9.821 -3.9155 -3.5865 -2.186 -1.4985 -3.17 -4.4695 -3.9155 -3.5865 -1.934 -6.3215 0 
-14.2429 -6.432 -5.7395 -3.339 -3.7115 -5.473001 -9.0695 -6.432 -5.4235 -7.453 -6.3215 
-16.7594 -8.779 -7.019 -4.888 -5.7745 -9.975 -10.4515 -8.076501 -9.461 -7.453 
-19.1064 -10.147 -8.7025 -7.0265 -10.233 -11.357 -12.096 -12.4202 -9.461 
-20.4744 -11.8305 -10.6095 -11.9058 -11.615 -13.0015 -16.4397 -12.4202 
-8.2995 -3.5865 -1.7565 -3.9155 -2.186 -1.4985 -4.4695 -3.9155 -3.5865 -1.934 -6.3215 0 
-8.39 -4.5285 -5.171 -6.2465 -3.339 -5.252501 -9.0695 -6.432 -5.4235 -7.453 -6.3215 
-8.435 -5.8595 -7.449501 -7.2995 -6.966 -9.896001 -10.4515 -8.076501 -9.461 -7.453 
-8.464001 -7.9615 -8.646001 -11.4065 -11.7183 -11.3306 -12.096 -12.4202 -9.461 
-11.1984 -9.1385 -12.9388 -16.1588 -13.1529 -12.9751 -16.4397 -12.4202 
