-4.759 
n/a 
n/a 
n/a 
n/a 
-4.759 
n/a 
n/a 
n/a 
n/a 
-4.759 
n/a 
n/a 
n/a 
n/a 
-4.759 
n/a 
n/a 
n/a 
n/a 
-2.5045 -3.091 -4.79 -3.7515 0 -5.5785 -4.4785 -7.134 -5.757 -3.0695 -2.186 -1.7565 -1.4985 -3.486 -3.7515 0 
-5.0075 -7.345 -9.717001 -3.7515 -5.5785 -9.728001 -12.6571 -9.712501 -8.68 -4.2675 -4.858 -2.4195 -3.5655 -6.215 -3.7515 
-9.818001 -13.1778 -9.717001 -10.0545 -9.728001 -18.0844 -15.2356 -12.7681 -9.84 -7.054501 -5.645 -4.824501 -6.2665 -6.215 
-15.7718 -13.1778 -16.0868 -14.204 -18.0844 -20.6629 -18.2912 -13.9281 -12.627 -7.795501 -6.878 -6.812 -6.2665 
-15.7718 -19.5476 -20.2363 -22.5604 -20.6629 -23.7185 -19.4512 -16.7151 -13.368 -8.653001 -9.005501 -6.812 
-3.034 -2.9805 -2.7415 -3.062 -3.277 -3.5905 0 -5.5785 -4.4785 -7.969 -5.757 -3.0695 -2.7415 -3.074 -1.7565 -3.091 -3.486 -3.7515 0 
-4.4605 -4.004 -6.2625 -5.397 -4.7035 -3.5905 -5.5785 -9.728001 -13.4921 -10.1 -8.68 -4.6395 -4.727 -5.715 -4.0655 -7.5055 -6.215 -3.7515 
-5.2415 -7.2875 -7.2725 -6.258 -4.7035 -9.3485 -9.728001 -18.9194 -15.6231 -13.023 -9.4905 -6.397 -7.496 -7.817 -8.6455 -8.96 -6.215 
-7.582 -7.9995 -7.365 -6.258 -10.4185 -13.6258 -18.9194 -21.0504 -18.5461 -13.8335 -11.5262 -9.068501 -10.1595 -12.5452 -9.697001 -8.96 
-8.252001 -8.032001 -7.365 -12.525 -14.6958 -22.8172 -21.0504 -23.9734 -19.3566 -15.8692 -14.1977 -11.7532 -14.8877 -13.5967 -9.697001 
-5.5785 -4.4785 -12.16972 -3.034 -2.9805 -2.7415 -3.062 -3.277 -3.5905 
-9.728001 -17.69282 -15.20372 -4.4605 -4.004 -6.2625 -5.397 -4.7035 
-23.12012 -20.72682 -16.63022 -5.2415 -7.2875 -7.2725 -6.258 
-26.15412 -22.15332 -17.41122 -7.582 -7.9995 -7.365 
-27.58062 -22.93432 -19.75172 -8.252001 -8.032001 
-2.5045 -1.4985 -3.7515 -1.7565 -3.062 -2.9805 -4.4785 -7.554501 
-3.1915 -4.705501 -4.6045 -5.24 -6.7465 -5.818501 -10.468 
-5.443 -4.844501 -6.253 -7.889 -9.247001 -12.3294 
-5.454 -6.267 -7.925 -9.8255 -15.8781 
-7.126501 -7.955501 -9.838 -17.0828 
