-4.759 
n/a 
n/a 
n/a 
n/a 
-4.759 
n/a 
n/a 
n/a 
n/a 
-4.759 
n/a 
n/a 
n/a 
n/a 
-4.759 
n/a 
n/a 
n/a 
n/a 
-3.1495 -3.693 -3.571 -3.819 -4.385 -4.079 -2.4265 -4.8915 -1.7695 -4.725 0 
-7.1885 -6.6095 -7.5335 -9.5115 -8.7235 -6.5335 -7.420501 -6.7925 -6.627 -4.725 
-10.5325 -10.8328 -13.5084 -14.2808 -11.659 -12.5257 -9.9055 -12.2204 -6.627 
-14.7558 -16.8077 -18.2777 -17.2163 -17.6512 -15.0107 -15.4446 -12.2204 
-20.7307 -21.577 -21.2132 -23.2085 -20.1362 -20.5498 -15.4446 
-2.3615 -2.871 -5.532 -2.871 -3.42 -3.2955 -1.756 -4.503 -1.8085 -4.725 -3.682 -4.8255 0 
-4.583 -8.687 -7.7865 -5.566 -7.121 -5.223 -5.9905 -5.643001 -6.6805 -8.7615 -8.330501 -4.8255 
-10.6392 -10.6215 -10.543 -9.684501 -9.173 -9.925 -6.995501 -9.493 -10.281 -13.7492 -8.330501 
-12.5737 -13.378 -14.6615 -11.8593 -14.115 -10.7065 -11.1209 -13.8713 -15.2687 -13.7492 
-15.3302 -17.4965 -16.8363 -16.8013 -14.8965 -14.8319 -15.4992 -18.859 -15.2687 
-3.6065 -1.7695 -2.3615 -2.925 -2.4945 -4.3615 -3.3425 -1.8085 -3.7285 -3.42 -3.6245 
-5.8365 -3.736 -5.8255 -3.7675 -6.825 -7.2535 -4.3475 -4.2045 -5.9125 -7.022 
-8.199 -7.256001 -6.788 -7.976501 -10.27 -8.476001 -6.0135 -6.232 -10.061 
-10.66 -8.165501 -11.2402 -11.5429 -11.4925 -10.6215 -8.526501 -10.2585 
-11.5695 -12.7157 -14.8066 -12.7654 -13.638 -13.1345 -12.898 
-2.3615 -2.871 -1.7565 -4.1755 -3.3425 -3.7285 -3.42 -2.0935 -4.725 -4.4385 -4.3615 
-4.583 -3.5385 -5.939001 -7.6225 -6.7035 -5.9125 -5.397 -6.4395 -9.097501 -8.154501 
-6.28 -9.4645 -9.495501 -11.1963 -8.8575 -8.027 -10.5975 -11.916 -12.8921 
-12.4096 -13.029 -13.2005 -13.3503 -11.4296 -13.6945 -16.074 -15.7106 
-15.9741 -16.734 -15.3545 -15.9224 -17.0971 -19.171 -19.8686 
