-4.759 
n/a 
n/a 
n/a 
n/a 
-4.759 
n/a 
n/a 
n/a 
n/a 
-4.759 
n/a 
n/a 
n/a 
n/a 
-4.759 
n/a 
n/a 
n/a 
n/a 
-4.7495 -3.955 -6.2095 -3.091 -4.405 -3.645 -3.511 
-8.352501 -9.4615 -9.540501 -6.387 -7.849501 -7.363501 
-14.2288 -12.8915 -12.9509 -10.66 -10.3545 
-17.6588 -16.3019 -17.2239 -13.165 
-21.0692 -20.5749 -19.7289 
-3.091 -4.405 -3.8735 -1.934 -4.7495 
-6.387 -7.940001 -5.844 -7.423 
-10.634 -10.0575 -10.76 
-12.7515 -15.0185 
-17.7125 
-3.091 -3.3195 -4.299 -3.152 -4.7495 0 
-5.8145 -6.4475 -7.0325 -9.1665 -4.7495 
-9.594501 -9.653001 -13.64 -9.1665 
-12.9132 -16.4591 -13.64 
-19.7193 -16.4591 
-4.7495 -4.5515 -6.777 -3.091 -3.511 -3.3195 -1.934 -1.4985 -3.955 0 
-10.7914 -8.720501 -9.286501 -6.826 -5.2295 -5.3225 -2.6125 -5.274 -3.955 
-14.9604 -11.5598 -13.1935 -8.403501 -6.9325 -5.9445 -6.3225 -5.274 
-17.7997 -15.4668 -14.771 -10.9595 -7.524 -10.6215 -6.3225 
-21.7067 -17.0443 -17.327 -11.551 -12.6374 -10.6215 
