-4.759 
n/a 
n/a 
n/a 
n/a 
-4.759 
n/a 
n/a 
n/a 
n/a 
-4.759 
n/a 
n/a 
n/a 
n/a 
-4.759 
n/a 
n/a 
n/a 
n/a 
-2.9805 -3.8755 -3.5035 -1.7695 -4.985 -1.4985 -3.7745 -3.5435 -2.229 -3.4985 -3.2295 -4.6075 0 
-6.089001 -8.594 -5.3545 -5.2955 -5.547 -4.753 -5.717 -4.973001 -5.9115 -5.0165 -7.8395 -4.6075 
-10.6735 -10.1425 -8.512501 -5.827001 -8.5295 -6.116 -7.2205 -7.6995 -7.1035 -9.026501 -7.8395 
-12.222 -13.3005 -9.080001 -8.739501 -9.0625 -7.3595 -9.056001 -8.3385 -9.552501 -9.026501 
-15.38 -13.868 -12.0349 -9.179501 -9.854501 -9.109 -9.486 -10.9655 -9.552501 
-2.9805 -4.537 -3.84 
-6.186 -9.6745 
-11.9455 
n/a 
n/a 
-2.9805 -3.8755 -4.179 -2.0935 -4.816 -1.4985 -3.7745 -3.5435 -2.229 -4.6075 0 
-6.089001 -8.42 -6.1085 -5.527 -5.504001 -4.753 -5.717 -4.973001 -6.6875 -4.6075 
-10.4105 -9.943501 -9.662001 -6.093 -8.9645 -6.116 -7.2205 -9.3625 -6.6875 
-11.934 -13.6144 -10.324 -9.599501 -10.3745 -7.3595 -11.937 -9.3625 
-15.6049 -14.2764 -13.8305 -11.4791 -11.618 -12.1064 -11.937 
-2.9805 -3.8755 -3.5035 -1.7695 -4.985 -1.4985 -3.4985 -1.7565 -4.6075 -2.3345 -3.7745 -3.5435 0 
-6.089001 -8.594 -5.3545 -5.2955 -5.547 -4.798 -4.622 -5.932001 -6.8955 -6.4375 -5.717 -3.5435 
-10.6735 -10.1425 -8.512501 -5.827001 -8.5465 -5.425 -8.3575 -8.007501 -11.4889 -7.3015 -5.717 
-12.222 -13.3005 -9.080001 -8.768001 -8.900001 -8.8395 -10.564 -12.9333 -12.3529 -7.3015 
-15.38 -13.868 -12.0634 -9.143001 -12.3279 -11.3702 -15.4898 -13.7973 -12.3529 
