-4.759 
n/a 
n/a 
n/a 
n/a 
-4.759 
n/a 
n/a 
n/a 
n/a 
-4.759 
n/a 
n/a 
n/a 
n/a 
-4.759 
n/a 
n/a 
n/a 
n/a 
-4.2055 -2.5685 -4.2915 -1.7695 -3.9785 -2.674 -4.957 0 -4.19 -3.6885 -3.13 0 0 -3.9685 -3.6885 -2.5645 0 0 -4.6525 -3.6885 -2.461 0 0 -4.176 -3.6885 -2.461 0 0 -4.2135 -3.6885 -2.461 0 0 -12.16972 -3.6885 0 -2.7455 -2.8845 -3.5315 -2.7455 -3.473 -3.6185 0 -3.6085 0 -4.176 0 -3.9685 0 -4.6525 -1.756 -3.074 -4.2135 -3.5005 -1.7695 -2.5645 -3.6135 -3.6885 -5.1415 -1.934 -4.278 0 
-6.7165 -5.9445 -6.3895 -6.071001 -8.219 -8.1695 -4.957 -4.19 -5.775 -7.601501 -3.13 0 -3.9685 -5.971 -7.005 -2.5645 0 -4.6525 -6.8435 -6.612 -2.461 0 -4.176 -6.0975 -6.612 -2.461 0 -4.2135 -6.1705 -6.612 -2.461 0 -12.16972 -15.85822 -3.6885 -2.7455 -7.045 -4.909 -7.3125 -7.114501 -7.9765 -3.6185 -3.6085 -3.6085 -4.176 -4.176 -3.9685 -3.9685 -4.6525 -6.37 -4.566 -7.9095 -8.2925 -6.54 -4.707 -6.4455 -7.982 -8.676001 -6.756501 -6.2645 -4.278 
-10.9831 -8.309 -10.609 -10.9171 -13.8501 -8.1695 -9.978001 -5.775 -10.044 -7.601501 -3.13 -3.9685 -5.971 -8.639501 -7.005 -2.5645 -4.6525 -6.8435 -10.01 -6.612 -2.461 -4.176 -6.0975 -8.472 -6.612 -2.461 -4.2135 -6.1705 -9.1005 -6.612 -2.461 -12.16972 -15.85822 -15.85822 -6.635 -7.045 -10.523 -10.223 -12.4025 -12.3896 -7.9765 -8.486 -3.6085 -5.8505 -4.176 -6.0675 -3.9685 -7.2585 -6.37 -9.4005 -9.208 -12.2009 -11.6076 -10.4035 -9.2165 -11.4622 -13.6249 -9.946 -11.6474 -6.2645 
-13.3476 -12.8383 -15.4551 -16.5482 -13.8501 -13.7727 -11.6614 -10.044 -10.044 -7.601501 -7.45 -5.971 -8.639501 -8.639501 -7.005 -7.442 -6.8435 -10.01 -10.01 -6.612 -6.759001 -6.0975 -8.472 -8.472 -6.612 -6.7515 -6.1705 -9.1005 -9.1005 -6.612 -14.89832 -15.85822 -15.85822 -18.80472 -11.4661 -10.523 -15.837 -15.4626 -17.6776 -12.3896 -13.559 -8.486 -5.8505 -5.8505 -6.0675 -6.0675 -7.2585 -8.512 -9.4005 -14.0819 -13.5178 -15.516 -15.4711 -14.913 -14.3364 -17.1051 -14.8949 -14.8241 -11.6474 
-17.8769 -17.6844 -21.0862 -16.5482 -19.4533 -15.4561 -15.9304 -10.044 -10.044 -12.2313 -9.7075 -8.639501 -8.639501 -8.639501 -12.1781 -9.885 -10.01 -10.01 -10.01 -9.3655 -8.652 -8.472 -8.472 -8.472 -10.1595 -9.0415 -9.1005 -9.1005 -9.1005 -19.48312 -18.58682 -15.85822 -18.80472 -23.63582 -14.9441 -15.837 -21.0766 -20.7377 -17.6776 -17.9721 -13.559 -11.0318 -5.8505 -6.609 -6.0675 -8.351001 -8.512 -11.9093 -14.0819 -18.3917 -16.8329 -19.3795 -19.9806 -20.0329 -19.9793 -18.3751 -19.773 -14.8241 
-4.5335 -3.681 -2.186 -4.7925 -1.7695 -2.8965 -4.2915 0 -4.19 -3.6885 -3.13 0 0 -3.9685 -2.5645 0 0 -8.653001 -2.461 0 0 -4.176 -2.461 0 0 -4.034 -2.461 0 0 -6.3755 -2.341 0 0 0 -3.9345 -1.7695 -1.4985 -3.158 -2.8845 -3.5315 0 -1.4985 -4.278 -2.8645 -3.1125 -3.793 -1.934 -2.5645 -4.2915 -1.934 -4.176 0 -3.6085 0 -3.9685 0 -8.653001 -1.756 -4.034 
-8.452001 -6.1045 -5.544001 -7.181 -4.497 -5.294 -4.2915 -4.19 -5.775 -7.601501 -3.13 0 -3.9685 -7.124001 -2.5645 0 -8.653001 -11.5126 -2.461 0 -4.176 -7.0235 -2.461 0 -4.034 -6.634001 -2.461 0 -6.3755 -9.404 -2.341 0 0 -3.9345 -3.94 -2.7955 -4.178 -5.403501 -4.909 -3.5315 -1.4985 -6.1565 -6.751 -3.5345 -5.5575 -4.752 -5.1975 -7.215 -5.985 -5.576 -4.176 -3.6085 -3.6085 -3.9685 -3.9685 -8.653001 -10.004 -5.7105 
-11.1685 -10.1425 -8.005001 -10.543 -7.112 -5.294 -6.466 -5.775 -10.044 -7.601501 -3.13 -3.9685 -7.124001 -7.124001 -2.5645 -8.653001 -11.5126 -11.5126 -2.461 -4.176 -7.0235 -7.0235 -2.461 -4.034 -6.634001 -6.634001 -2.461 -6.3755 -9.404 -9.404 -2.341 0 -3.9345 -3.94 -4.4455 -6.1225 -6.3145 -8.562 -4.909 -5.998 -6.1565 -8.6745 -8.2405 -5.995 -6.0695 -8.581 -7.725 -9.163501 -9.0755 -5.576 -6.088 -3.6085 -5.392 -3.9685 -10.523 -10.004 -14.0415 
-15.2065 -12.3607 -11.5066 -13.158 -7.112 -7.521501 -8.6495 -10.044 -10.044 -7.601501 -7.45 -7.124001 -7.124001 -7.124001 -11.4385 -11.5126 -11.5126 -11.5126 -6.759001 -7.0235 -7.0235 -7.0235 -6.889501 -6.634001 -6.634001 -6.634001 -9.608001 -9.404 -9.404 -9.404 -2.341 -3.9345 -3.94 -4.4455 -7.915 -8.441 -10.1895 -8.562 -8.768001 -10.9652 -8.6745 -9.8315 -10.7595 -6.4745 -9.724001 -9.555501 -9.814 -12.31 -9.0755 -7.4865 -6.088 -5.392 -5.392 -10.523 -11.874 -14.0415 
-17.4247 -15.8623 -14.1216 -13.158 -10.199 -9.6245 -13.3503 -10.044 -10.044 -12.2313 -10.1465 -7.124001 -7.124001 -16.48 -14.2981 -11.5126 -11.5126 -15.8106 -8.035501 -7.0235 -7.0235 -11.9202 -8.0485 -6.634001 -6.634001 -14.1114 -12.8291 -9.404 -9.404 -9.404 -6.647 -3.94 -4.4455 -7.915 -10.9731 -12.508 -10.1895 -12.2788 -13.7806 -13.4832 -9.8315 -12.3505 -11.239 -10.0125 -10.4445 -11.6081 -12.9605 -12.31 -10.6345 -7.4865 -7.128 -5.392 -13.2391 -11.874 -15.9115 
-3.45 -3.0695 -2.4945 -4.5335 -2.4945 -4.7925 -3.9225 -2.8965 -4.2915 0 -4.19 -3.13 0 0 -3.9685 -2.5645 0 0 -4.6525 -2.461 0 0 -4.176 -2.461 0 0 -4.034 -2.461 0 0 -4.6795 -2.341 0 0 -2.5045 -3.543 -3.5315 -2.8845 0 0 -3.9345 -1.7695 -1.4985 -4.537 -3.264 -1.7565 -1.4985 -3.602 0 -3.6085 0 -4.176 0 -3.9685 0 -4.6525 -1.756 -4.034 -2.674 -3.8445 -3.6135 -3.6885 -3.932 0 
-4.273 -4.2085 -7.2615 -7.075 -5.941501 -6.6195 -5.1825 -5.294 -4.2915 -4.19 -8.0595 -3.13 0 -3.9685 -7.124001 -2.5645 0 -4.6525 -7.4565 -2.461 0 -4.176 -7.0235 -2.461 0 -4.034 -6.634001 -2.461 0 -4.6795 -7.71 -2.341 0 -2.5045 -5.323 -8.599501 -4.6505 -2.8845 0 -3.9345 -3.94 -2.7955 -5.692 -5.3485 -3.6125 -2.4195 -5.410501 -3.602 -3.6085 -3.6085 -4.176 -4.176 -3.9685 -3.9685 -4.6525 -6.37 -5.7105 -6.900001 -6.2815 -7.0515 -7.982 -7.109 -3.932 
-5.167 -8.6485 -9.585501 -10.4035 -7.6 -8.698 -8.436001 -5.294 -6.466 -8.0595 -8.0595 -3.13 -3.9685 -7.124001 -7.124001 -2.5645 -4.6525 -7.4565 -7.4565 -2.461 -4.176 -7.0235 -7.0235 -2.461 -4.034 -6.634001 -6.634001 -2.461 -4.6795 -7.71 -7.71 -2.341 -2.5045 -5.323 -9.0015 -9.975 -4.6505 -2.8845 -3.9345 -3.94 -4.4455 -6.934501 -6.2605 -6.6665 -5.2985 -6.1385 -5.410501 -7.4495 -3.6085 -5.8505 -4.176 -6.0675 -3.9685 -7.2585 -6.37 -11.0825 -7.3225 -10.7783 -9.373501 -12.0894 -12.0579 -7.109 
-9.5605 -10.564 -12.954 -12.062 -9.9835 -11.8931 -8.436001 -7.521501 -10.543 -8.0595 -8.0595 -7.45 -7.124001 -7.124001 -7.124001 -7.442 -7.4565 -7.4565 -7.4565 -6.759001 -7.0235 -7.0235 -7.0235 -6.889501 -6.634001 -6.634001 -6.634001 -7.256001 -7.71 -7.71 -7.71 -5.5345 -5.323 -9.0015 -10.2385 -9.975 -4.6505 -6.495 -3.94 -4.4455 -8.718 -8.045501 -6.954 -6.979 -8.4825 -6.1385 -9.7845 -7.4495 -5.8505 -5.8505 -6.0675 -6.0675 -7.2585 -8.512 -11.0825 -12.6945 -11.2974 -13.8703 -14.5238 -16.1653 -12.0579 
-11.52 -13.9325 -14.6125 -14.4455 -13.253 -11.8931 -11.0129 -11.9187 -10.543 -8.0595 -9.747001 -10.1465 -7.124001 -7.124001 -9.816501 -9.124001 -7.4565 -7.4565 -10.071 -8.035501 -7.0235 -7.0235 -11.9202 -8.0485 -6.634001 -6.634001 -11.7594 -8.824 -7.71 -7.71 -11.2853 -7.902 -9.0015 -10.2385 -10.2385 -9.975 -8.4255 -6.4985 -4.4455 -8.718 -8.988501 -8.620501 -7.2195 -10.7672 -8.4825 -10.7003 -9.7845 -9.269501 -5.8505 -6.609 -6.0675 -8.351001 -8.512 -13.5913 -12.6945 -16.6694 -14.3894 -19.0206 -18.5997 -16.1653 
-3.6765 -1.8085 -2.8645 -1.8085 -5.0145 -1.7695 -3.013 -3.754 -2.7835 -1.756 -3.098 -2.7835 -1.8085 -2.8645 -2.847 -4.384 -2.6165 -1.7695 -3.013 -2.3335 -3.754 0 -2.0935 -3.668 0 -2.7835 -1.8085 -3.6765 -2.8645 -1.8085 -3.683 -4.631 -3.401 -1.7695 -3.046 -4.3285 0 -2.3335 -4.873 -3.757 -2.3335 -2.4265 -2.186 -2.6165 -5.01 -5.225 -2.0935 -3.277 -1.7695 -4.3845 -5.0655 0 -2.4265 -3.4405 -2.6165 -3.99 -2.3335 -3.9555 -2.8645 -1.7695 -3.0785 -4.1825 -2.985 -4.3285 0 -2.4285 -1.7695 -4.207 -1.7695 -2.985 -4.3285 
-5.779 -5.911 -3.9785 -6.0625 -6.0125 -3.7215 -5.048 -6.3335 -5.408 -4.806 -4.8875 -4.329 -5.911 -4.6285 -6.5035 -7.0865 -4.153 -3.7215 -4.7735 -5.588 -3.754 -2.0935 -3.995 -3.668 -2.7835 -4.329 -4.452 -5.5085 -3.9785 -5.136 -8.779 -8.239 -4.275 -5.247 -5.4795 -4.3285 -2.3335 -6.744 -7.5295 -4.6275 -3.913 -3.292 -3.5105 -6.351 -8.404 -7.199 -4.694 -4.261 -4.8485 -6.977 -5.0655 -2.4265 -4.5365 -3.7415 -5.351501 -5.0175 -5.620501 -5.7535 -4.4755 -3.9555 -7.091001 -6.929501 -6.966001 -4.3285 -2.4285 -4.3895 -4.9555 -4.523 -4.281 -6.966001 
-7.732501 -6.8675 -8.314501 -6.641 -7.7665 -5.3675 -7.404 -9.304001 -5.8355 -5.731 -6.414001 -7.7865 -7.514 -7.537 -9.4135 -7.360001 -5.7345 -5.1675 -8.279 -5.588 -5.4195 -3.995 -3.995 -5.048 -4.329 -5.909 -6.164001 -6.467 -7.0055 -10.025 -12.6596 -8.8225 -6.6195 -6.6755 -5.4795 -6.3365 -6.744 -8.8325 -7.8185 -6.0565 -4.5215 -4.443 -6.7475 -10.041 -9.959001 -9.0555 -5.32 -7.2085 -7.335001 -6.977 -7.5375 -4.5365 -4.8645 -5.444 -5.7015 -7.8415 -7.26 -7.6215 -7.465 -7.6765 -9.349001 -11.4339 -6.966001 -6.2875 -4.3895 -7.301001 -5.213 -6.504 -8.551001 
-8.613001 -10.5635 -8.543501 -8.623 -9.630501 -7.783501 -10.0675 -9.735001 -5.861 -7.2345 -9.083 -8.857 -10.1855 -9.948 -9.495501 -9.206 -7.160501 -8.611001 -8.279 -8.503 -7.5915 -3.995 -5.087 -6.0165 -5.909 -6.9005 -7.042 -8.632 -12.5897 -14.0444 -13.2431 -11.4398 -6.867001 -6.6755 -7.671 -9.514501 -8.8325 -9.099 -9.225 -6.517 -5.5735 -7.968 -10.426 -11.596 -10.762 -9.2705 -8.159 -9.150001 -7.335001 -9.179001 -9.285501 -4.8645 -6.4845 -5.7445 -8.6005 -9.295501 -8.4455 -10.092 -11.3882 -9.523001 -13.977 -11.4339 -8.5585 -8.436001 -7.301001 -7.356501 -7.002501 -9.6595 
-12.7704 -10.7755 -11.3995 -10.085 -12.1511 -10.286 -10.5 -9.744 -7.273 -9.177 -9.9835 -11.8259 -10.6955 -9.9525 -10.4055 -10.7335 -10.597 -8.611001 -10.007 -9.795 -7.5915 -5.087 -6.0465 -7.59 -6.9005 -7.636 -9.432 -14.7846 -16.6091 -14.6279 -15.8604 -11.6873 -6.867001 -8.648001 -11.2476 -11.7668 -9.099 -9.9515 -9.5795 -7.3265 -8.954 -11.6733 -11.981 -12.399 -10.784 -12.1949 -10.2535 -9.150001 -9.384501 -10.5755 -9.379001 -6.4845 -6.8015 -8.6695 -9.671 -9.7475 -10.7175 -14.2808 -13.2347 -14.1698 -13.977 -13.0264 -10.4185 -11.5203 -7.356501 -9.675501 -10.159 
