-4.759 
n/a 
n/a 
n/a 
n/a 
-4.759 
n/a 
n/a 
n/a 
n/a 
-4.759 
n/a 
n/a 
n/a 
n/a 
-4.759 
n/a 
n/a 
n/a 
n/a 
-2.4265 -2.8645 -2.5685 -4.415 -3.115 -4.2995 0 -2.915 -3.433 0 -3.8935 -1.7565 -3.6135 -3.681 0 -4.0215 
-4.1435 -5.509501 -5.2035 -7.617001 -7.8355 -4.2995 -2.915 -4.682 -3.433 -3.8935 -4.8605 -5.479 -6.318501 -3.681 -4.0215 
-6.419 -10.0575 -9.625 -12.5115 -7.8355 -7.8905 -4.682 -4.682 -7.1335 -4.8605 -8.603001 -7.9115 -6.318501 -9.251 
-11.3262 -15.031 -14.8647 -12.5115 -11.8185 -9.2115 -4.682 -8.7495 -8.648001 -8.603001 -11.3627 -7.9115 -12.3041 
-16.2997 -20.2707 -14.8647 -16.4945 -13.1395 -9.2115 -8.7495 -10.2185 -12.5277 -11.3627 -11.3627 -14.1863 
-2.4265 -4.0935 -3.3715 -4.651 -3.115 -4.2845 0 -2.915 -3.433 0 -4.318 -4.2745 -3.8935 0 -7.9255 
-5.351 -6.2475 -6.861501 -7.1525 -7.835001 -4.2845 -2.915 -4.682 -3.433 -4.318 -7.158 -7.413501 -3.8935 -7.9255 
-7.258501 -10.553 -9.414501 -10.4765 -7.835001 -7.9785 -4.682 -4.682 -7.821 -7.158 -11.2784 -7.413501 -12.8096 
-11.7758 -13.5656 -12.7955 -10.4765 -11.9756 -10.5225 -4.682 -9.415001 -11.2118 -11.2784 -11.2784 -16.7146 
-14.7884 -16.9466 -12.7955 -14.9569 -14.5196 -10.5225 -9.415001 -13.3956 -15.3322 -11.2784 -20.5795 
-2.4265 -2.8645 -3.0415 -3.3715 -3.9035 -3.115 -2.4265 0 -3.331 -4.3845 -1.756 -3.6485 
-4.1435 -5.7805 -4.5985 -5.995 -6.951 -4.63 -2.4265 -3.331 -7.5225 -5.4845 -5.1315 
-6.857501 -6.4865 -7.6385 -9.244 -9.5105 -4.63 -6.2285 -7.5225 -8.443501 -9.874001 
-7.317501 -9.472 -10.586 -11.9337 -9.5105 -9.138 -11.278 -8.443501 -13.3502 
-10.1025 -12.7613 -13.2757 -11.9337 -14.3593 -14.2751 -12.199 -13.3502 
-3.0365 -2.4945 -3.845 -1.7565 -4.3035 -3.115 -5.508 -4.0045 0 -3.6485 0 -3.912 0 -5.693 -4.3035 -1.934 -1.4985 -3.2875 
-3.688 -7.126501 -4.13 -5.95 -6.9565 -8.611 -7.724501 -4.0045 -3.6485 -3.6485 -3.912 -3.912 -5.693 -8.8505 -5.9305 -2.6125 -4.127 
-7.196001 -7.285501 -8.31 -8.484 -13.0037 -10.2435 -7.724501 -7.893001 -3.6485 -8.177501 -3.912 -10.841 -8.8505 -10.703 -6.501 -4.9865 
-7.3075 -11.7119 -10.1685 -14.6374 -14.6362 -10.2435 -12.0204 -7.893001 -8.177501 -8.177501 -10.841 -13.9985 -10.703 -11.2735 -8.434 
-11.7481 -13.5704 -16.4545 -16.2699 -14.6362 -15.249 -12.0204 -12.9502 -8.177501 -15.8125 -13.9985 -15.851 -11.2735 -13.2065 
