-4.759 
n/a 
n/a 
n/a 
n/a 
-4.759 
n/a 
n/a 
n/a 
n/a 
-4.759 
n/a 
n/a 
n/a 
n/a 
-4.759 
n/a 
n/a 
n/a 
n/a 
-3.345 -3.4185 -4.508 -2.664 -5.1495 -3.4425 -1.756 -2.4265 -2.229 -3.1385 0 
-5.6165 -7.823 -5.747001 -6.6775 -7.239501 -4.9015 -3.949 -3.3415 -5.7405 -3.1385 
-8.714001 -9.4245 -10.0715 -8.882 -8.984 -6.869 -4.6695 -6.727 -5.7405 
-10.1185 -13.798 -12.6544 -10.647 -11.0943 -7.6335 -7.594 -6.727 
-14.492 -16.3809 -14.4194 -12.7573 -11.8588 -9.6355 -7.594 
-3.6055 -3.4185 -1.7565 -4.2085 -4.698 -4.9395 -1.7695 -2.871 -4.219 -4.688 -1.756 -2.925 -4.42 -3.1385 -1.7565 -2.3335 -4.688 
-6.059501 -4.2475 -5.6585 -7.364501 -9.679001 -5.127501 -4.5615 -7.3275 -8.828001 -6.306 -4.2585 -5.818501 -7.278 -4.861 -4.314 -7.455501 
-6.2545 -8.052501 -8.9265 -12.6777 -9.756001 -6.964 -9.419001 -12.4451 -10.4855 -8.7685 -7.4715 -8.823 -8.745501 -7.0795 -8.755501 
-10.8247 -9.274 -14.2791 -12.7547 -11.6609 -12.3943 -14.614 -14.1026 -12.948 -12.0645 -10.411 -10.164 -11.4322 -10.5425 
-12.0462 -14.6916 -14.3561 -14.6596 -17.0912 -17.5893 -16.2715 -16.5651 -16.244 -15.004 -11.752 -12.9335 -14.8952 
-3.6055 -3.499 -2.186 -2.0935 -3.691 -4.219 0 -4.9225 
-8.4245 -6.068501 -4.4495 -5.940001 -8.209001 -4.219 -4.9225 
-10.622 -8.7845 -8.665001 -11.0668 -8.209001 -10.3415 
-13.338 -13.1754 -14.0056 -11.0668 -14.8739 
-17.7289 -18.516 -14.0056 -17.7317 
-3.6055 -3.4185 -4.3375 -2.0935 -2.871 -4.219 -3.5015 -1.756 -2.3335 -3.1385 -1.934 -3.691 0 
-6.059501 -8.095 -6.264 -4.604 -7.3275 -9.051001 -5.087 -4.016 -4.9375 -4.522 -4.8225 -3.691 
-10.533 -9.818501 -8.248 -8.765 -12.6681 -10.368 -6.757 -6.756001 -6.512 -7.262001 -4.8225 
-12.2565 -11.8809 -13.2948 -14.3602 -13.9851 -12.038 -9.255501 -8.321 -9.169001 -7.262001 
-14.3189 -16.9277 -18.89 -15.6772 -15.6551 -14.5365 -10.9087 -11.1036 -9.169001 
