-4.759 
n/a 
n/a 
n/a 
n/a 
-4.759 
n/a 
n/a 
n/a 
n/a 
-4.759 
n/a 
n/a 
n/a 
n/a 
-4.759 
n/a 
n/a 
n/a 
n/a 
-9.785501 -8.4715 0 -9.371 0 -7.115 0 -9.137501 0 -10.613 -9.8955 -2.4945 -1.4985 -3.699 -4.057 -4.535 0 
-18.5076 -8.4715 -9.371 -9.371 -7.115 -7.115 -9.137501 -9.137501 -10.613 -20.6633 -12.6122 -3.9315 -5.264 -8.6785 -7.659 -4.535 
-18.5076 -10.884 -9.371 -16.6698 -7.115 -10.7025 -9.137501 -20.0121 -20.6633 -23.38 -14.0492 -7.0825 -10.0745 -10.328 -7.659 
-20.9201 -10.884 -16.6698 -16.6698 -10.7025 -10.7025 -20.0121 -30.0624 -23.38 -24.817 -17.2002 -12.19 -11.8386 -10.328 
-20.9201 -18.1828 -16.6698 -20.2573 -10.7025 -21.5771 -30.0624 -32.7791 -24.817 -27.968 -22.3077 -13.9541 -11.8386 
-8.4305 -8.4715 0 -9.371 0 -7.115 0 -9.137501 -1.756 -8.734501 -9.8955 -2.4945 -1.4985 -3.699 -6.5755 -4.218 -3.147 0 
-11.046 -8.4715 -9.371 -9.371 -7.115 -7.115 -9.137501 -10.958 -10.784 -19.4436 -12.6122 -3.9315 -5.264 -10.459 -11.7557 -8.056001 -3.147 
-11.046 -10.884 -9.371 -16.6698 -7.115 -10.7025 -10.958 -19.986 -21.4931 -22.1603 -14.0492 -7.0825 -12.563 -15.6392 -15.5937 -8.056001 
-13.4585 -10.884 -16.6698 -16.6698 -10.7025 -12.523 -19.986 -30.6951 -24.2098 -23.5973 -17.2002 -14.6785 -17.7432 -19.4772 -15.5937 
-13.4585 -18.1828 -16.6698 -20.2573 -12.523 -21.551 -30.6951 -33.4118 -25.6468 -26.7483 -24.7962 -19.8587 -21.5812 -19.4772 
-6.2665 -8.4715 0 -8.613001 0 -7.115 -1.756 -9.137501 -2.688 -4.2085 -2.4945 -3.793 -1.934 -5.3885 0 
-9.027 -8.4715 -8.613001 -8.613001 -7.115 -8.9575 -10.4765 -12.0871 -5.45 -6.726501 -5.722 -4.752 -6.4035 -5.3885 
-9.027 -10.1635 -8.613001 -10.586 -8.9575 -18.0138 -13.4261 -14.8491 -8.482 -10.3008 -6.394001 -9.3585 -6.4035 
-10.5135 -10.1635 -10.586 -12.8929 -18.0138 -20.9634 -16.1881 -17.8811 -12.1715 -10.9728 -11.6289 -9.3585 
-10.5135 -10.681 -12.8929 -21.9492 -20.9634 -23.7254 -19.2201 -21.5706 -12.8435 -16.2077 -11.6289 
-8.254001 -9.893001 0 -9.371 0 -12.16972 0 -9.137501 0 -9.352 -9.8955 -2.4945 -1.4985 -4.057 -4.379 
-18.8426 -9.893001 -9.371 -9.371 -12.16972 -12.16972 -9.137501 -9.137501 -9.352 -19.6549 -12.6122 -3.9315 -5.4375 -8.1785 
-18.8426 -19.7002 -9.371 -21.72452 -12.16972 -21.30722 -9.137501 -18.7511 -19.6549 -22.3716 -14.0492 -8.186501 -9.320001 
-28.6498 -19.7002 -21.72452 -21.72452 -21.30722 -21.30722 -18.7511 -29.054 -22.3716 -23.8086 -18.3042 -12.312 
-28.6498 -32.05372 -21.72452 -30.86202 -21.30722 -30.92082 -29.054 -31.7707 -23.8086 -28.0636 -22.4297 
