-4.759 
n/a 
n/a 
n/a 
n/a 
-4.759 
n/a 
n/a 
n/a 
n/a 
-4.759 
n/a 
n/a 
n/a 
n/a 
-4.759 
n/a 
n/a 
n/a 
n/a 
-4.3285 -4.377 -4.393 -4.4245 -4.447 -4.468 -4.5065 -4.5255 -4.539 -4.4675 
-5.469501 -5.4775 -5.48 -5.4835 -5.4895 -5.493501 -5.4985 -5.501 -5.5325 
-5.481 -5.4845 -5.487 -5.493 -5.4965 -5.501 -5.5045 -5.535501 
-5.485 -5.489 -5.4935 -5.4965 -5.5015 -5.5045 -5.537 
-5.489501 -5.495501 -5.497 -5.5015 -5.505 -5.5365 
-4.3285 0 -4.377 0 -4.393 0 -4.4245 0 -4.447 0 -4.468 0 -4.5065 0 -4.5255 0 -4.539 -4.4675 
-4.3285 -4.377 -4.377 -4.393 -4.393 -4.4245 -4.4245 -4.447 -4.447 -4.468 -4.468 -4.5065 -4.5065 -4.5255 -4.5255 -4.539 -5.5325 
-5.469501 -4.377 -5.4775 -4.393 -5.48 -4.4245 -5.4835 -4.447 -5.4895 -4.468 -5.493501 -4.5065 -5.4985 -4.5255 -5.501 -5.5325 
-5.469501 -5.4775 -5.4775 -5.48 -5.48 -5.4835 -5.4835 -5.4895 -5.4895 -5.493501 -5.493501 -5.4985 -5.4985 -5.501 -5.535501 
-5.481 -5.4775 -5.4845 -5.48 -5.487 -5.4835 -5.493 -5.4895 -5.4965 -5.493501 -5.501 -5.4985 -5.5045 -5.535501 
-44.4765 
n/a 
n/a 
n/a 
n/a 
-44.4765 
n/a 
n/a 
n/a 
n/a 
