-4.759 
n/a 
n/a 
n/a 
n/a 
-4.759 
n/a 
n/a 
n/a 
n/a 
-4.759 
n/a 
n/a 
n/a 
n/a 
-4.759 
n/a 
n/a 
n/a 
n/a 
-3.5715 -3.281 -3.599 -4.891 -5.198 -1.4985 -6.943 -3.9815 0 -3.106 -6.899 -4.9785 -3.1385 -3.152 -4.874 
-5.5495 -7.5985 -9.017501 -9.0485 -6.178501 -8.0565 -9.59 -3.9815 -3.106 -11.046 -12.8879 -9.01 -5.219 -6.21 
-9.958501 -13.4662 -13.41 -9.668 -13.0973 -10.1265 -9.59 -7.7915 -11.046 -17.0349 -16.9194 -11.4673 -6.9205 
-16.2154 -17.8587 -14.0295 -16.5868 -15.1673 -10.1265 -13.4548 -16.0007 -17.0349 -21.0664 -19.3767 -13.1688 
-20.6079 -18.4782 -20.9483 -18.6568 -15.1673 -13.9913 -21.664 -21.9896 -21.0664 -23.5237 -21.0782 
-3.5715 -3.281 0 -1.934 -1.4985 -4.299 -1.7565 -3.599 -4.891 -2.264 -6.943 -3.9815 -1.934 -4.628 -4.743 -3.106 -4.628 -5.939 -4.5605 -4.744 -4.874 0 
-5.5495 -3.281 -1.934 -2.6125 -5.463 -5.794001 -5.282 -9.017501 -7.231501 -9.488501 -9.59 -6.0705 -5.9605 -4.7515 -8.101 -8.264501 -5.9615 -8.1755 -8.4565 -7.891001 -4.874 
-5.5495 -5.919 -2.6125 -6.615 -6.818501 -9.8505 -10.609 -11.593 -15.254 -12.2053 -10.735 -9.6785 -5.9845 -8.132501 -10.4945 -9.6665 -8.196 -12.4523 -12.0679 -7.891001 
-8.387 -6.7585 -6.615 -8.3535 -10.8872 -15.4291 -13.1845 -19.6155 -17.9708 -13.3503 -14.343 -9.693501 -9.3585 -10.494 -12.9603 -12.0042 -12.4822 -16.0637 -12.0679 
-8.7945 -10.9722 -8.3535 -12.5264 -16.4658 -18.0046 -21.207 -22.3323 -19.1158 -16.9583 -14.358 -13.1707 -11.8482 -12.9586 -15.298 -16.2904 -16.0936 -16.0637 
-3.5715 -9.637501 -5.198 -12.16972 -5.072 -2.5045 -2.3335 -2.95 -3.106 -6.899 -8.516001 -3.1385 -5.228 
-12.866 -14.4005 -18.33192 -17.24172 -7.2715 -4.744 -4.8245 -6.4125 -11.046 -16.4254 -12.4593 -7.747 
-17.8094 -27.61842 -23.40392 -19.44122 -9.779 -5.158 -8.4895 -14.9729 -20.5724 -20.3687 -17.0678 
-31.02732 -32.69042 -25.60342 -21.94872 -9.989 -8.668 -17.3199 -24.4993 -24.5157 -24.9772 
-36.09932 -34.88992 -28.11092 -22.15872 -13.5346 -17.5922 -26.8463 -28.4426 -29.1242 
-14.586 -9.216001 -3.43 -2.664 -4.299 -2.264 -12.16972 -5.072 -1.934 -2.3335 -6.899 -4.5605 -4.099 -2.3335 -3.106 -3.1385 -7.8255 
-25.243 -12.8662 -5.286 -5.6315 -5.322001 -15.46572 -17.24172 -6.961 -4.359 -9.533501 -10.013 -8.642 -5.113 -6.58 -6.495501 -9.874001 
-28.8932 -14.7222 -8.068 -6.1585 -19.08812 -20.53772 -19.13072 -9.801001 -12.1514 -12.6337 -14.2527 -9.189 -8.5725 -8.896 -13.856 
-30.7492 -17.5042 -8.4275 -20.33402 -24.16012 -22.42672 -21.97072 -17.6616 -15.2516 -16.8734 -14.7997 -12.8171 -10.1265 -16.7699 
-33.5312 -17.8637 -22.80642 -25.40602 -26.04912 -25.26672 -29.83132 -20.7618 -19.4913 -17.4204 -18.4278 -14.3711 -18.1586 
