-4.759 
n/a 
n/a 
n/a 
n/a 
-4.759 
n/a 
n/a 
n/a 
n/a 
-4.759 
n/a 
n/a 
n/a 
n/a 
-4.759 
n/a 
n/a 
n/a 
n/a 
-2.4265 -2.186 -4.197 -4.4385 0 -2.674 -4.07 -4.4695 -6.7225 -1.4985 -5.116 0 
-3.292 -6.9785 -7.211 -4.4385 -2.674 -7.5725 -7.9565 -10.016 -7.486001 -5.823501 -5.116 
-8.215 -9.887501 -7.211 -7.778501 -7.5725 -11.81 -13.7554 -10.679 -12.381 -5.823501 
-11.3922 -9.887501 -10.5635 -12.9756 -11.81 -17.6089 -14.4184 -15.574 -12.381 
-11.3922 -13.4092 -15.7606 -17.2131 -17.6089 -18.2719 -19.3134 -15.574 
-2.4265 -2.186 -1.8085 -5.9675 -3.729 -3.402 -2.264 -1.8085 -4.197 -4.1375 -1.756 -2.4265 -2.8645 -1.8085 -4.6825 -4.877 -4.8135 -1.756 -1.8085 -3.6135 -5.16 
-3.292 -3.164 -6.9425 -9.1475 -7.4415 -3.793 -3.5925 -5.7225 -8.1845 -5.580501 -3.949 -4.1435 -3.9785 -6.769 -8.007 -8.7335 -6.211501 -3.584 -4.4545 -8.0875 
-4.4005 -8.178 -9.715 -13.0846 -7.649 -4.921 -7.2635 -9.232 -10.3475 -7.54 -5.4395 -5.1925 -9.967 -10.6215 -10.181 -9.9895 -7.6875 -6.1755 -8.992001 
-9.244 -10.4265 -13.7645 -13.2921 -8.8275 -8.7515 -10.609 -11.7308 -12.5038 -9.1035 -6.4135 -11.4144 -14.1189 -12.7955 -11.8122 -11.4655 -10.1465 -10.553 
-11.5419 -14.476 -13.972 -14.4706 -12.7754 -12.3794 -13.1078 -13.8871 -14.0673 -9.661 -12.8062 -15.5663 -16.2929 -14.4267 -13.2882 -13.9245 -14.524 
-2.3615 -3.251 -1.8085 -4.4695 -4.877 -4.8135 -3.6135 -4.197 -4.1485 0 
-6.0015 -4.1695 -5.746 -7.9835 -8.7335 -8.9245 -7.254 -8.191 -4.1485 
-7.219 -8.574 -8.911501 -12.0382 -13.0359 -12.7456 -10.504 -8.191 
-12.0245 -12.1587 -13.0392 -16.3406 -16.857 -15.9956 -10.504 
-15.6092 -16.2864 -17.3416 -20.1617 -20.107 -15.9956 
-2.3615 -3.729 -2.186 -4.06 -2.264 -1.4985 -4.197 -5.922 -4.1375 -1.756 -2.8645 -4.221 -4.877 0 -4.74 -4.877 -4.8135 0 -3.6135 -5.618 -5.268 
-6.068501 -5.6265 -4.672 -4.9805 -2.9195 -5.478001 -10.19 -9.118 -5.580501 -4.3855 -7.1365 -9.97 -4.877 -4.74 -8.571 -8.7335 -4.8135 -3.6135 -9.881001 -11.9948 
-6.9685 -6.9965 -5.5595 -5.2405 -6.455 -12.0834 -13.386 -10.4115 -7.829 -8.4945 -13.2217 -9.97 -7.351001 -8.571 -12.5415 -8.7335 -8.9245 -9.881001 -16.4224 
-8.351001 -7.695 -5.791 -8.468 -13.381 -15.2794 -14.6795 -13.0936 -12.2842 -14.7871 -13.2217 -12.444 -11.6598 -12.5415 -12.5415 -13.0359 -15.3726 -16.4224 
-9.026 -7.974 -9.215 -15.9012 -16.577 -16.5729 -17.3616 -17.5488 -18.5768 -14.7871 -15.6957 -16.7528 -15.6303 -12.5415 -16.8439 -19.484 -21.914 
