-4.759 
n/a 
n/a 
n/a 
n/a 
-4.759 
n/a 
n/a 
n/a 
n/a 
-4.759 
n/a 
n/a 
n/a 
n/a 
-4.759 
n/a 
n/a 
n/a 
n/a 
-3.4975 -3.59 -2.229 -4.603 -2.7415 -1.4985 -4.8935 -4.8255 -2.9705 -1.4985 -3.4975 -2.8195 -4.373 -3.251 0 
-6.428 -4.966 -6.837 -7.6125 -4.063 -6.074 -11.4536 -7.1305 -4.186 -4.3125 -6.3735 -6.8695 -7.258 -3.251 
-8.056 -10.715 -9.592501 -8.833 -9.185501 -12.9689 -13.7586 -9.252501 -7.381001 -7.539001 -11.3055 -9.044001 -7.258 
-14.1326 -13.4705 -10.69 -14.1945 -16.0706 -15.2739 -15.8806 -12.5265 -10.7763 -12.7768 -13.48 -9.044001 
-16.8881 -14.568 -16.0515 -21.0796 -18.3756 -17.3959 -19.1546 -15.9218 -16.0141 -14.9513 -13.48 
-3.676 -4.101 -3.307 -2.186 -1.934 -1.4985 -3.4975 -3.38 -4.603 -4.494 -3.877 
-8.4755 -8.8015 -5.2055 -4.0835 -2.6125 -4.3125 -6.0965 -8.316 -10.575 -10.0785 
-13.7448 -11.0094 -7.2875 -4.6915 -5.731 -7.373 -12.3007 -14.8034 -16.1595 
-15.9527 -13.0914 -7.758 -8.351501 -9.203501 -14.1672 -18.7881 -20.3879 
-18.0347 -13.5619 -11.8458 -11.9592 -16.0423 -20.6546 -24.3726 
-3.676 -2.229 -3.4075 -4.603 -4.1535 -3.877 -1.7565 -3.676 -2.229 -2.8195 -3.6215 
-4.593 -5.1175 -6.884001 -9.6845 -8.476 -5.5085 -4.4345 -4.593 -4.952 -6.285 
-6.868 -8.300501 -13.1419 -14.3448 -10.2385 -8.327001 -5.472 -7.5105 -8.249001 
-10.9236 -15.6818 -17.8022 -16.1073 -13.1346 -9.92 -8.672501 -11.8511 
-18.3049 -20.3421 -19.5647 -19.0034 -14.7276 -13.3135 -13.2765 
-3.4075 -4.603 
-6.884001 
n/a 
n/a 
n/a 
