-4.759 
n/a 
n/a 
n/a 
n/a 
-4.759 
n/a 
n/a 
n/a 
n/a 
-4.759 
n/a 
n/a 
n/a 
n/a 
-4.759 
n/a 
n/a 
n/a 
n/a 
-2.925 -2.4945 -3.564 -5.468 -4.311 -3.1385 
-3.7675 -6.5105 -9.818501 -10.932 -8.75 
-7.8125 -13.1062 -15.6789 -15.371 
-14.6586 -18.9666 -20.1179 
-20.519 -23.4056 
-3.1495 -3.1385 -2.4945 -1.4985 -4.056 -4.061 -1.7565 -1.4985 -3.564 -4.0395 -1.7565 -4.088 0 
-5.148 -4.588 -3.9315 -5.587501 -9.142 -5.436501 -2.4195 -4.7165 -6.395 -4.862 -5.0835 -4.088 
-5.9035 -6.473001 -8.359 -10.1225 -10.6739 -6.704 -5.5125 -7.063001 -7.232 -9.226001 -5.0835 
-7.462 -11.4791 -13.0946 -11.6544 -11.9414 -10.089 -7.936 -7.4205 -9.889 -9.226001 
-12.5775 -16.2147 -14.6265 -12.9219 -15.3264 -12.6363 -8.548 -10.1185 -9.889 
-2.925 -2.882 -2.489 -3.849 -2.5045 -4.088 -4.1005 -3.299 -3.391 -3.1385 0 
-4.7805 -3.631 -5.125 -6.305 -6.851001 -8.3055 -7.979 -6.241 -6.6855 -3.1385 
-5.384 -6.183 -6.962501 -10.7551 -11.7913 -12.4648 -11.2862 -8.729501 -6.6855 
-7.515 -7.831 -11.8196 -15.6954 -15.9506 -15.772 -13.7747 -8.729501 
-8.4855 -13.1435 -16.7599 -19.8547 -19.2578 -18.2605 -13.7747 
-2.925 -2.4945 -4.285 -3.391 -1.7565 -4.065 -3.564 -4.0395 0 
-3.7675 -7.35 -6.296 -4.8365 -5.305501 -7.397 -6.395 -4.0395 
-8.759501 -8.684 -8.1835 -9.081 -8.410501 -10.075 -6.395 
-9.604 -10.8045 -10.7175 -12.0402 -11.2959 -10.075 
-11.7687 -13.3385 -14.5075 -14.9256 -11.2959 
