-4.759 
n/a 
n/a 
n/a 
n/a 
-4.759 
n/a 
n/a 
n/a 
n/a 
-4.759 
n/a 
n/a 
n/a 
n/a 
-4.759 
n/a 
n/a 
n/a 
n/a 
-4.1865 -4.7535 -6.3355 -3.7515 -4.9225 -2.9645 -1.7695 -3.135 -1.7565 -3.564 -3.473 0 
-8.63 -10.6735 -9.0765 -9.259501 -8.3035 -4.905 -4.779 -3.9195 -4.801 -5.2385 -3.473 
-16.1468 -13.4145 -15.2355 -12.9275 -9.8785 -7.9775 -5.4995 -8.9905 -7.0715 -5.2385 
-18.8878 -19.5735 -18.9035 -14.5025 -12.951 -8.701 -10.4505 -11.5426 -7.0715 
-25.0468 -23.2415 -20.4785 -17.575 -13.6745 -14.2776 -13.0026 -11.5426 
-3.2295 -3.304 -6.3355 -1.7565 -3.1385 -2.5685 -3.2295 -1.4985 -3.188 0 -2.186 -3.3425 -2.9995 -3.564 -3.5025 -3.1335 0 
-5.2475 -8.103001 -7.5905 -4.388 -5.7075 -4.661 -3.844 -3.619 -3.188 -2.186 -5.2235 -5.661 -6.6305 -7.741 -5.3935 -3.1335 
-10.575 -10.061 -9.077001 -6.8715 -6.3325 -4.894 -5.1895 -3.619 -5.1175 -5.2235 -8.1355 -8.8715 -11.2069 -10.264 -5.3935 
-12.533 -11.5475 -11.6195 -7.202001 -6.381 -5.231 -5.1895 -5.318 -8.210001 -8.1355 -11.5606 -14.2461 -13.7299 -10.264 
-14.0195 -14.09 -11.95 -7.2285 -6.488 -5.231 -7.4935 -8.394501 -11.1496 -11.5606 -16.9352 -16.7691 -13.7299 
-2.645 -3.1575 -3.304 -6.3355 -1.934 -1.4985 -3.188 -4.9225 -3.152 -1.934 -2.9995 -2.871 -1.7565 -1.4985 -3.564 -3.473 
-3.72 -5.193501 -8.103001 -7.3805 -2.6125 -3.619 -7.095 -7.4025 -4.9115 -4.2175 -5.056 -3.5385 -2.4195 -4.7165 -5.2385 
-5.369 -10.186 -9.3015 -8.061501 -4.377 -7.537001 -10.304 -9.202001 -7.4095 -6.092501 -5.627 -3.7675 -5.5125 -6.29 
-10.3815 -11.3845 -9.8795 -10.4428 -9.869501 -11.3522 -12.1035 -11.748 -9.722501 -6.724 -6.03 -7.6 -6.7155 
-11.58 -11.9625 -12.2608 -15.9353 -13.7501 -13.1517 -14.6495 -14.061 -9.932 -7.12 -9.732 -9.331 
-3.304 -6.3355 -3.664 -3.3425 -1.934 -1.4985 -3.5025 
-8.103001 -10.9657 -6.5105 -6.1265 -2.6125 -4.16 
-12.8868 -13.8122 -9.951 -6.844501 -5.7555 
-15.7333 -17.2527 -10.7432 -10.396 
-19.1738 -18.0449 -14.2947 
