-4.759 
n/a 
n/a 
n/a 
n/a 
-4.759 
n/a 
n/a 
n/a 
n/a 
-4.759 
n/a 
n/a 
n/a 
n/a 
-4.759 
n/a 
n/a 
n/a 
n/a 
-3.1435 -4.352 -3.519 -3.8935 -2.186 -2.6615 0 -1.7565 -4.9825 
-7.2945 -5.912 -6.5625 -5.754 -5.392 -2.6615 -1.7565 -5.5665 
-8.3575 -8.3865 -8.208 -8.918501 -5.392 -4.7915 -5.5665 
-11.2436 -10.2085 -11.4671 -8.918501 -7.4065 -7.755501 
-13.0656 -13.4676 -11.4671 -10.647 -9.7155 
-4.1985 -3.638 -2.186 -3.8935 -3.355 -1.7565 -4.9825 -1.934 -2.6615 0 -1.7565 -2.4265 0 
-6.433001 -5.627 -7.2395 -7.4675 -3.725 -5.5665 -6.2685 -5.1955 -2.6615 -1.7565 -4.305 -2.4265 
-8.138 -11.3135 -11.2725 -8.3295 -8.543 -6.5365 -9.329 -5.1955 -4.7915 -4.305 -4.305 
-14.0803 -15.3465 -12.1345 -13.2291 -9.662001 -9.536501 -9.329 -6.9425 -8.003 -4.305 
-18.1133 -16.2085 -17.0341 -14.3481 -12.8458 -9.536501 -11.6464 -10.1635 -8.003 
-2.0935 -4.9825 -3.355 -1.7565 -3.8935 -1.7565 -4.352 -3.638 -2.186 -2.925 -1.7695 -2.6615 0 0 
-7.282001 -9.211 -3.725 -5.327 -4.8605 -5.5105 -6.196 -5.627 -5.1085 -3.71 -4.739 -2.6615 0 
-11.9863 -9.5465 -7.986501 -6.721 -7.942501 -6.982501 -7.682 -8.5015 -5.457 -5.3855 -4.739 -2.6615 
-12.3218 -14.245 -9.753501 -9.894 -8.4705 -8.580501 -10.9521 -9.3255 -7.8105 -5.3855 -4.739 
-17.0203 -16.012 -12.9233 -10.2575 -10.1675 -11.8862 -11.7761 -11.7278 -7.8105 -5.3855 
-2.3335 -4.614 -3.519 -2.5045 -4.9825 -2.6615 0 
-7.042001 -7.3225 -6.059 -8.344001 -7.912 -2.6615 
-10.228 -10.1225 -12.5183 -11.6519 -7.912 
-13.028 -16.5818 -15.8262 -11.6519 
-19.4873 -19.8897 -15.8262 
