-4.759 
n/a 
n/a 
n/a 
n/a 
-4.759 
n/a 
n/a 
n/a 
n/a 
-4.759 
n/a 
n/a 
n/a 
n/a 
-4.759 
n/a 
n/a 
n/a 
n/a 
-1.4985 -8.8865 -3.43 -2.3345 -1.4985 -3.59 -1.7565 -4.6445 -2.229 -3.0435 -1.756 -8.807 -4.373 0 -3.43 -3.6135 -7.997 -1.4985 -3.1385 -1.7565 -4.6445 0 -3.4765 -3.929 -3.3715 -3.1385 -4.567 -2.674 -8.509501 -4.4 -2.925 -4.758 -2.0935 -2.985 -3.59 -6.02 -4.746 -2.264 -1.4985 -2.688 -5.181 -1.7565 -1.4985 -3.188 -3.152 -4.1315 -2.645 0 
-10.111 -12.5899 -4.5865 -3.233 -4.268 -5.228 -6.291501 -6.525001 -5.0405 -4.5065 -10.1225 -13.566 -4.373 -3.43 -7.0315 -10.368 -8.5345 -4.2575 -4.861 -6.291501 -4.6445 -3.4765 -4.589 -6.2505 -4.712501 -6.6905 -5.667 -11.1165 -13.3197 -7.2205 -6.5605 -5.5275 -4.3315 -5.6905 -10.619 -10.383 -6.0795 -2.9195 -3.702 -7.7565 -5.823 -2.4195 -3.619 -6.5055 -6.223001 -6.835 -2.645 
-13.8144 -13.7464 -5.2085 -6.561501 -5.877 -8.4665 -7.4325 -9.903501 -6.261 -14.2404 -14.8815 -13.566 -8.177 -7.0315 -14.504 -10.9055 -11.4111 -5.1835 -8.147501 -6.291501 -8.835501 -4.589 -6.791 -7.440001 -7.909 -7.863 -14.8897 -15.9267 -16.1402 -11.2934 -7.0435 -7.7235 -6.81 -13.5963 -14.9836 -11.882 -6.5035 -5.2635 -8.5235 -8.083 -6.1715 -4.4095 -6.67 -9.418 -9.559 -6.835 
-14.9709 -14.3684 -8.469001 -7.8545 -8.882 -9.928101 -11.0156 -11.264 -16.3741 -18.9994 -14.8815 -17.37 -12.0987 -14.504 -15.0415 -13.7821 -12.3371 -8.337501 -8.147501 -9.752001 -9.412001 -6.791 -7.915 -10.434 -9.215501 -17.1275 -19.6999 -18.7472 -20.2131 -11.7764 -9.178 -10.5635 -14.8484 -17.7353 -16.8457 -12.5581 -9.0495 -10.6215 -8.6285 -8.18 -6.639 -7.313 -9.498501 -13.0036 -9.559 
-15.5929 -17.6289 -10.068 -11.2313 -10.4144 -13.5112 -12.3761 -21.3771 -21.1331 -18.9994 -18.6855 -21.2917 -19.5712 -15.0415 -17.9181 -14.7081 -15.4911 -8.337501 -11.8958 -10.497 -11.6526 -7.915 -10.9786 -11.7405 -18.6738 -21.9377 -22.5204 -22.8201 -20.6961 -13.9109 -12.037 -18.6019 -18.9874 -19.5974 -17.0912 -15.5536 -15.1451 -10.7785 -8.668 -8.221001 -9.131001 -10.5975 -13.0555 -13.0036 
-1.4985 -4.2285 -4.1665 -4.4655 -2.3345 -4.6445 -2.229 -3.8355 -1.756 -4.8595 -3.6215 -4.373 -3.43 -1.8085 -3.6135 -4.0045 -2.264 -3.237 -3.3255 -3.36 -3.929 -1.4985 -4.4285 -1.7565 -4.6445 -2.229 -3.1385 -3.5745 -2.6165 -2.674 -1.4985 -3.5025 -3.991 0 -2.925 -4.758 -2.0935 -2.985 -3.4075 -4.5215 -1.4985 -4.662 -2.7455 -1.4985 -2.688 -3.188 -4.5215 -3.43 -2.645 -4.678 -1.756 -6.187 -6.2045 -4.0785 -5.1805 -4.1265 -4.0005 0 -4.3235 -3.757 -4.4645 -8.851501 -4.9385 -2.0935 -1.8085 -3.7455 -2.5045 -5.277 -1.934 -6.4085 -3.535 -4.197 0 
-5.319 -9.127501 -7.7095 -5.1125 -7.7805 -6.525001 -5.843 -5.1405 -6.295 -8.652 -7.1785 -8.177 -4.6595 -4.4545 -6.417 -4.703001 -5.39 -6.5295 -6.876 -7.7385 -4.8985 -4.759 -4.6405 -6.291501 -6.525001 -5.7405 -6.2485 -4.114 -4.2165 -3.998 -4.16 -5.3335 -3.991 -2.925 -6.5605 -5.5275 -4.3315 -6.1175 -9.098001 -6.3115 -5.515 -6.712501 -3.637 -3.702 -5.0925 -7.559 -8.6005 -5.8675 -8.109501 -5.698 -7.706 -6.2275 -11.291 -10.9855 -9.227 -6.2005 -4.0005 -4.3235 -8.7215 -7.941 -14.1034 -14.1894 -5.967501 -3.385 -4.992 -6.23 -7.491 -7.501501 -7.835001 -10.4945 -6.758 -4.197 
-10.4505 -13.0247 -8.119 -10.3545 -8.441 -8.981501 -7.1645 -9.030001 -10.2695 -12.1 -12.2011 -9.0155 -6.4135 -6.528 -6.728 -7.0695 -9.7839 -8.759501 -11.7833 -8.741 -7.3595 -4.884 -9.642501 -7.4325 -9.8225 -8.588 -6.6625 -5.3095 -5.104 -7.195001 -6.745501 -5.3335 -7.159 -6.5605 -7.0435 -7.7235 -7.5725 -12.308 -10.4515 -10.494 -7.7915 -7.294001 -5.6515 -5.703 -8.7685 -11.7912 -11.2698 -12.134 -8.872001 -12.5866 -7.7365 -11.3746 -18.198 -15.032 -9.783501 -6.2005 -8.6085 -8.7215 -13.0131 -17.7763 -19.4413 -15.2184 -6.9985 -6.97 -7.626 -11.8169 -9.196 -13.8183 -12.6006 -14.0491 -6.758 
-14.3477 -13.4342 -13.6172 -10.5975 -11.1469 -9.189 -10.733 -13.1887 -13.7175 -17.1226 -13.0396 -10.1045 -7.7095 -6.7755 -9.518001 -12.3536 -12.0139 -13.8474 -12.7858 -11.3248 -7.4585 -9.730501 -9.6995 -10.304 -12.7148 -9.036 -7.706501 -6.1245 -8.437 -8.959001 -6.745501 -8.0825 -11.1481 -7.0435 -9.178 -11.6907 -13.9402 -13.6615 -14.634 -12.7705 -8.173 -8.579 -7.589 -9.894 -13.5743 -14.4605 -17.5363 -12.8965 -16.3542 -12.6171 -13.2312 -18.2816 -22.2445 -15.5885 -9.783501 -10.374 -13.4727 -13.0131 -22.8484 -23.1142 -20.4703 -16.2494 -10.8215 -9.303501 -13.4663 -13.5219 -15.6472 -18.5839 -16.1552 -14.0491 
-14.7572 -18.9324 -13.8602 -13.3034 -11.3544 -14.0195 -14.8917 -16.6367 -18.7401 -17.9611 -14.1286 -12.2299 -8.0505 -9.570001 -14.8347 -14.5836 -17.1018 -14.8499 -15.3696 -11.4238 -12.3974 -9.781501 -12.7108 -13.1963 -13.1628 -10.1815 -8.52 -9.0505 -10.089 -8.959001 -9.404501 -12.4722 -11.6311 -9.178 -13.1642 -18.0584 -15.2937 -17.844 -16.9105 -13.152 -9.215 -10.5477 -12.6854 -15.031 -16.2436 -20.727 -18.2988 -20.3787 -16.3847 -18.1118 -20.1382 -22.3281 -22.801 -15.5885 -14.0348 -15.2888 -17.7643 -22.8484 -28.1863 -24.1432 -21.5013 -20.0724 -13.155 -15.1978 -15.1713 -19.9731 -20.4128 -22.1385 -16.1552 
-1.4985 -4.308 -5.2825 -3.8535 -2.3345 -4.6445 -2.229 -3.698 -1.756 -3.5285 -3.999 -9.800501 -3.2345 -1.8085 -4.719 -5.0405 -3.893 -1.4985 -3.5165 -3.9305 -1.756 -3.1435 -6.615001 -3.17 -1.7565 -1.4985 -4.6445 -2.229 -3.237 -3.5745 -2.6165 -2.674 -3.5025 -2.925 -4.4715 -4.758 -2.0935 -2.985 -3.4075 -6.02 -4.746 -2.7455 -3.188 -5.181 -3.8755 -4.4665 -3.953 -1.756 -12.16972 -3.251 -3.1125 -3.917 -2.7415 -5.1805 -9.4215 -1.934 -7.8755 -3.535 -3.7455 0 -3.0365 -3.757 -4.5185 -9.049001 -3.2345 -2.871 -4.759 0 
-5.8205 -9.818501 -9.762001 -5.069 -7.7805 -6.525001 -6.0055 -4.9535 -5.2155 -7.752 -14.8219 -13.1564 -4.108 -5.4735 -8.995501 -9.028 -4.573 -4.849 -4.3055 -5.580501 -4.1365 -8.984501 -9.55 -4.179 -2.4195 -7.2565 -6.525001 -5.3425 -7.559501 -4.114 -4.2165 -6.1515 -6.702 -6.882 -8.727001 -5.5275 -4.3315 -6.1175 -10.888 -10.383 -7.692 -6.2925 -7.318501 -9.0385 -10.007 -8.123501 -5.523 -14.93432 -15.42072 -4.28 -5.639 -7.335501 -6.6155 -12.7015 -9.9915 -10.19 -11.7727 -7.894 -3.7455 -3.0365 -8.004001 -7.2985 -14.5655 -12.5755 -5.5505 -8.247001 -4.759 
-11.6298 -14.5596 -10.488 -10.6335 -8.441 -11.1083 -7.0795 -8.3835 -9.3225 -18.9373 -18.1778 -14.0299 -7.249 -9.315001 -13.2886 -9.761001 -8.508 -6.6755 -6.012 -8.7005 -9.229 -11.507 -9.528 -4.497 -8.043 -8.691001 -9.332001 -10.2595 -7.7625 -5.3095 -7.1665 -8.429501 -9.978001 -9.978001 -9.285501 -7.7235 -7.5725 -13.6615 -14.5905 -13.8395 -11.6174 -10.0445 -11.646 -15.731 -13.664 -9.679501 -19.78432 -18.18532 -16.44972 -7.0375 -9.385501 -11.4385 -14.2725 -13.5495 -18.4292 -14.249 -16.1317 -7.894 -6.809 -8.004001 -11.7991 -17.8501 -18.092 -14.8915 -11.5675 -8.247001 
-16.3709 -15.2856 -16.0525 -11.294 -13.2737 -12.1823 -11.0339 -12.9999 -20.4374 -22.2932 -19.0513 -17.1709 -11.7459 -13.7893 -14.0216 -13.792 -10.5975 -8.012501 -9.1355 -14.0839 -12.3871 -12.8861 -10.2415 -10.688 -9.6715 -12.0492 -14.4902 -10.377 -8.7375 -8.4835 -10.543 -12.9435 -13.4014 -10.238 -11.6643 -11.6907 -15.2937 -17.8005 -18.4101 -18.4023 -15.3694 -14.5554 -18.3385 -19.388 -15.22 -24.01222 -23.03532 -19.21432 -19.20722 -9.6295 -13.5775 -19.1933 -14.8003 -22.5031 -22.4936 -18.608 -16.1317 -10.7175 -12.2591 -11.7991 -22.3507 -21.3766 -20.408 -20.9085 -11.5675 
-17.0969 -20.8501 -16.713 -16.1267 -14.3477 -16.1367 -15.6503 -24.1148 -23.7933 -23.1667 -22.1923 -21.6678 -16.2202 -14.5223 -18.0526 -15.8815 -11.9345 -11.329 -14.8797 -17.4899 -13.536 -13.2421 -16.6185 -12.3165 -13.0477 -17.2074 -14.6077 -11.352 -12.2051 -11.768 -15.057 -16.3669 -13.6614 -12.6168 -15.6315 -19.4119 -19.4327 -21.6201 -22.5423 -22.1543 -19.8803 -21.2479 -21.9955 -20.944 -29.55272 -27.26322 -24.06432 -21.97182 -21.79922 -13.8797 -21.3323 -19.6233 -23.7539 -26.5621 -26.8526 -18.608 -18.9552 -16.1676 -16.0542 -22.3507 -25.8772 -23.6926 -26.425 -20.9085 
-1.4985 -4.1665 -3.43 -2.3345 -1.4985 -3.8355 -1.756 -4.455 -3.6215 -1.7565 -4.6445 -3.3255 -1.4985 -3.36 -3.43 -1.8085 -3.4155 -4.0045 -2.264 -1.4985 -3.1385 -1.7565 -1.4985 -3.59 -3.929 -3.3715 -1.7565 -1.4985 -4.449 -1.7565 -4.6445 -3.5745 -2.6165 -2.674 -3.5025 -4.1155 -2.5045 -2.8195 0 -2.925 -2.674 -4.758 -1.934 -3.6885 -4.0145 -2.0935 -2.985 -4.1265 -2.229 -4.5215 -1.4985 -4.662 -1.7565 -2.688 -5.181 -1.7565 -1.4985 -3.188 -3.8755 -4.386 -1.7565 -4.678 -1.756 -3.074 -1.4985 -4.0785 -1.7565 -6.187 -7.13 -2.7415 -5.1805 -1.934 -1.4985 -3.4075 -3.518 -4.1065 -1.934 -1.4985 -4.4695 -1.7565 -7.318501 -1.756 -1.934 -5.277 -3.3155 -1.4985 -3.757 -4.5185 -9.049001 -3.251 -4.9385 -2.0935 -1.8085 -4.759 
-5.1785 -7.6375 -4.5865 -3.233 -5.151 -5.1405 -5.4095 -6.969501 -3.936 -6.291501 -7.682 -3.8945 -4.598001 -7.245 -4.6595 -4.0495 -6.744 -4.703001 -2.9195 -4.2575 -4.861 -2.4195 -4.268 -7.2535 -6.2505 -4.3215 -2.4195 -5.521501 -5.459001 -6.291501 -8.803501 -4.114 -4.2165 -6.1515 -7.6235 -6.058 -4.4345 -2.8195 -2.925 -4.1785 -6.1945 -6.0375 -5.257 -5.6105 -5.629 -4.3315 -6.736 -4.834 -6.9405 -6.3115 -5.515 -5.68 -4.2285 -7.7565 -5.823 -2.4195 -3.619 -7.143001 -7.892 -4.539 -6.415 -5.698 -4.566 -4.6505 -5.079 -4.595 -7.261001 -7.6735 -9.3995 -6.6155 -6.3385 -2.6125 -4.118 -5.618501 -7.363501 -5.0645 -2.6125 -5.603001 -5.5145 -9.4545 -9.855 -4.0205 -6.5485 -8.2825 -4.1745 -4.5435 -7.2985 -14.5655 -12.592 -6.851 -5.967501 -3.385 -5.7645 
-8.449 -8.927501 -5.2085 -6.988 -6.5515 -7.418 -7.914001 -7.786001 -9.473001 -9.142 -8.907001 -6.708 -7.919001 -8.465 -6.5055 -6.9075 -6.9375 -5.186 -6.283 -5.1835 -5.5655 -5.009 -7.612 -9.2325 -6.894 -4.7025 -6.291 -5.8585 -9.437 -9.7355 -9.0775 -5.3095 -7.1665 -9.743501 -9.333 -8.8575 -4.4345 -6.125501 -4.1785 -7.820001 -7.219501 -8.847 -6.456 -7.6595 -7.952001 -7.898001 -7.406 -10.3475 -9.217501 -10.494 -6.0925 -7.4175 -9.357 -8.083 -6.1715 -4.4095 -7.5105 -11.8231 -8 -8.856001 -7.3285 -8.5585 -5.66 -8.292001 -5.5135 -10.66 -9.002001 -9.742001 -13.3729 -7.316 -7.0065 -5.466001 -6.0135 -8.727501 -8.004001 -5.523 -6.671 -6.3025 -13.9951 -12.2682 -12.1961 -9.1225 -8.8085 -9.2445 -7.195001 -9.2075 -17.8501 -18.1085 -16.192 -7.3955 -6.9985 -7.1075 
-10.0605 -9.863501 -8.867001 -8.134501 -9.2545 -9.48 -8.392 -13.8242 -12.3441 -9.693501 -11.8239 -10.292 -8.812 -10.185 -8.0985 -7.038 -7.3545 -7.760001 -7.0905 -5.8365 -7.417 -8.232501 -9.539001 -9.9845 -7.3065 -8.13 -6.705501 -10.054 -12.9838 -9.9455 -10.2 -8.4835 -10.513 -11.453 -10.436 -8.8575 -6.88 -7.411 -7.820001 -8.912001 -9.9945 -8.9005 -8.040001 -9.643001 -11.6695 -8.752001 -13.1603 -13.2255 -13.4454 -11.0715 -8.06 -12.7822 -10.065 -8.18 -6.639 -8.462001 -12.2852 -11.9311 -12.5816 -9.906501 -10.134 -9.842501 -9.42 -8.652 -10.757 -12.5572 -11.1919 -13.7472 -14.0734 -8.009 -9.715 -8.3395 -9.0225 -9.227501 -8.500501 -9.995001 -7.376501 -14.9461 -16.8088 -14.6093 -17.2981 -11.4775 -9.747 -12.3082 -12.3352 -19.8281 -21.3931 -21.7085 -16.7365 -8.1455 -10.426 
-10.473 -13.522 -10.082 -11.3433 -11.4503 -9.809501 -14.7804 -16.6953 -12.8956 -12.6104 -15.4079 -11.4546 -10.7175 -11.9486 -8.299 -7.4635 -9.531 -8.411 -7.777 -7.5455 -10.7701 -10.2325 -10.3235 -10.5695 -10.8442 -8.567 -11.0706 -13.6008 -13.1938 -11.068 -13.374 -11.738 -12.2225 -12.556 -10.436 -11.6092 -8.106501 -11.2451 -8.912001 -11.8058 -10.042 -9.425501 -9.740001 -13.4039 -12.5235 -14.7123 -16.0383 -17.4534 -14.0229 -13.039 -13.6173 -13.4902 -10.381 -8.221001 -10.1985 -13.2079 -12.3932 -16.5127 -13.6321 -12.712 -11.418 -13.6025 -9.660001 -13.9621 -12.7028 -14.7471 -15.1971 -14.4477 -14.7664 -10.8039 -12.5885 -11.3473 -9.491 -9.612 -13.0531 -10.309 -16.1493 -17.7598 -19.1499 -19.7113 -19.6531 -12.416 -12.8107 -17.4484 -22.9558 -23.3711 -24.9931 -22.253 -17.4865 -11.6602 
