-4.759 
n/a 
n/a 
n/a 
n/a 
-4.759 
n/a 
n/a 
n/a 
n/a 
-4.759 
n/a 
n/a 
n/a 
n/a 
-4.759 
n/a 
n/a 
n/a 
n/a 
-8.263 -6.9755 -3.299 -12.16972 
-15.9507 -11.0527 -16.81832 
-20.0279 -24.57202 
-33.54722 
n/a 
-1.4985 -3.299 -3.6045 -7.4095 -2.0935 -3.6485 -4.415 -2.4945 -1.4985 -4.2895 -2.0935 -1.4985 -6.396 -2.229 -2.9775 -2.9705 -2.186 -3.979 -4.728 -2.3345 -1.4985 -3.925 
-4.5915 -4.5695 -10.2815 -8.996 -5.22 -7.406 -6.329 -3.9315 -5.106 -5.047 -2.9725 -8.9245 -8.0845 -5.003 -6.009 -3.89 -6.588 -8.521 -5.7325 -3.233 -4.6825 
-6.0905 -11.6245 -11.868 -12.2171 -9.585001 -9.478001 -8.105 -6.753 -5.613 -5.8035 -10.7495 -10.9054 -10.396 -8.215 -6.7535 -8.12 -10.1075 -9.481001 -6.4195 -6.618001 
-13.5049 -13.211 -15.0891 -16.5821 -12.2888 -11.3182 -11.1957 -7.3415 -6.1355 -14.2655 -12.7304 -13.2169 -13.608 -9.116 -11.5279 -12.0085 -11.2819 -10.305 -10.213 
-15.0914 -16.4321 -19.4541 -19.2859 -14.129 -14.4089 -11.7842 -7.994 -14.7143 -16.2464 -15.0419 -16.4289 -14.509 -14.092 -15.4164 -13.1829 -12.1059 -14.0985 
-3.6485 -3.6215 -3.7875 -1.4985 -3.299 -3.6045 -4.413 0 -3.8935 -1.934 -4.1145 -3.64 -2.4945 -2.985 -4.2895 
-6.723001 -7.635501 -5.007 -4.5915 -4.5695 -8.2665 -4.413 -3.8935 -5.918 -6.6335 -5.99 -5.508 -5.8695 -6.573501 
-10.976 -8.884501 -8.0985 -6.0905 -9.1645 -8.2665 -9.233 -5.918 -11.3161 -7.504 -8.0205 -9.182501 -8.682501 
-12.225 -12.2072 -9.703 -11.0449 -9.1645 -13.4503 -11.4913 -11.3161 -12.1866 -9.569 -12.1104 -12.4313 
-15.5477 -13.8117 -14.8456 -11.0449 -14.6345 -15.7086 -16.8894 -12.1866 -14.2516 -14.7059 -15.3592 
-4.4925 -1.7565 -4.246 -4.131 -1.7565 -3.6485 -4.197 -1.756 -1.4985 -4.705 -1.7565 -1.4985 -4.185 -2.186 -1.4985 -3.535 -4.031 
-5.5365 -5.662 -5.5185 -7.673 -5.082 -8.3365 -5.602 -3.0405 -6.038 -5.850501 -2.4195 -5.379 -6.533 -3.339 -4.255 -5.8145 
-9.509001 -8.348001 -8.962001 -11.5607 -10.5492 -10.3285 -6.7965 -7.2695 -6.668 -6.691 -6.502 -7.4465 -7.9055 -5.657 -5.876 
-12.4014 -12.0131 -13.2301 -17.0279 -12.5412 -11.523 -11.3109 -7.9235 -7.3915 -11.1867 -8.6105 -8.8155 -10.5967 -6.6805 
-16.0665 -16.2812 -18.6973 -19.0199 -13.7357 -16.0374 -11.9649 -8.717 -12.0114 -13.2952 -10.3045 -11.8089 -11.6202 
