-4.759 
n/a 
n/a 
n/a 
n/a 
-4.759 
n/a 
n/a 
n/a 
n/a 
-4.759 
n/a 
n/a 
n/a 
n/a 
-4.759 
n/a 
n/a 
n/a 
n/a 
-3.851 -1.7695 -2.3615 -5.866 -4.017 -4.676 -4.354 -2.4285 -4.4495 -2.925 -2.4945 -4.0675 -3.8755 -1.756 -4.175 -1.7695 -1.4985 -5.1085 -3.5495 -3.664 -2.4945 -4.3285 -2.5195 -1.4985 -3.433 -4.3655 0 
-4.0015 -3.736 -9.7795 -10.9315 -8.9575 -7.9565 -6.541 -6.764501 -6.548 -6.2925 -5.845 -7.969 -5.367 -5.86 -5.054 -2.7955 -6.447001 -9.629001 -6.895 -5.315001 -5.504 -5.329 -3.1695 -5.026 -7.675 -4.3655 
-6.14 -11.48 -14.8928 -15.872 -12.89 -10.5745 -10.0475 -8.704 -9.856501 -10.0285 -8.9475 -9.445001 -8.0675 -6.347 -5.377 -7.991001 -11.5761 -13.2661 -8.5585 -8.2045 -6.526 -6.5895 -6.984 -9.514501 -7.675 
-13.9896 -16.5933 -19.8333 -19.8045 -15.508 -14.081 -12.2262 -12.2113 -13.5925 -13.201 -10.3415 -12.1815 -8.8075 -6.6485 -11.2995 -13.3331 -15.2132 -14.9296 -11.7554 -8.84 -7.4755 -11.1208 -11.7983 -9.514501 
-19.1029 -21.5338 -23.7658 -22.4225 -19.0145 -16.2597 -15.7335 -15.9473 -16.765 -14.595 -13.078 -12.9215 -9.101 -12.6886 -16.6416 -16.9702 -16.8767 -18.1265 -12.3909 -9.9055 -12.1982 -15.9351 -11.7983 
-4.2115 -2.0935 -2.5235 -3.16 -2.9825 0 -2.5045 -3.469 -2.5045 -2.3585 -3.013 -5.651501 -2.9645 -1.4985 -4.0965 -3.4265 -2.4285 -3.6835 0 -1.4985 -4.3945 0 -5.8305 0 -4.7395 0 -3.843 0 0 -1.934 -2.8965 -3.9355 
-5.784 -3.869 -4.704 -3.8965 -2.9825 -2.5045 -4.66 -4.6205 -4.297 -4.239 -8.529501 -7.249001 -3.957 -5.3025 -6.346001 -5.878 -6.5065 -3.6835 -1.4985 -5.5745 -4.3945 -5.8305 -5.8305 -4.7395 -4.7395 -3.843 -3.843 0 -1.934 -4.391 -4.9455 
-7.614 -6.0505 -5.0545 -3.8965 -5.566 -4.66 -4.6955 -5.4415 -6.0175 -9.308001 -11.618 -9.5845 -7.508 -7.346001 -8.928501 -8.373 -6.5065 -5.769 -5.5745 -5.5745 -8.559 -5.8305 -9.0365 -4.7395 -7.595 -3.843 -3.843 -1.934 -4.391 -4.962 
-10.6215 -6.212 -5.0545 -6.3475 -7.4565 -4.6955 -5.482501 -6.9385 -10.603 -10.962 -11.018 -13.3205 -9.647 -9.700001 -10.382 -8.373 -8.204 -9.001 -5.5745 -10.078 -8.559 -9.0365 -9.0365 -7.595 -7.595 -3.843 -5.584 -4.391 -4.962 
-10.783 -6.212 -7.4945 -8.172501 -7.462 -5.482501 -7.0645 -11.1709 -13.4166 -12.4107 -14.7113 -15.7085 -12.4728 -10.76 -10.382 -10.2535 -11.6152 -9.001 -10.078 -10.078 -10.4265 -9.0365 -10.6605 -7.595 -7.595 -5.584 -7.246 -4.962 
-3.402 -2.264 -2.3615 -3.8465 -1.4985 -2.688 -4.5095 -2.186 -3.8535 0 -1.4985 -3.64 -4.354 -2.4945 -4.4495 -3.0415 -2.3335 -2.4265 -2.7765 -2.489 -3.2955 -2.0935 -1.4985 -3.739 -3.7775 0 -1.4985 -2.688 -5.056 -3.7555 -2.645 -4.0395 -2.5195 -2.3615 -3.433 0 
-3.793 -3.8255 -5.6075 -5.687 -3.702 -7.575 -6.6155 -4.972 -3.8535 -1.4985 -5.3715 -7.84 -8.144501 -5.6805 -7.4745 -4.132 -3.913 -4.346 -3.495 -3.979 -4.307 -2.9725 -4.208 -6.1745 -3.7775 -1.4985 -3.702 -7.79 -8.734501 -5.968 -7.355 -6.3595 -4.4095 -5.621 -3.433 
-5.686501 -7.584001 -7.2165 -8.0245 -8.601 -10.647 -8.0035 -4.972 -5.394 -5.3715 -9.7735 -12.2067 -10.4345 -8.552 -7.8795 -5.238 -5.414001 -4.728 -4.532001 -4.7805 -5.1685 -5.1435 -8.17 -6.1745 -5.696 -3.702 -9.116 -11.7685 -11.6016 -9.956 -9.742001 -8.1195 -7.7825 -5.621 
-9.132 -8.960501 -9.8915 -13.0593 -11.812 -12.035 -8.0035 -6.5225 -9.425501 -9.7735 -14.4324 -14.4967 -13.306 -8.836 -8.8765 -5.9285 -5.824 -5.7235 -5.4465 -5.681 -8.606 -8.9905 -8.17 -7.5135 -7.761 -9.116 -13.2049 -14.6356 -15.5896 -12.4396 -11.5144 -11.7497 -7.7825 
-10.016 -11.6735 -14.9263 -16.2703 -13.2 -12.035 -9.5235 -10.004 -14.0811 -14.4324 -16.7224 -17.3682 -13.59 -10.75 -9.3815 -6.191 -6.752 -6.5785 -6.639 -8.786 -12.5098 -8.9905 -9.869 -9.876 -13.4462 -13.2049 -16.072 -18.6236 -18.0732 -14.212 -15.1446 -11.7497 
-1.934 -3.1495 -4.3785 0 -1.4985 -3.866 -1.7565 -1.4985 -2.9775 -1.4985 -2.688 -4.354 0 -4.4495 -2.925 -2.9775 -2.186 -5.441 -3.8755 -1.756 -4.175 -1.934 -1.4985 -5.1085 -3.5495 -1.4985 -3.664 -2.4945 -4.3285 -2.5195 0 -2.3345 0 -3.1495 -4.922 -3.509 0 
-4.5395 -6.4935 -4.3785 -1.4985 -5.151 -5.406 -2.4195 -4.4135 -5.155 -3.702 -7.8415 -4.354 -4.4495 -6.548 -6.3865 -4.91 -6.9025 -9.883001 -5.367 -5.86 -5.612 -2.6125 -6.447001 -9.629001 -5.503 -5.285501 -5.315001 -5.504 -5.329 -2.5195 -2.3345 -2.3345 -3.1495 -7.362 -8.4525 -3.509 
-7.022501 -6.4935 -6.18 -5.151 -5.697001 -5.7685 -4.904 -6.2285 -7.316501 -8.717001 -7.8415 -9.6175 -6.548 -8.5515 -8.6645 -10.6105 -11.9371 -10.6915 -8.0675 -7.3905 -6.5265 -7.466001 -11.5761 -11.8741 -8.665501 -6.827001 -8.2045 -6.526 -5.329 -6.383 -2.3345 -5.217 -7.362 -10.361 -8.4525 
-7.022501 -7.663 -9.859 -5.697001 -5.9505 -8.558001 -6.556 -8.48 -12.5991 -8.717001 -13.468 -10.0805 -8.5515 -10.5325 -14.5652 -15.6451 -12.7456 -13.392 -9.5765 -8.286 -12.1864 -12.8987 -13.8212 -15.0366 -9.5465 -9.816 -8.84 -6.526 -9.603001 -6.383 -5.217 -9.210501 -10.361 -10.361 
-7.963 -11.592 -10.2905 -5.9505 -8.73 -10.159 -9.0015 -13.994 -12.5991 -14.4283 -13.931 -12.2956 -10.5325 -16.4332 -19.5998 -16.4536 -15.4461 -14.901 -10.8488 -14.2133 -17.6191 -15.1438 -16.9837 -15.9176 -12.8371 -10.4375 -8.84 -10.459 -9.603001 -10.093 -9.210501 -12.5235 -10.361 
