-4.759 
n/a 
n/a 
n/a 
n/a 
-4.759 
n/a 
n/a 
n/a 
n/a 
-4.759 
n/a 
n/a 
n/a 
n/a 
-4.759 
n/a 
n/a 
n/a 
n/a 
-5.039 0 -4.1205 -4.432 -5.0075 -1.7565 -3.8735 0 -3.0015 0 
-5.039 -4.1205 -6.354 -6.377501 -5.9815 -5.112 -3.8735 -3.0015 -3.0015 
-8.316 -6.354 -7.733 -7.2045 -8.292001 -5.112 -7.337 -3.0015 
-9.794001 -7.733 -8.988501 -8.519 -8.292001 -8.2075 -7.337 
-11.242 -8.988501 -10.061 -8.519 -11.8449 -8.2075 
-5.039 0 -4.1205 -4.1865 -4.432 -4.328 0 -3.002 0 
-5.039 -4.1205 -7.507 -7.061 -4.899 -4.328 -3.002 -3.002 
-8.316 -7.507 -8.506001 -7.0755 -4.899 -7.565001 -3.002 
-9.915501 -8.506001 -8.5175 -7.0755 -8.4525 -7.565001 
-11.0031 -8.5175 -8.5175 -10.6735 -8.4525 
-5.039 -2.7415 -1.4985 -4.1205 -4.1865 -4.432 -4.328 0 -3.0015 0 
-7.251 -4.063 -4.752501 -7.507 -7.061 -4.899 -4.328 -3.0015 -3.0015 
-8.3695 -7.058001 -8.3745 -8.506001 -7.0755 -4.899 -7.3475 -3.0015 
-11.6805 -10.6215 -9.308001 -8.5175 -7.0755 -8.232 -7.3475 
-15.244 -11.555 -9.3175 -8.5175 -9.772 -8.232 
-4.863 -2.7415 -3.6075 -8.568501 
-7.913001 -7.783 -13.4298 
-13.1501 -17.7463 
-23.1134 
n/a 
