-4.759 
n/a 
n/a 
n/a 
n/a 
-4.759 
n/a 
n/a 
n/a 
n/a 
-4.759 
n/a 
n/a 
n/a 
n/a 
-4.759 
n/a 
n/a 
n/a 
n/a 
-5.1845 -5.029 -1.756 -4.4895 -2.4945 -3.7905 -1.7695 -3.301 -6.673 0 
-9.1625 -6.648 -6.017 -6.274 -7.1085 -6.848001 -5.5655 -10.7665 -6.673 
-11.0731 -11.5768 -7.8175 -11.6768 -9.380501 -10.1225 -13.501 -10.7665 
-16.0019 -13.3773 -13.4627 -13.9488 -12.6896 -18.058 -13.501 
-17.8024 -19.0225 -15.7347 -17.2579 -20.6251 -18.058 
-1.934 -5.154 -5.1845 -2.229 -1.756 -3.594 -1.7565 -3.383 -4.602 0 
-8.241 -10.4425 -8.101 -4.366 -5.5065 -5.572 -5.5535 -8.507 -4.602 
-13.8025 -13.359 -10.1185 -7.768001 -7.3935 -9.676001 -10.609 -8.507 
-16.719 -15.3765 -14.0155 -9.894001 -11.6829 -14.8299 -10.609 
-18.7365 -19.2735 -16.1415 -14.3914 -16.8368 -14.8299 
-4.833 -6.9155 -5 -1.934 -5.1845 -4.6065 -1.756 -5.463 
-13.1587 -12.6199 -7.1405 -6.564 -8.8135 -5.8035 -6.5295 
-18.8631 -14.7604 -12.3813 -9.93 -9.8035 -6.917 
-21.0036 -20.0012 -15.7473 -10.92 -11.0404 
-26.2444 -23.3672 -16.7373 -12.1569 
-5.1845 -4.9405 -1.756 -3.3425 -3.951 -3.074 -2.9805 -2.674 -1.8085 -3.301 -4.4155 -3.914 -5.154 0 
-8.9945 -6.1115 -5.094 -6.5375 -7.476 -6.274 -5.96 -3.63 -4.019 -8.1155 -8.1785 -10.3045 -5.154 
-10.411 -10.733 -8.114 -10.249 -10.0065 -9.4235 -6.7655 -5.301 -8.6415 -12.1319 -15.0136 -10.3045 
-15.0325 -13.753 -12.3787 -12.7795 -13.156 -10.02 -8.5245 -10.0885 -12.7631 -18.967 -15.0136 
-18.0525 -18.0177 -14.9092 -15.929 -13.7525 -11.779 -13.4768 -14.2101 -19.5982 -18.967 
