-4.759 
n/a 
n/a 
n/a 
n/a 
-4.759 
n/a 
n/a 
n/a 
n/a 
-4.759 
n/a 
n/a 
n/a 
n/a 
-4.759 
n/a 
n/a 
n/a 
n/a 
-1.934 -4.5735 -3.4795 0 -1.4985 -3.545 -1.7565 -5.3 -5.372 -3.098 -1.7565 -3.499 -2.5195 -4.285 -3.391 0 
-5.86 -7.4725 -3.4795 -1.4985 -4.401 -4.649 -5.9935 -10.068 -7.5595 -5.7095 -5.2975 -5.7205 -6.712501 -6.296 -3.391 
-7.932 -7.4725 -5.2895 -4.401 -5.098001 -6.043 -10.2805 -12.1385 -7.597 -8.811 -6.9535 -9.793501 -8.597501 -6.296 
-7.932 -8.614 -8.1555 -5.098001 -6.307 -10.292 -12.4272 -12.176 -10.3285 -10.082 -11.4081 -11.7893 -8.597501 
-8.946 -11.5256 -8.813001 -6.307 -10.5525 -12.4275 -12.4647 -14.9075 -11.7643 -14.5322 -13.4039 -11.7893 
-1.934 -6.4185 -3.4795 -1.4985 -3.873 -4.3055 -3.8495 -4.6805 -1.7565 -3.098 -3.299 -3.391 -3.1385 0 
-7.367 -6.943 -5.2895 -4.7405 -7.703 -9.3785 -7.424 -4.722 -5.406 -6.495501 -6.241 -6.6855 -3.1385 
-7.751 -8.1855 -8.8 -8.259501 -12.9322 -13.1596 -7.4295 -7.079 -8.711 -9.1505 -8.729501 -6.6855 
-8.765 -11.79 -12.5696 -13.6015 -16.7133 -13.1651 -10.1185 -10.2325 -10.718 -10.661 -8.729501 
-12.4239 -15.5596 -17.9116 -17.3826 -16.7188 -15.8541 -13.4842 -12.1327 -13.0565 -10.661 
-1.934 -4.253 -3.5215 0 -3.499 -1.7565 -10.5165 -2.4945 -2.5195 -3.93 -3.7095 0 
-6.014 -6.924001 -3.5215 -3.499 -4.306 -13.2222 -13.13 -5.2275 -6.364 -7.229501 -3.7095 
-7.222501 -6.924001 -7.7765 -4.306 -16.6343 -15.8357 -15.863 -9.086 -9.4975 -7.229501 
-7.222501 -10.7495 -8.228001 -16.6343 -19.2478 -18.5687 -19.7215 -12.4507 -9.4975 
-11.0542 -11.201 -20.7007 -19.2478 -21.9808 -22.4272 -23.0862 -12.4507 
-4.317 -3.5215 0 -7.0125 -2.4945 -10.094 -4.9225 0 
-8.335001 -3.5215 -7.0125 -9.009001 -14.0167 -15.1439 -4.9225 
-8.335001 -10.634 -9.009001 -20.6226 -19.0666 -15.1439 
-15.6929 -12.6305 -20.6226 -25.6725 -19.0666 
-17.6894 -24.2441 -25.6725 -25.6725 
