-4.759 
n/a 
n/a 
n/a 
n/a 
-4.759 
n/a 
n/a 
n/a 
n/a 
-4.759 
n/a 
n/a 
n/a 
n/a 
-4.759 
n/a 
n/a 
n/a 
n/a 
-3.5445 -3.135 -4.3365 -2.4285 -3.8315 0 -2.925 -2.742 -2.489 -3.867 -1.4985 -3.6765 -2.229 -3.716 -2.915 -2.5195 -1.8085 -4.6955 -2.925 -2.742 -2.489 -3.867 -1.4985 -3.6765 -2.229 -3.098 0 -3.7515 0 -3.218 -1.7565 -4.2705 0 -3.6905 0 -3.158 0 -8.008 0 -4.235 -2.229 -3.098 0 -4.121 -2.229 -3.098 0 -4.284 -2.229 -3.098 0 -4.284 -2.229 -4.235 -2.229 -3.098 0 -4.284 -2.229 -4.121 -2.229 -3.098 0 -4.8985 0 -4.5315 0 -4.799 0 -5.13 -3.098 -1.756 -2.985 -4.4915 -1.756 -2.5685 -1.7565 -3.277 -2.742 -2.489 -3.383 -4.225 -3.992 -2.742 -2.489 -3.0415 -4.225 -2.3335 -1.4985 -3.6765 -2.742 -2.489 -4.6185 -1.7695 -3.6785 -3.6555 -3.6555 -1.7695 -2.5685 -1.4985 -3.6175 0 
-6.7155 -7.35 -6.1775 -7.0985 -3.8315 -2.925 -4.3725 -3.301 -6.235001 -5.1165 -4.501 -4.9715 -5.933001 -5.8415 -4.7575 -3.8815 -6.1295 -8.110001 -4.3725 -3.301 -6.235001 -5.1165 -4.501 -4.9715 -4.8015 -3.098 -3.7515 -3.7515 -3.218 -4.3535 -5.023 -4.2705 -3.6905 -3.6905 -3.158 -3.158 -8.008 -8.008 -4.235 -5.0915 -4.8015 -3.098 -4.121 -4.7815 -4.8015 -3.098 -4.284 -5.606 -4.8015 -3.098 -4.284 -5.606 -5.509 -5.0915 -4.8015 -3.098 -4.284 -5.606 -5.532001 -4.7815 -4.8015 -3.098 -4.8985 -4.8985 -4.5315 -4.5315 -4.799 -4.799 -5.13 -8.0485 -4.558 -4.2025 -6.9025 -5.7295 -4.2335 -3.887 -4.25 -5.772 -3.301 -4.85 -7.436501 -8.1975 -6.1845 -3.301 -5.078 -7.3715 -6.216001 -3.3515 -4.501 -5.9375 -3.301 -5.6555 -4.987 -4.268 -5.823 -4.772 -5.63 -4.2305 -3.7015 -5.186 -3.6175 
-9.308001 -9.160501 -7.548 -7.0985 -6.689 -4.3725 -4.932 -6.884 -7.2495 -9.095 -5.6 -8.219 -8.922001 -8.1995 -5.962 -8.105 -9.165501 -9.568501 -4.932 -6.884 -7.2495 -9.095 -5.6 -6.331 -4.8015 -5.853 -3.7515 -7.0445 -4.3535 -5.265 -5.023 -6.117 -3.6905 -5.5635 -3.158 -10.884 -8.008 -12.7814 -5.0915 -6.6355 -4.8015 -7.2355 -4.7815 -6.798501 -4.8015 -8.1925 -5.606 -7.182001 -4.8015 -8.1925 -5.606 -7.679501 -6.8405 -6.6355 -4.8015 -8.1925 -5.606 -7.597001 -6.756001 -6.798501 -4.8015 -8.951 -4.8985 -7.353001 -4.5315 -7.961 -4.799 -7.052 -8.0485 -9.2235 -7.2715 -7.8405 -7.784 -7.3665 -5.3525 -5.2535 -5.9965 -6.37 -5.7675 -9.0115 -11.8096 -10.434 -6.434 -6.281 -9.304001 -8.878 -7.021501 -5.693 -6.7885 -6.503 -6.2875 -5.756 -7.744501 -6.53 -7.886001 -7.8475 -7.0725 -5.2 -6.4065 -5.186 
-11.3429 -9.6415 -7.548 -9.4265 -7.958 -4.932 -8.418501 -7.919001 -11.4864 -9.705 -9.125501 -10.66 -11.242 -9.628 -10.9701 -11.3446 -10.7495 -10.069 -8.418501 -7.919001 -11.4864 -9.705 -6.851501 -6.331 -7.4165 -5.853 -7.0445 -7.2365 -5.265 -5.265 -6.1785 -6.117 -5.5635 -5.5635 -10.884 -10.884 -12.7814 -13.6379 -6.6355 -6.6355 -7.579 -7.357 -6.798501 -6.798501 -9.159 -8.7185 -7.182001 -7.182001 -9.159 -8.7185 -7.679501 -8.275001 -7.994 -6.6355 -9.159 -8.7185 -7.597001 -8.9215 -8.1815 -6.798501 -10.27 -8.951 -7.353001 -7.353001 -7.961 -7.961 -7.052 -10.688 -9.2235 -12.1164 -11.5305 -8.894501 -10.523 -9.379001 -6.4605 -7.0895 -6.620501 -8.565001 -10.609 -13.5774 -14.0461 -10.6835 -9.0505 -10.66 -10.195 -10.019 -10.107 -7.403 -7.381001 -9.374001 -6.354 -8.479 -9.358001 -8.434 -9.215501 -8.956501 -8.002001 -7.477001 -6.4065 
-11.8239 -9.6415 -9.5895 -11.0867 -8.414001 -8.418501 -9.494501 -12.3033 -12.0964 -13.2701 -11.9353 -12.98 -12.6705 -14.6693 -14.2097 -12.9286 -11.25 -13.9299 -9.494501 -12.3033 -12.0964 -10.9961 -6.851501 -8.664001 -7.4165 -7.944 -7.2365 -7.322001 -5.265 -6.182 -6.1785 -8.822001 -5.5635 -14.1609 -10.884 -15.6574 -13.6379 -15.1819 -6.6355 -7.943501 -7.5915 -7.929501 -6.798501 -10.543 -9.3 -9.283 -7.182001 -10.012 -9.3 -11.533 -8.275001 -8.394501 -7.994 -10.5225 -9.3 -11.4505 -8.9215 -10.485 -8.1815 -10.66 -10.27 -10.61 -7.353001 -9.212001 -7.961 -9.5085 -10.688 -11.863 -12.1164 -16.3754 -12.5845 -11.9627 -12.5355 -10.173 -8.1225 -7.5335 -8.852 -13.4367 -15.1749 -15.8139 -14.2956 -13.3 -13.7685 -12.1454 -11.6068 -13.1045 -11.817 -8.190001 -10.1585 -9.4355 -9.336 -10.238 -11.4156 -9.711 -10.4503 -10.195 -8.355 -7.477001 
-3.135 -3.7435 -3.7875 -3.908 -3.681 -3.115 -3.098 0 -3.7515 0 -9.2865 0 -3.6905 0 -3.158 0 -3.3725 0 -4.235 -1.756 -4.121 -3.9915 0 -4.5445 -1.756 -4.4455 -3.098 0 -4.799 -1.756 -4.481 -3.9915 
-6.9005 -6.764501 -7.5555 -7.184 -5.1835 -6.8015 -3.098 -3.7515 -3.7515 -9.2865 -9.2865 -3.6905 -3.6905 -3.158 -3.158 -3.3725 -3.3725 -4.235 -5.3925 -5.8445 -8.664501 -3.9915 -4.5445 -5.900001 -6.1565 -8.2735 -3.098 -4.799 -5.91 -5.862 -8.873001 
-10.6095 -11.1387 -11.2365 -9.538 -8.601501 -6.8015 -5.853 -3.7515 -14.154 -9.2865 -13.246 -3.6905 -5.5635 -3.158 -7.207001 -3.3725 -9.085 -5.3925 -6.456 -10.0345 -8.664501 -8.561001 -5.900001 -6.8535 -10.218 -8.2735 -8.792 -5.91 -7.941501 -9.246501 
-14.9837 -14.8197 -13.5905 -13.2248 -8.601501 -9.065001 -5.853 -14.154 -14.154 -13.246 -13.246 -5.5635 -5.5635 -7.207001 -7.207001 -9.085 -10.4115 -6.456 -10.1505 -10.0345 -13.59 -10.5491 -6.8535 -11.4494 -10.218 -14.0975 -9.861501 -7.941501 -11.6766 
-18.6647 -17.1737 -17.2773 -13.2248 -10.6215 -9.065001 -17.3917 -14.154 -18.1135 -13.246 -15.119 -5.5635 -9.989 -7.207001 -13.2673 -10.4115 -11.942 -10.1505 -10.1505 -15.0118 -15.5781 -11.5026 -11.4494 -11.4494 -16.042 -15.167 -12.6452 -11.6766 
-1.934 -3.7375 -4.3365 -2.4285 -3.8315 -2.925 -3.322 -1.4985 -7.83 -2.229 -3.716 -2.915 -2.5195 -1.8085 -8.5425 -5.117 -2.925 -4.3625 -3.322 -2.5685 -5.126 -3.2775 -2.5045 -7.83 -2.229 -3.098 0 -3.7515 0 -3.218 -3.6905 -1.756 -3.158 -1.7565 -4.2705 0 -5.307 -3.3725 0 -4.121 -1.756 -4.235 -2.229 -3.098 0 -4.284 -2.229 -3.098 0 -4.284 -2.229 -4.121 -1.756 -4.235 -2.229 -3.098 0 -4.5315 0 -4.8985 0 -4.799 0 -5.13 0 -3.9915 -1.756 -3.7515 -2.4265 -3.1425 -2.489 -3.0415 -4.116 -2.3335 -1.4985 -7.83 -3.1425 -2.489 -1.934 -1.8085 -3.1715 -1.7565 -3.183 -4.288 -3.6555 -3.6555 0 
-6.299 -5.6295 -6.1775 -7.0985 -6.689 -6.094501 -4.2895 -8.528501 -9.330001 -5.933001 -5.8415 -4.7575 -3.8815 -10.013 -10.058 -8.1405 -7.7815 -8.165001 -5.1425 -5.4015 -8.491501 -3.678 -10.598 -9.330001 -4.8015 -3.098 -3.7515 -3.7515 -3.218 -6.173 -5.2905 -5.7015 -4.71 -5.023 -4.2705 -5.307 -5.8025 -3.3725 -4.121 -5.331 -5.941 -5.0915 -4.8015 -3.098 -4.284 -5.606 -4.8015 -3.098 -4.284 -5.606 -5.532001 -5.331 -5.941 -5.0915 -4.8015 -3.098 -4.5315 -4.5315 -4.8985 -4.8985 -4.799 -4.799 -5.13 -5.13 -3.9915 -5.1375 -5.6085 -6.289001 -4.211 -3.7875 -5.078 -6.497 -6.972 -3.3515 -8.528501 -10.5645 -3.7875 -4.348 -3.2685 -4.6835 -4.207 -5.364501 -5.963 -6.6905 -4.772 -3.6555 
-7.872001 -7.531 -7.548 -9.4265 -9.411501 -6.9495 -12.2079 -9.467501 -13.1008 -8.922001 -8.1995 -5.962 -10.7495 -10.765 -13.2361 -13.2512 -10.4505 -10.1035 -8.293501 -9.158001 -8.594501 -11.7277 -12.098 -11.9693 -4.8015 -5.853 -3.7515 -7.0445 -6.173 -7.8335 -6.409 -6.695 -6.028 -5.023 -8.248501 -5.8025 -5.8025 -9.134501 -5.331 -6.4345 -7.214001 -6.6355 -4.8015 -8.1925 -5.606 -7.182001 -4.8015 -8.1925 -5.606 -7.597001 -6.74 -6.4345 -7.214001 -6.6355 -4.8015 -8.705 -4.5315 -6.375 -4.8985 -8.345 -4.799 -7.052 -5.13 -8.485001 -5.1375 -9.0605 -7.426001 -7.962 -4.546 -6.028501 -7.9585 -7.5835 -8.364 -9.772501 -10.6605 -11.2095 -5.686 -5.4615 -5.616 -5.364501 -8.803501 -7.719501 -8.523001 -8.399 -4.772 
-10.0375 -8.1285 -9.5895 -12.5402 -10.4435 -14.9993 -13.1469 -13.2631 -16.0898 -11.242 -9.628 -13.6146 -11.5015 -13.9431 -18.3468 -15.9202 -13.0526 -13.2545 -12.5892 -9.246 -16.6736 -13.2277 -14.7373 -11.9693 -7.4165 -5.853 -7.0445 -9.933001 -7.8335 -7.9725 -7.2865 -7.7785 -6.028 -8.302 -8.311501 -5.8025 -12.4777 -10.734 -6.4345 -8.0795 -8.852501 -6.6355 -9.159 -8.7185 -7.182001 -7.182001 -9.159 -8.7185 -7.597001 -8.826501 -7.7205 -8.0795 -8.852501 -6.6355 -9.713501 -8.705 -6.375 -6.375 -8.345 -8.345 -7.052 -7.052 -8.485001 -9.6625 -9.0605 -11.156 -8.964001 -8.2655 -6.663 -8.561001 -8.934501 -8.7145 -14.9436 -12.0371 -11.3055 -13.108 -6.6775 -7.131001 -5.8985 -9.3795 -11.3155 -9.582001 -10.2535 -8.399 
-10.528 -10.389 -12.876 -13.5722 -18.4933 -15.9383 -16.9425 -16.2521 -18.4098 -12.6705 -17.3138 -14.3666 -14.6796 -19.0538 -21.0158 -18.5223 -16.2036 -17.5502 -12.6772 -17.3653 -18.1736 -15.867 -14.7373 -14.5843 -7.4165 -7.944 -9.933001 -12.4835 -7.9725 -8.717501 -8.189 -7.7785 -10.2984 -8.3135 -8.311501 -12.4777 -14.0772 -11.8375 -8.0795 -9.776001 -8.852501 -10.5225 -9.3 -9.283 -7.182001 -10.012 -9.3 -11.4505 -8.826501 -9.5865 -9.6645 -9.776001 -8.852501 -10.403 -9.713501 -10.0615 -6.375 -8.7495 -8.345 -9.0255 -7.052 -10.9168 -9.6625 -13.7449 -11.156 -12.694 -9.171 -10.348 -9.349 -10.2805 -10.275 -15.3711 -17.2082 -12.6821 -13.204 -14.0995 -8.5955 -7.207 -9.7665 -11.9789 -13.178 -11.3937 -10.2535 
-3.135 -3.3715 -9.7965 -2.229 -1.7565 -3.8315 -4.963 -4.269 -3.3365 -5.593 -1.756 -2.5685 -1.7565 -2.871 -4.0615 -2.9805 -2.229 -3.098 0 -3.7515 0 -3.218 -1.7565 -4.2705 0 -3.6905 0 -3.158 0 -7.3325 0 -4.0355 0 -4.121 0 -3.098 0 -5.13 -1.756 -4.799 0 -3.6785 -3.6555 0 -3.6555 -2.0935 -2.5685 0 
-6.941501 -14.458 -12.2257 -4.9155 -5.7315 -10.1905 -9.543501 -8.02 -9.284 -7.0955 -4.2335 -3.887 -4.521 -6.8335 -7.4945 -4.2145 -4.8015 -3.098 -3.7515 -3.7515 -3.218 -4.3535 -5.023 -4.2705 -3.6905 -3.6905 -3.158 -3.158 -7.3325 -7.3325 -4.0355 -4.0355 -4.121 -4.121 -3.098 -3.098 -5.13 -6.2485 -5.872 -4.799 -3.6785 -5.823 -3.6555 -3.6555 -6.09 -3.987 -2.5685 
-18.3834 -16.8872 -14.9122 -8.947001 -12.5167 -14.9608 -13.3941 -14.5311 -10.7345 -9.552 -5.3525 -7.119 -8.7345 -9.834001 -8.7875 -8.5155 -4.8015 -5.853 -3.7515 -7.0445 -4.3535 -5.265 -5.023 -6.117 -3.6905 -5.5635 -3.158 -10.575 -7.3325 -11.8172 -4.0355 -7.7295 -4.121 -7.8435 -3.098 -9.3055 -6.2485 -7.129 -5.872 -8.814501 -5.823 -5.823 -4.772 -6.09 -7.658501 -3.987 
-20.8126 -19.5737 -18.9437 -16.1568 -17.287 -18.8114 -19.9052 -15.9816 -13.191 -11.0256 -9.0815 -11.7901 -12.1104 -10.2955 -13.2457 -8.5155 -7.4165 -5.853 -7.0445 -7.2365 -5.265 -5.265 -6.1785 -6.117 -5.5635 -5.5635 -10.575 -10.575 -11.8172 -11.8172 -7.7295 -7.7295 -7.8435 -7.8435 -9.3055 -10.7784 -7.129 -7.129 -10.523 -11.1654 -5.823 -7.886001 -7.951 -7.658501 -7.658501 
-23.4991 -23.6052 -26.1535 -20.9271 -21.1376 -25.3225 -21.3557 -18.4381 -14.6646 -14.7546 -13.8918 -15.166 -12.5719 -15.5573 -13.2457 -11.7311 -7.4165 -7.944 -7.2365 -7.322001 -5.265 -6.182 -6.1785 -8.822001 -5.5635 -13.8519 -10.575 -15.6381 -11.8172 -15.5112 -7.7295 -10.6605 -7.8435 -14.3586 -10.7784 -11.6589 -7.129 -12.6814 -12.8739 -11.1654 -7.886001 -10.7335 -9.736 -7.658501 
