-4.759 
n/a 
n/a 
n/a 
n/a 
-4.759 
n/a 
n/a 
n/a 
n/a 
-4.759 
n/a 
n/a 
n/a 
n/a 
-4.759 
n/a 
n/a 
n/a 
n/a 
-3.4225 -4.0965 0 -6.4185 -6.7605 0 -3.5455 -4.6545 -2.4945 -3.135 -3.959 -1.934 -3.875 
-4.2 -4.0965 -6.4185 -14.0556 -6.7605 -3.5455 -7.607501 -7.637 -4.575 -5.8285 -5.2625 -4.7225 
-4.2 -11.4678 -14.0556 -14.0556 -10.5535 -7.607501 -10.586 -10.4035 -7.845 -7.2105 -6.659 
-11.9391 -19.1049 -14.0556 -17.8486 -14.6155 -10.586 -13.3525 -14.0477 -8.946501 -8.236501 
-19.5762 -19.1049 -17.8486 -21.9106 -17.594 -13.3525 -16.9967 -15.1492 -9.958501 
-3.4225 -4.0965 0 -5.6815 -4.559 -1.756 -3.5455 -4.1755 -2.229 -3.4225 -4.0965 0 -2.186 -1.8085 -3.59 -1.934 -4.02 -3.875 
-4.2 -4.0965 -5.6815 -9.9305 -5.633 -5.308001 -7.245 -5.828001 -6.214 -4.2 -4.0965 -2.186 -3.164 -4.973001 -5.272 -5.3455 -5.5215 
-4.2 -10.19 -9.9305 -11.3951 -8.046 -8.937 -9.8785 -10.3225 -6.9395 -4.2 -6.4115 -3.164 -6.4275 -6.641 -7.937 -6.219 
-10.2335 -14.439 -11.3951 -13.8081 -9.533 -11.7435 -14.373 -11.048 -6.9395 -6.851 -7.353001 -6.4275 -7.4065 -8.538 -8.170501 
-14.4825 -15.9036 -13.8081 -15.2951 -12.4419 -16.238 -15.0985 -11.048 -10.76 -7.5865 -9.6455 -7.4065 -8.71 -9.171 
-5.292 -4.0965 0 -6.982501 -1.756 -3.5455 -7.666 -3.873 -1.7565 -3.641 -3.875 -1.8085 -3.59 0 
-8.9575 -4.0965 -6.982501 -8.593 -5.308001 -12.6961 -12.0048 -5.197001 -5.457 -6.638 -6.209001 -4.973001 -3.59 
-8.9575 -10.907 -8.593 -12.3262 -15.085 -17.0349 -13.3288 -9.0485 -8.622001 -9.226001 -8.818001 -4.973001 
-16.0096 -12.5175 -12.3262 -22.1032 -19.4238 -18.3589 -17.1803 -12.5483 -11.4968 -11.929 -8.818001 
-17.6201 -16.2507 -22.1032 -26.442 -20.7478 -22.2104 -20.6801 -15.4231 -14.1998 -11.929 
-1.4985 -3.4225 -4.0965 -1.756 -8.2185 -6.7605 -1.756 -3.502 -12.16972 -2.9705 -2.4945 -2.356 -1.934 -1.4985 -3.641 -3.982 -2.229 -3.59 0 
-3.9655 -4.2 -5.706 -10.674 -15.6788 -7.9135 -5.1085 -17.17032 -15.14022 -4.302 -5.6245 -5.342 -2.6125 -4.644 -6.6565 -7.627 -5.868 -3.59 
-5.179 -5.86 -15.6558 -18.1343 -16.8318 -11.894 -19.22862 -20.14082 -16.47172 -8.0825 -8.2445 -6.0285 -5.3205 -7.706501 -10.702 -11.5114 -5.868 
-6.082 -16.2926 -23.1161 -19.2873 -20.8123 -26.01412 -22.19912 -21.47232 -20.25222 -10.218 -8.915501 -8.996 -8.603001 -11.8738 -14.5864 -11.5114 
-17.235 -23.7529 -24.2691 -23.2678 -34.93242 -28.98462 -23.53062 -25.25282 -22.38772 -10.583 -12.0014 -12.3697 -12.9675 -15.7582 -14.5864 
