-4.759 
n/a 
n/a 
n/a 
n/a 
-4.759 
n/a 
n/a 
n/a 
n/a 
-4.759 
n/a 
n/a 
n/a 
n/a 
-4.759 
n/a 
n/a 
n/a 
n/a 
-3.0365 -2.186 -4.386 -1.7565 -12.16972 -2.7455 -5.0295 -3.115 -5.1875 -4.2655 
-3.66 -6.437 -4.539 -14.87542 -14.91522 -7.4725 -8.1335 -8.6225 -7.408 
-6.7405 -6.500501 -18.43392 -17.62092 -19.64222 -11.3509 -13.828 -11.0816 
-6.837 -20.92882 -21.17942 -22.34792 -23.52062 -17.0454 -16.2871 
-21.69352 -23.67432 -25.90642 -26.22632 -29.21512 -19.5045 
-8.373501 -4.2655 -3.074 -2.7455 -6.041 -3.8015 -1.7695 -2.674 -3.3715 -6.4085 -4.93 0 
-13.1484 -7.636 -6.076 -9.606501 -9.887501 -6.1235 -3.8225 -5.4105 -8.8915 -7.891 -4.93 
-16.5189 -10.926 -13.4 -13.9072 -12.3373 -8.7745 -6.7405 -10.396 -9.716001 -7.891 
-19.8089 -18.25 -17.7007 -16.357 -14.9883 -11.7585 -11.8442 -11.2205 -9.716001 
-27.1329 -22.5507 -20.1505 -19.008 -17.9723 -16.8622 -12.6687 -11.2205 
-1.934 -5.1875 -4.2655 -3.074 0 -3.0365 -2.4945 -4.386 -1.7565 -4.089 -4.8135 -2.7455 -4.1455 -2.229 -7.2175 
-7.1715 -7.408 -7.636 -3.074 -3.0365 -3.688 -5.79 -4.539 -5.9375 -7.136001 -7.074 -7.128 -6.1735 -9.9925 
-8.512501 -10.007 -7.636 -5.832 -3.688 -5.804 -5.8125 -8.276 -8.456 -8.852501 -10.76 -10.1675 -15.0884 
-11.3139 -10.007 -9.7995 -6.449 -5.804 -5.8255 -9.582001 -11.2237 -10.733 -12.7545 -13.7995 -19.0824 
-11.3139 -12.1705 -10.3255 -8.4265 -5.8255 -9.5895 -12.5217 -13.5007 -14.635 -15.794 -22.7144 
-3.0365 -2.4945 -3.3715 -6.281 -2.7455 -5.0295 -1.934 -5.1875 -4.2655 
-3.688 -4.846 -8.415501 -8.125 -7.4725 -6.8995 -7.1715 -7.408 
-4.8765 -9.3555 -9.696 -13.13 -10.361 -12.8386 -8.512501 
-9.359 -10.182 -14.7134 -16.0185 -16.3001 -14.1796 
-10.1815 -15.1994 -17.6019 -21.9576 -17.6411 
