-4.759 
n/a 
n/a 
n/a 
n/a 
-4.759 
n/a 
n/a 
n/a 
n/a 
-4.759 
n/a 
n/a 
n/a 
n/a 
-4.759 
n/a 
n/a 
n/a 
n/a 
-4.122 0 -3.502 -5.749 -2.229 -7.5245 0 -8.668 0 -7.0885 -2.229 -8.974501 0 -7.3265 -5.602 -5.1845 -3.1385 -3.511 -2.5195 -3.9785 -3.7515 -3.8405 -7.6875 
-4.122 -3.502 -8.717501 -7.9275 -10.7335 -7.5245 -8.668 -8.668 -7.0885 -9.9455 -11.7985 -8.974501 -7.3265 -9.507501 -9.683001 -7.4095 -5.979 -5.514 -6.4785 -6.294 -7.549 -12.5304 
-8.7895 -8.717501 -11.1202 -16.7224 -10.7335 -16.9341 -8.668 -16.2387 -9.9455 -19.7268 -11.7985 -16.6342 -9.507501 -13.5885 -12.941 -9.967001 -8.4575 -9.922501 -8.4355 -9.485001 -16.5289 
-14.2552 -11.1202 -19.9151 -16.7224 -20.1431 -16.9341 -16.2387 -19.0957 -19.7268 -19.7268 -19.4582 -18.8152 -13.5885 -16.8465 -15.4985 -12.4829 -13.2852 -12.2729 -12.0307 -18.4811 
-16.6579 -19.9151 -19.9151 -26.132 -20.1431 -24.5048 -19.0957 -28.877 -19.7268 -27.3865 -21.6392 -22.8962 -16.8465 -19.404 -18.0144 -17.3106 -15.6356 -15.8681 -21.0268 
-1.756 -3.074 -6.4735 -3.511 -1.934 -1.4985 -4.5735 -3.8405 -1.934 -1.4985 -3.4635 -4.088 -7.5245 -1.756 -8.793 -1.934 -3.502 -5.749 0 -8.974501 -1.934 -5.4885 -1.756 -5.602 -1.934 -7.3265 0 
-4.566 -9.887501 -8.8405 -4.582 -2.6125 -5.271 -7.679 -5.3015 -2.6125 -3.6265 -6.4755 -12.7167 -9.4825 -11.5576 -11.3518 -4.8155 -8.717501 -5.749 -8.974501 -11.2417 -6.47 -7.2385 -7.628 -7.804 -8.459001 -7.3265 
-11.5655 -12.2545 -9.181001 -5.3785 -6.335 -8.1355 -9.039001 -6.1425 -4.773 -6.4775 -15.7488 -14.6747 -19.5423 -14.1164 -14.2333 -9.4715 -8.717501 -15.6801 -11.2417 -15.7777 -7.8215 -10.5975 -9.019501 -10.31 -8.459001 
-13.9325 -12.595 -9.756001 -9.162001 -8.7875 -9.715 -10.204 -8.375501 -6.5885 -15.7624 -17.7068 -24.7345 -22.1011 -16.9979 -18.8893 -9.4715 -18.8728 -17.9473 -15.7777 -17.1292 -11.2465 -11.989 -11.8293 -10.31 
-14.273 -13.17 -13.7729 -11.6973 -10.298 -10.4365 -12.5594 -10.5734 -16.2362 -17.7204 -27.7666 -27.2933 -24.9826 -21.6539 -18.8893 -19.6896 -21.14 -22.4833 -17.1292 -20.5542 -12.638 -14.7988 -11.8293 
-2.872 -6.019 -3.1385 -2.4945 -3.074 -3.8245 -1.934 -2.8965 -3.9035 -3.115 -7.5245 0 -9.524 -1.934 -3.502 -5.749 0 -6.95 -1.934 -7.691 -1.756 -5.602 -1.934 -5.8065 -2.5195 -1.4985 -5.066 -3.8405 0 
-9.327001 -10.2285 -4.588 -4.4205 -7.3085 -4.7245 -4.391 -5.4185 -6.951 -11.1165 -7.5245 -9.524 -12.1934 -4.8155 -8.717501 -5.749 -6.95 -8.9195 -8.565001 -8.9245 -7.628 -7.804 -6.862 -8.7025 -3.1695 -6.044001 -6.9255 -3.8405 
-13.7155 -11.678 -6.9715 -7.968 -7.754001 -7.465 -6.018 -7.977 -15.1119 -11.1165 -17.7901 -12.1934 -15.0749 -9.4715 -8.717501 -11.08 -8.9195 -16.1757 -9.139501 -15.2645 -9.019501 -9.075001 -9.349001 -9.634501 -7.3125 -7.152 -6.9255 
-15.165 -14.0615 -9.258 -8.609501 -10.674 -8.3085 -9.5695 -16.7543 -15.1119 -21.3821 -20.4595 -15.0749 -19.7309 -9.4715 -14.2727 -13.0495 -16.1757 -16.7502 -16.0853 -16.656 -10.1035 -11.7716 -10.244 -13.7775 -7.9735 -7.152 
-17.5485 -16.348 -10.035 -11.6381 -11.5175 -12.704 -18.6428 -16.7543 -25.3775 -24.0515 -23.341 -19.7309 -19.7309 -15.0895 -16.2422 -20.3057 -16.7502 -23.696 -17.4768 -17.74 -12.8001 -12.6666 -14.387 -14.4385 -7.9735 
-8.27 -2.674 -3.074 -3.1125 -3.8245 -1.934 -9.9265 -1.756 -7.911 -4.418 -1.934 -3.502 -5.749 0 -6.95 -1.934 -5.4885 -1.756 -5.602 -1.934 -5.8065 0 
-9.986501 -4.981 -5.106 -6.041 -4.7245 -11.117 -11.7567 -9.9835 -12.8162 -5.746 -4.8155 -8.717501 -5.749 -6.95 -8.9195 -6.47 -7.2385 -7.628 -7.804 -6.862 -5.8065 
-12.2935 -5.56 -8.9875 -6.4465 -14.6753 -12.9472 -19.9842 -14.8887 -14.1442 -8.093 -9.4715 -8.717501 -11.08 -8.9195 -9.5035 -7.8215 -10.5975 -9.019501 -9.075001 -6.862 
-12.8725 -9.552501 -9.422501 -16.7009 -16.5055 -21.1747 -24.8894 -16.2167 -16.4912 -13.4396 -9.4715 -14.2727 -13.0495 -9.5035 -10.611 -11.2465 -11.989 -10.1035 -9.075001 
-16.865 -10.011 -19.6893 -18.5311 -24.733 -26.0799 -26.2174 -18.5637 -21.8378 -13.4396 -15.0895 -16.2422 -13.6335 -10.611 -14.036 -12.638 -13.073 -10.1035 
