-4.759 
n/a 
n/a 
n/a 
n/a 
-4.759 
n/a 
n/a 
n/a 
n/a 
-4.759 
n/a 
n/a 
n/a 
n/a 
-4.759 
n/a 
n/a 
n/a 
n/a 
-3.0365 -2.186 -3.2645 -2.489 -2.9995 -4.4305 -2.264 -2.3585 -4.2425 -2.3335 -2.9325 -2.3585 -2.742 -3.0465 -2.9905 -1.7565 -3.937 -2.5235 -4.384 
-3.66 -6.606501 -3.7195 -5.375 -7.39 -6.2235 -5.0675 -5.9965 -5.5255 -5.2325 -4.072 -3.8635 -4.8155 -4.989 -3.6185 -5.2615 -6.1475 -6.666 
-8.554501 -7.160501 -7.1495 -9.404 -7.5825 -8.0905 -8.549001 -7.696 -7.965001 -6.122 -5.8895 -5.4345 -7.023001 -5.278501 -7.4755 -7.6265 -8.1955 
-8.820001 -10.533 -11.4609 -9.553 -9.6355 -12.181 -10.13 -10.2085 -8.960501 -7.6635 -7.1045 -7.6775 -7.233 -8.160501 -9.2825 -9.202001 
-12.4935 -14.8444 -11.6099 -12.0414 -13.726 -13.762 -12.7861 -11.204 -10.6812 -9.585001 -8.623501 -7.757 -10.322 -9.927001 -11.0002 
-2.3335 -3.2645 -2.6165 -4.4305 -2.5045 -2.3585 -1.934 -2.9995 -4.0505 -2.7455 -4.1955 -2.4285 -2.847 -4.1955 
-4.997 -4.457 -5.3995 -7.623 -5.5385 -4.629 -4.2175 -5.936 -7.126 -8.1835 -6.9905 -4.9945 -7.754 
-6.201 -6.963 -9.007 -11.4232 -7.180501 -6.452 -7.048 -8.8855 -13.0274 -10.259 -10.2135 -8.9925 
-8.432501 -10.7399 -13.2476 -13.0652 -9.252001 -8.820001 -10.126 -15.5631 -15.1029 -13.482 -14.2115 
-12.3996 -14.9805 -14.8896 -15.1367 -11.7296 -12.3552 -16.7082 -17.6386 -18.3259 -17.48 
-2.9325 -4.1405 -2.186 -3.7855 -2.3335 0 -3.7855 -2.4285 -2.6165 -3.6885 -2.7835 -2.3585 -3.013 -5.651501 -12.994 0 
-7.178 -5.9505 -4.9225 -5.222 -2.3335 -3.7855 -6.2655 -4.3195 -7.375501 -5.761 -3.296 -4.239 -8.529501 -18.1822 -13.5272 
-8.071 -8.6175 -6.988 -5.222 -6.05 -6.2655 -8.0085 -8.912001 -9.175501 -6.257 -4.7465 -9.308001 -21.7794 -18.8729 
-11.4678 -10.9932 -6.988 -9.476501 -10.0315 -8.0085 -13.0092 -10.9438 -9.870001 -7.8445 -9.356 -23.0753 -22.1258 
-13.8435 -10.9932 -11.6207 -13.7556 -11.7745 -13.0092 -15.041 -11.6383 -11.5361 -12.4113 -24.138 -23.5185 
-3.8105 -2.4265 -2.742 -3.6845 -3.4515 -2.4285 -2.6165 -2.3615 -3.6885 -3.2645 -2.6165 -4.4305 -2.3585 -1.934 -4.5445 
-4.9125 -4.095 -4.8705 -7.418 -6.0585 -4.3195 -5.583 -4.932 -6.725 -4.457 -5.3995 -6.265 -4.629 -6.1875 
-6.4625 -6.19 -8.513 -10.041 -8.226501 -6.158 -8.3275 -7.442 -7.910501 -6.963 -7.474501 -7.461 -7.6815 
-8.8345 -9.697001 -11.1986 -12.209 -10.028 -8.81 -10.3475 -8.464001 -9.7825 -8.805 -7.87 -9.6185 
-12.3095 -12.4392 -13.3666 -14.0105 -12.7314 -10.7175 -12.0003 -10.0345 -11.5469 -10.115 -10.1765 
