-4.759 
n/a 
n/a 
n/a 
n/a 
-4.759 
n/a 
n/a 
n/a 
n/a 
-4.759 
n/a 
n/a 
n/a 
n/a 
-4.759 
n/a 
n/a 
n/a 
n/a 
-4.685 -2.5195 -4.93 -1.4985 -5.1845 -4.953 0 -2.4265 -3.074 -4.6525 -2.7455 -1.4985 -5.1845 -3.793 -1.7565 -2.3335 -3.8405 0 
-5.093 -7.4835 -5.3085 -6.5205 -8.975 -4.953 -2.4265 -4.605 -6.649 -6.5805 -3.637 -6.5205 -10.459 -5.624001 -4.314 -5.7085 -3.8405 
-9.054501 -8.304 -10.688 -10.168 -8.975 -7.4565 -4.605 -7.1855 -8.317 -7.196 -8.941001 -12.5104 -12.29 -8.4165 -6.541 -5.7085 
-9.371501 -13.8095 -14.3355 -10.168 -11.5989 -9.168 -7.1855 -8.7985 -8.839001 -12.7292 -14.9153 -14.3414 -15.0825 -10.0155 -6.541 
-14.8962 -17.457 -14.3355 -12.7919 -13.3104 -11.9625 -8.7985 -9.320001 -14.4226 -18.7035 -16.7463 -17.1339 -16.6815 -10.0155 
-2.3615 -2.6165 -4.3075 -4.5875 -1.4985 -3.5905 -5.1845 -4.245 0 -2.4265 -3.074 -4.5875 -1.4985 -4.518 -1.7565 -1.4985 -3.5905 -5.1845 0 
-5.456 -5.637 -9.128 -4.969 -4.435 -8.0375 -7.991 -4.245 -2.4265 -4.605 -6.4135 -4.969 -5.3 -5.7015 -2.4195 -4.435 -8.0375 -5.1845 
-9.4875 -10.9905 -9.580501 -8.6595 -9.5755 -10.2045 -7.991 -6.7515 -4.605 -6.903501 -6.8535 -8.002501 -5.996 -6.087 -5.288001 -9.5755 -8.0375 
-14.971 -11.443 -13.3204 -13.985 -11.7425 -10.2045 -10.3345 -8.384501 -6.903501 -7.3385 -9.5135 -8.9235 -6.3075 -9.669001 -10.2535 -9.5755 
-15.4235 -15.1829 -18.6459 -16.152 -11.7425 -12.548 -11.9621 -10.2385 -7.3385 -9.8555 -10.7481 -9.246 -9.9125 -14.7541 -10.2535 
-2.3615 -4.5875 -2.6165 -3.098 -5.1845 -4.245 -1.756 -3.074 -4.5735 -5.1845 -3.9675 0 
-6.8745 -7.947001 -4.283 -8.8 -7.991 -5.425 -4.566 -7.833 -8.3575 -8.286 -3.9675 
-9.8525 -8.154 -9.972501 -11.6015 -9.1745 -8.1805 -9.5115 -10.4945 -10.223 -8.286 
-10.0815 -14.4823 -12.8408 -12.785 -11.9852 -13.2368 -12.1876 -12.7812 -10.223 
-16.3922 -17.3506 -14.0243 -15.5957 -17.0415 -15.9129 -14.4743 -12.7812 
-2.3615 -4.5875 -5.1845 -6.1945 -1.756 -3.8905 -2.7455 -1.4985 -6.4185 -3.4795 -5.1845 -3.941 
-6.8745 -11.117 -10.368 -7.5315 -5.2115 -6.3355 -3.637 -6.940001 -6.943 -9.358001 -9.834001 
-13.8372 -16.3005 -11.9412 -11.5266 -7.7495 -7.014 -8.862 -7.12 -13.2311 -14.3109 
-19.0207 -17.8737 -15.9363 -14.0646 -8.478001 -12.5236 -8.921 -13.5437 -18.184 
-20.5939 -21.8688 -18.4743 -14.7931 -14.117 -12.5826 -15.5217 -18.4966 
