-4.759 
n/a 
n/a 
n/a 
n/a 
-4.759 
n/a 
n/a 
n/a 
n/a 
-4.759 
n/a 
n/a 
n/a 
n/a 
-4.759 
n/a 
n/a 
n/a 
n/a 
-3.034 -2.9805 -1.756 -3.091 -4.5445 0 -4.2405 -3.277 -4.7405 -1.7695 -3.595 0 -4.518 -5.717 0 -3.091 -4.235 0 -6.568 -5.2545 0 -6.6115 -3.2495 -3.5385 -3.3255 -3.091 -3.6115 -4.284 
-4.4605 -5.160501 -4.2995 -5.8545 -4.5445 -4.2405 -5.386 -6.3415 -7.421501 -4.741 -3.595 -4.518 -8.55 -5.717 -3.091 -5.1065 -4.235 -6.568 -8.703501 -5.2545 -6.6115 -8.1295 -5.703 -6.351501 -5.462501 -5.5775 -6.5115 
-6.644 -5.597 -6.6665 -5.8545 -8.8015 -5.386 -8.3945 -8.7465 -9.463001 -4.741 -8.565001 -8.55 -8.55 -8.606001 -5.1065 -5.1065 -9.035 -8.703501 -8.703501 -11.08 -8.1295 -8.375 -8.6885 -8.5635 -8.259501 -6.798 
-7.1055 -7.7435 -6.6665 -10.204 -9.635 -8.3945 -10.4765 -10.0015 -9.463001 -9.351001 -12.927 -8.55 -10.5865 -9.705001 -5.1065 -9.5205 -9.704 -8.703501 -14.7794 -12.598 -8.375 -11.9229 -11.1863 -11.5395 -9.654 
-9.127001 -7.7435 -10.634 -10.7105 -10.4875 -10.4765 -11.7315 -10.0015 -14.129 -14.0614 -12.927 -10.5865 -11.6855 -9.705001 -9.5205 -10.2055 -9.704 -14.7794 -16.2974 -12.8435 -11.9229 -14.4207 -14.1623 -12.934 
-3.034 -3.091 -4.5445 -2.7415 -4.78 -5.914001 0 -3.091 -4.235 -2.8645 -4.2215 -3.2495 -3.5385 -2.5195 -3.091 -3.6115 -4.284 0 
-5.566 -5.8545 -6.5765 -6.238501 -10.985 -5.914001 -3.091 -5.1065 -6.3615 -7.8765 -7.52 -5.703 -5.539001 -4.8225 -5.5775 -6.5115 -4.284 
-7.908 -7.5515 -10.5185 -14.1567 -10.985 -8.007501 -5.1065 -7.3745 -11.8083 -10.0745 -8.6 -7.5585 -7.775001 -7.497001 -6.798 -6.5115 
-8.974 -11.5829 -18.4367 -14.1567 -13.0785 -10.674 -7.3745 -13.0657 -14.0063 -10.592 -10.5407 -8.621 -9.0815 -8.413501 -6.798 
-13.1876 -19.5011 -18.4367 -16.2502 -15.745 -12.942 -13.0657 -15.2637 -14.5238 -12.5327 -11.6032 -9.712 -9.925 -8.413501 
-3.034 -2.9805 -1.756 -3.091 -2.743 -3.158 -4.7405 -4.5445 -4.518 -5.09 0 -3.091 -4.235 -3.7555 -3.2495 -3.5385 -3.3255 -3.091 -3.6115 -4.284 0 
-4.4605 -5.160501 -4.2995 -7.0495 -5.853 -7.367001 -6.4195 -9.213001 -7.601501 -5.09 -3.091 -5.1065 -7.4405 -6.2455 -5.703 -6.351501 -5.462501 -5.5775 -6.5115 -4.284 
-6.644 -5.597 -8.016001 -7.7395 -10.674 -9.627001 -10.3605 -12.5819 -7.601501 -8.5625 -5.1065 -8.2155 -10.2865 -8.7405 -8.6885 -8.5635 -8.259501 -6.798 -6.5115 
-7.1055 -9.682 -8.7395 -13.5807 -12.934 -13.571 -14.1152 -12.5819 -10.2185 -10.254 -8.2155 -11.2847 -12.7815 -11.9422 -11.1863 -11.5395 -9.654 -6.798 
-11.3387 -10.0235 -15.3573 -15.8407 -16.878 -17.3257 -14.1152 -15.1989 -11.91 -13.363 -11.2847 -13.7797 -15.9832 -14.44 -14.1623 -12.934 -9.654 
-3.034 -3.091 -6.0335 -4.5445 -3.0695 -2.7415 -4.2405 -3.277 -4.7405 -1.7695 -3.595 
-5.566 -9.037001 -11.4658 -6.459001 -4.6395 -6.704 -5.386 -6.3415 -7.421501 -4.741 
-11.8418 -14.5727 -13.3803 -7.388501 -8.3695 -7.212 -8.3945 -8.7465 -9.463001 
-17.3775 -16.4872 -14.3098 -10.2485 -8.924001 -9.2605 -10.4765 -10.0015 
-19.292 -17.4167 -17.1698 -10.5415 -9.9455 -11.4691 -11.7315 
