-4.759 
n/a 
n/a 
n/a 
n/a 
-4.759 
n/a 
n/a 
n/a 
n/a 
-4.759 
n/a 
n/a 
n/a 
n/a 
-4.759 
n/a 
n/a 
n/a 
n/a 
-3.784 -3.957 -1.7565 -4.3355 -2.186 -5.727 -4.9395 -5.413 -2.4285 -2.4265 -5.5385 -7.114501 -7.199 -1.7565 -1.4985 -3.995 -3.5085 -3.957 -1.7565 -7.511001 
-6.568501 -5.0905 -6.009501 -6.5745 -7.89 -10.0965 -6.816 -7.299 -5.2275 -8.4875 -12.5075 -14.197 -8.708 -2.4195 -4.712 -8.606 -6.279 -5.0905 -9.913501 
-7.5325 -9.1285 -8.826 -12.536 -13.061 -11.5575 -8.064 -11.0996 -12.2359 -15.9643 -21.0057 -16.1252 -10.1345 -5.2205 -9.389 -11.6313 -6.556 -13.314 
-11.8183 -10.587 -14.8611 -18.1368 -14.9526 -13.0259 -12.7324 -18.108 -19.7127 -24.1235 -22.5147 -17.5517 -12.9355 -9.64 -12.4721 -11.9083 -14.9241 
-13.2768 -17.0621 -20.4205 -19.617 -16.2748 -17.6943 -19.7408 -25.5848 -27.8719 -25.6325 -23.9412 -20.3527 -17.355 -12.8095 -12.7491 -20.5686 
-4.4345 -1.7565 -4.1115 -3.9115 -5.727 -4.9395 -3.3715 -2.4285 -3.995 -3.5085 -3.9115 -1.934 -7.511001 0 -1.756 -7.114501 -6.142 -2.461 -3.9115 -3.4905 -3.0465 -1.934 -3.5015 0 
-4.719 -5.857501 -8.978001 -8.712501 -10.0965 -8.8955 -7.719001 -6.946001 -8.606 -6.17 -5.8065 -10.363 -7.831 -1.756 -9.0345 -11.7945 -7.4035 -6.580501 -7.115001 -6.842501 -4.8825 -4.5885 -3.5015 
-9.2465 -11.5922 -14.1403 -13.654 -14.7885 -12.5542 -12.5051 -11.9568 -11.5223 -7.9985 -15.1787 -11.1882 -10.0095 -9.202 -15.1107 -14.8557 -11.4205 -10.459 -10.9922 -9.158501 -8.095 -4.5885 
-15.0678 -16.7545 -20.1125 -19.1894 -18.5934 -17.3403 -17.5159 -14.8731 -13.3508 -18.2313 -15.6255 -13.3667 -14.9805 -15.1665 -17.6565 -18.8039 -15.7814 -14.3362 -13.3082 -12.794 -8.095 
-20.2301 -22.7267 -24.8237 -22.8481 -23.3795 -22.3511 -20.4322 -16.7016 -23.5836 -18.2313 -17.804 -18.3377 -20.945 -17.6565 -21.6047 -22.9696 -19.6586 -16.6522 -16.9437 -12.794 
-1.934 -3.299 -3.518 -4.1115 -8.2135 -5.727 -4.9395 -4.9605 0 -2.4285 -3.995 -3.5085 -7.511001 0 -1.756 -7.114501 -6.014 -2.461 -3.518 -2.4265 -5.421 -1.4985 -3.5015 0 
-4.976501 -4.972 -7.7045 -13.2856 -13.214 -10.0965 -6.7185 -4.9605 -2.4285 -6.946001 -8.606 -11.184 -7.831 -1.756 -9.0345 -11.8555 -8.381001 -6.2215 -5.887 -7.003 -6.507 -4.737 -3.5015 
-6.962501 -9.873501 -17.7564 -18.5485 -18.6244 -11.4405 -6.7185 -7.355 -6.946001 -11.9568 -17.2171 -11.8648 -10.0095 -9.202 -15.0197 -14.6417 -12.5077 -9.347 -11.3375 -7.8075 -10.76 -4.737 
-12.1498 -20.1392 -23.0193 -23.6965 -19.9876 -11.5867 -8.625501 -12.4761 -11.9568 -20.5679 -17.2171 -14.0433 -14.9805 -15.0755 -17.4425 -18.7684 -15.6332 -14.8833 -12.142 -12.3011 -10.76 
-22.4155 -25.4021 -28.1673 -25.0597 -19.9876 -13.5559 -14.0478 -17.4869 -20.5679 -20.5679 -19.3956 -19.0143 -20.854 -17.4425 -21.5692 -21.8939 -21.1695 -15.6878 -16.6356 -12.3011 
-5.059 -3.784 -4.2105 -2.186 -5.727 -4.9395 -4.8615 -2.4285 -3.5085 -1.7565 -7.511001 0 -1.756 -7.114501 -7.199 -4.2105 -1.7565 -3.995 0 
-9.6915 -7.4505 -6.2555 -7.89 -10.0965 -6.029 -7.09 -6.370501 -4.8005 -9.913501 -7.831 -1.756 -9.0345 -14.197 -11.0145 -5.477 -5.423 -3.995 
-13.4026 -9.467 -11.4915 -13.061 -10.561 -8.0305 -11.9206 -8.242001 -12.249 -10.2695 -10.0095 -9.202 -17.3612 -18.4317 -12.281 -8.093 -5.423 
-15.4191 -13.0324 -15.3759 -13.6839 -12.5155 -13.0195 -13.7921 -16.9797 -13.3632 -12.448 -14.9805 -17.417 -21.2325 -19.6982 -14.897 -8.093 
-18.9845 -19.8374 -16.833 -16.0174 -17.7575 -14.891 -23.0682 -17.5181 -15.5417 -17.419 -23.1955 -21.2325 -22.499 -22.3142 -14.897 
