-4.759 
n/a 
n/a 
n/a 
n/a 
-4.759 
n/a 
n/a 
n/a 
n/a 
-4.759 
n/a 
n/a 
n/a 
n/a 
-4.759 
n/a 
n/a 
n/a 
n/a 
-4.481 -2.8645 -3.1125 -4.38 -1.7695 -1.8085 -3.1715 -3.0415 -2.3335 -2.7295 -2.7765 -3.8905 -2.847 -2.8965 -3.6215 -2.7765 -4.052 -3.4945 -1.4985 -3.0785 -1.7565 -4.481 0 
-7.408 -3.5345 -6.3075 -6.184 -3.41 -4.6835 -6.368501 -4.132 -4.056 -4.065 -5.1555 -6.812 -4.9305 -6.7325 -6.5905 -5.566501 -7.8335 -4.538 -4.779 -5.1815 -5.378 -4.481 
-8.0205 -6.559 -7.3725 -7.647 -6.0925 -7.924001 -7.1555 -5.3115 -5.108 -6.487 -7.7925 -9.127501 -8.672501 -9.605 -9.041 -9.050501 -8.8985 -6.552001 -5.2205 -9.398001 -5.378 
-11.3068 -7.555 -8.9825 -10.361 -9.4495 -9.053 -8.090501 -5.5615 -7.785 -8.830001 -9.263 -12.9529 -10.163 -12.2125 -12.7402 -10.1765 -10.287 -6.597001 -9.431001 -9.398001 
-12.3028 -9.255 -11.9207 -13.8352 -10.2335 -10.4345 -8.359 -8.1525 -10.7175 -9.932501 -13.1136 -14.4434 -12.7705 -15.9117 -13.8662 -11.7308 -10.3385 -10.467 -9.431001 
-2.847 -3.655 -2.7765 -4.4035 -3.4945 -4.481 -3.4775 -2.3335 -4.481 -2.8645 -4.4275 -4.067 -2.5685 -1.4985 -4.134 0 
-7.0895 -6.419001 -5.957001 -7.12 -8.395 -8.0895 -5.3995 -7.202001 -7.408 -5.847 -8.855 -5.208 -3.7015 -5.181 -4.134 
-8.920501 -8.894501 -8.110001 -12.5609 -12.3761 -10.2715 -10.5628 -8.713501 -10.621 -10.1075 -9.830501 -6.091001 -6.459 -5.181 
-11.6264 -10.76 -13.6951 -16.542 -14.5581 -15.4348 -12.0743 -12.0627 -14.8815 -11.4122 -10.5365 -8.807 -6.459 
-13.4919 -16.3451 -17.6762 -18.724 -19.7214 -16.9463 -15.4235 -16.3232 -16.1862 -12.1182 -13.2525 -8.807 
-3.4945 -1.4985 -3.5785 -1.7565 -4.481 -2.847 -3.6445 -1.934 -1.4985 -3.655 -2.7765 -4.4035 0 -2.3335 -3.4915 -1.4985 -4.481 -2.8645 -6.180501 -1.756 -2.8645 -4.7195 0 
-4.538 -4.471 -4.7405 -5.378 -7.5255 -6.8465 -5.329 -2.6125 -4.6745 -6.419001 -5.957001 -4.4035 -2.3335 -5.2295 -5.291 -6.0425 -7.408 -7.1395 -7.2995 -4.3855 -5.397 -4.7195 
-7.603 -5.142 -7.803 -8.8325 -12.162 -8.514001 -5.7615 -5.281 -7.128 -8.894501 -5.957001 -7.082 -5.2295 -7.2825 -10.3475 -9.3995 -12.0116 -8.218 -9.357 -6.845 -5.397 
-7.785 -8.0345 -11.8703 -13.7012 -13.8295 -8.8225 -9.277501 -7.910001 -9.432 -8.894501 -8.639501 -8.6575 -7.2825 -12.2822 -13.7045 -14.1811 -13.0901 -9.656 -11.9307 -6.845 
-10.9281 -12.4022 -16.739 -15.3687 -14.138 -12.5691 -12.0239 -10.4936 -9.432 -11.7254 -10.1635 -9.788501 -12.2822 -15.6392 -18.4861 -15.2596 -14.5281 -12.2531 -11.9307 
-3.6705 -2.9995 -3.6445 0 -3.0365 -2.186 -1.934 -3.628 -5.4525 0 -3.0415 -5.4525 -2.186 -1.934 -1.4985 -2.5685 -3.6445 0 -2.847 -3.6445 -1.7695 -2.674 -1.8085 -5.4525 
-6.3065 -6.221 -3.6445 -3.0365 -3.66 -4.0835 -5.8665 -8.962 -5.4525 -3.0415 -9.5305 -7.3745 -4.0835 -2.6125 -4.907001 -6.7815 -3.6445 -2.847 -6.8465 -5.5045 -3.8225 -3.63 -7.2805 
-9.515501 -6.221 -6.648001 -3.66 -6.198 -8.137501 -11.9661 -8.962 -8.387001 -9.5305 -10.478 -9.687501 -4.6915 -5.379001 -8.908001 -6.7815 -6.766001 -6.8465 -8.673 -7.955 -4.546 -8.9495 
-9.515501 -8.8745 -7.211501 -6.198 -10.5745 -14.6237 -11.9661 -12.1147 -15.1456 -10.478 -12.791 -10.4135 -8.63 -9.974501 -8.908001 -9.702001 -8.2145 -8.673 -11.4093 -8.557 -10.0845 
-12.6608 -9.467 -9.9805 -10.5745 -17.0607 -14.6237 -15.1188 -18.8733 -16.0931 -12.791 -13.517 -14.352 -13.6187 -9.974501 -12.2475 -11.7863 -11.102 -11.4093 -12.0113 -14.2413 
