-4.759 
n/a 
n/a 
n/a 
n/a 
-4.759 
n/a 
n/a 
n/a 
n/a 
-4.759 
n/a 
n/a 
n/a 
n/a 
-4.759 
n/a 
n/a 
n/a 
n/a 
-3.0365 -2.7415 -2.847 -3.913 -2.0935 -3.9615 -4.1855 -2.3345 -3.486 -3.6765 0 -4.7475 -1.4985 -4.463 -2.6165 -4.8165 -2.5045 -4.2665 -2.871 0 
-4.2225 -4.8165 -6.5835 -5.3495 -5.317 -7.686501 -5.4115 -5.837 -6.017 -3.6765 -4.7475 -5.361001 -5.7145 -7.762001 -6.6175 -6.2845 -6.797501 -7.691 -2.871 
-4.944 -8.333 -7.6165 -8.564 -9.5045 -9.216001 -10.3285 -8.803 -6.017 -8.191501 -5.361001 -9.554001 -8.880501 -12.3758 -8.0325 -10.8689 -10.4595 -7.691 
-8.4495 -9.1335 -11.115 -13.1745 -10.759 -10.3685 -13.8079 -8.803 -9.7915 -8.736 -9.554001 -12.7666 -13.7323 -13.7908 -12.9867 -14.5309 -10.4595 
-9.1735 -12.7684 -15.7255 -14.429 -11.9115 -13.9497 -13.8079 -12.5867 -10.267 -12.9944 -12.7666 -17.6184 -15.1473 -18.745 -16.6487 -14.5309 
-1.7695 -3.4985 -1.7565 -4.498 -3.3715 -3.5215 -2.3615 -4.0305 -2.7415 -4.985 -3.5645 -4.2665 -3.402 -2.871 
-4.8425 -4.622 -5.902 -8.5245 -5.047 -5.774 -5.7405 -5.949 -6.901501 -8.955501 -6.931 -7.8055 -6.954 
-7.244 -8.5895 -9.657001 -9.787001 -7.060501 -9.7635 -6.9755 -11.1212 -11.3712 -12.551 -10.041 -11.5821 
-11.3361 -13.0949 -10.9735 -11.8265 -11.3088 -11.1159 -12.3389 -15.5909 -14.9667 -15.661 -13.8176 
-15.8415 -14.4114 -13.013 -16.0748 -12.6612 -16.4793 -16.8086 -19.1864 -18.0767 -19.4376 
-2.871 -2.7765 -3.8055 -3.3715 -4.498 -1.934 -2.3615 -3.2 -2.9705 -2.186 -2.6165 -12.16972 
-4.952 -5.4715 -7.0915 -7.7995 -6.1285 -3.539 -5.1915 -5.3775 -3.89 -3.5105 -16.29702 
-7.6515 -8.623001 -11.8495 -10.5635 -7.7515 -6.4325 -7.4795 -6.123 -5.319 -17.91282 
-10.7175 -13.4842 -14.6135 -12.1865 -10.1995 -8.620501 -8.028501 -7.6705 -19.92692 
-15.5787 -16.2482 -16.2365 -14.6345 -12.5277 -9.3125 -9.639 -22.47002 
-2.3615 -3.992 -4.463 -2.186 -4.1205 -2.5045 -2.6165 -4.2665 -2.5045 -3.0365 -2.186 -2.847 -4.4515 -3.935 -2.5195 -4.498 -3.693 
-6.0885 -6.257 -6.308001 -5.007 -5.3175 -5.4895 -7.0135 -7.595 -5.2585 -3.66 -4.1045 -6.314 -9.670501 -6.5455 -6.474 -7.956 
-8.999001 -8.283501 -9.304501 -6.317 -7.778501 -9.6805 -9.355 -10.3885 -5.7025 -4.256001 -6.935 -12.3306 -12.4478 -10.66 -9.3345 
-10.0715 -11.8198 -11.0423 -8.636001 -12.0441 -12.0656 -12.3063 -10.7295 -6.234 -6.9385 -13.958 -15.1079 -16.5623 -13.5205 
-13.6078 -13.5576 -13.3613 -13.0158 -14.4292 -15.0169 -12.6473 -11.261 -8.6545 -13.9749 -16.7353 -19.2224 -19.4228 
