-4.759 
n/a 
n/a 
n/a 
n/a 
-4.759 
n/a 
n/a 
n/a 
n/a 
-4.759 
n/a 
n/a 
n/a 
n/a 
-4.759 
n/a 
n/a 
n/a 
n/a 
-9.934 -4.889 -4.8115 0 -3.524 -2.8845 
-14.8778 -6.759501 -4.8115 -3.524 -4.616 
-16.7483 -6.759501 -8.696501 -4.616 
-16.7483 -10.4855 -10.0785 
-20.4743 -11.8675 
-9.934 -4.889 -4.8115 -1.934 -3.524 -2.8845 
-14.8778 -6.759501 -6.611 -5.012 -4.616 
-16.7483 -7.510001 -9.5045 -6.2815 
-17.4988 -10.1225 -10.9044 
-20.1113 -11.5224 
-1.934 -2.8845 0 -4.889 -4.8115 -1.934 -9.934 
-4.7805 -2.8845 -4.889 -6.759501 -6.611 -10.802 
-4.7805 -8.4825 -6.759501 -7.510001 -16.0672 
-10.3745 -9.4665 -7.510001 -17.4476 
-11.3585 -10.039 -17.4476 
-9.934 -4.889 -4.8115 -2.264 -3.524 -2.8845 
-14.8778 -6.759501 -6.8605 -4.855 -4.616 
-16.7483 -8.4995 -9.8125 -8.057501 
-18.4883 -10.703 -13.1096 
-20.6918 -14.0001 
