-4.759 
n/a 
n/a 
n/a 
n/a 
-4.759 
n/a 
n/a 
n/a 
n/a 
-4.759 
n/a 
n/a 
n/a 
n/a 
-4.759 
n/a 
n/a 
n/a 
n/a 
-5.127 -1.756 -6.216 -1.756 -1.4985 -4.98 -3.8655 -2.4945 -1.934 -1.4985 -11.0555 
-6.5575 -7.778 -7.6365 -3.0405 -6.3295 -10.932 -5.277 -4.2645 -2.6125 -13.6478 
-8.1645 -9.224501 -9.3675 -7.957 -12.8209 -12.3435 -7.107501 -4.935 -15.156 
-9.651001 -10.265 -14.3226 -14.542 -14.2324 -14.174 -8.047501 -17.8873 
-10.7893 -15.2201 -20.9076 -15.9535 -16.0629 -15.114 -21.3674 
-3.6835 -3.9515 -1.7695 -2.847 -5.654 -1.7695 -4.4535 -1.7695 -3.013 -5.651501 -3.335 -3.4765 -4.621 -3.158 -1.7565 -4.2485 -1.7695 -3.737 -3.335 -1.7565 -3.992 0 
-7.613501 -5.9375 -5.206 -9.404501 -8.287001 -6.542 -5.818 -3.7215 -8.529501 -7.665 -6.861001 -9.314501 -7.8255 -4.71 -5.969 -6.2815 -5.321 -8.183001 -5.6425 -5.7685 -3.992 
-9.861001 -9.561001 -10.749 -12.0695 -13.3519 -9.6825 -7.489501 -9.071501 -11.5695 -11.814 -13.2408 -13.0272 -9.161501 -9.854501 -8.219 -10.5858 -10.303 -9.734 -10.575 -5.7685 
-13.6587 -15.3722 -13.414 -17.1344 -16.4924 -11.354 -14.6111 -13.9539 -15.1073 -18.9064 -16.9535 -14.3632 -14.6224 -12.2971 -12.6321 -15.5678 -11.854 -14.6665 -10.575 
-19.4699 -18.0372 -18.4789 -20.2749 -18.1639 -18.4756 -18.6545 -17.2613 -22.0433 -22.6191 -18.2895 -19.8241 -17.065 -16.7102 -17.6141 -17.1188 -16.7865 -14.6665 
-2.6165 -3.098 -1.4985 -3.6835 -5.164 -3.152 -4.107 -2.0935 -1.4985 -3.6615 -1.934 -1.4985 -5.014 -3.518 -2.872 -1.934 -1.4985 -3.326 -3.9595 -1.934 -1.4985 -3.158 -4.621 -4.394 -4.4615 -1.4985 -3.922 -1.934 -1.4985 -3.518 -1.7565 -3.6605 -3.545 -5.173 -2.4945 -3.642 -3.299 0 
-4.283 -4.514 -4.7155 -5.399 -7.3125 -6.246 -4.239501 -2.9725 -4.9455 -4.437 -2.6125 -6.18 -8.469001 -6.031 -4.659 -2.6125 -4.841001 -8.3685 -5.166 -2.6125 -4.178 -6.9725 -9.2145 -6.6275 -5.238 -5.1995 -4.558 -2.6125 -4.77 -4.302 -5.3435 -6.163 -7.3065 -6.669001 -5.271501 -6.6025 -3.299 
-5.4775 -7.882 -7.250501 -7.5235 -9.953501 -6.2955 -4.794001 -6.644001 -5.731 -5.0245 -7.1715 -9.058001 -10.5975 -7.7345 -5.27 -5.8925 -9.5445 -9.816 -5.941 -5.265 -8.036501 -11.961 -11.6908 -7.5115 -8.719001 -5.415 -5.195 -6.25 -4.885 -8.0885 -7.574501 -7.3135 -8.7065 -10.1075 -7.8555 -6.6025 
-8.5605 -9.7705 -9.3345 -10.13 -10.0455 -6.826 -8.081 -7.455501 -6.1885 -8.3155 -10.2805 -11.4335 -12.301 -8.4255 -9.330501 -11.0164 -11.0344 -10.5355 -8.0415 -8.547001 -13.3788 -14.4373 -12.5748 -10.5975 -8.9755 -6.099 -7.163 -6.384501 -8.828501 -9.699 -7.8805 -8.712501 -12.5332 -12.6915 -7.8555 
-10.396 -11.9799 -12.0616 -10.265 -10.4525 -9.597 -8.632001 -7.955 -9.507001 -11.8825 -13.2544 -13.137 -12.992 -12.474 -14.5446 -12.5063 -11.7539 -12.636 -11.7865 -14.0239 -15.8551 -15.3213 -15.6608 -10.854 -9.4835 -8.116 -7.182 -10.513 -9.9835 -10.162 -9.5605 -12.5458 -15.1172 -12.6915 
-1.934 -4.621 -3.3715 -4.7995 -5.3835 -1.934 -6.001 -2.4285 -8.285501 -4.418 -2.674 -1.8085 -4.076 -4.3755 -1.7565 -2.985 -4.1705 -2.5195 -6.702 -2.3615 -3.908 -3.882 -1.4985 -3.9075 -2.229 -4.1705 -4.246 -4.767 -4.491 -1.934 -4.9935 -5.2325 
-5.789001 -8.3555 -7.143001 -8.651501 -6.245 -7.0345 -8.2465 -9.2255 -9.717001 -6.663 -3.63 -4.7005 -6.1225 -4.5345 -3.9355 -7.448 -5.8265 -8.177501 -9.144 -6.3045 -6.795 -4.821 -4.9185 -6.1 -6.88 -9.081 -7.724501 -10.007 -5 -6.9485 -7.8005 
-8.838 -12.249 -10.354 -9.002501 -10.389 -8.875501 -13.698 -10.633 -10.1335 -7.866 -5.825 -6.161 -6.1415 -6.269 -8.570001 -9.342501 -9.916 -10.31 -13.1882 -8.191 -7.654 -8.868001 -6.6115 -7.960501 -10.718 -10.75 -10.5975 -10.243 -8.837 -9.956 
-12.7627 -15.46 -10.554 -10.75 -12.23 -11.3615 -11.787 -12.197 -10.8375 -9.808001 -8.48 -6.177001 -7.4145 -9.951 -9.684 -10.734 -12.0485 -14.3542 -15.0747 -8.9255 -10.749 -10.375 -8.0835 -10.733 -10.786 -10.788 -10.6535 -14.08 -10.435 
-15.9737 -15.66 -12.3015 -12.591 -14.716 -12.383 -13.636 -12.9505 -12.696 -12.463 -8.499001 -7.436501 -10.3605 -10.423 -10.76 -12.8665 -16.0927 -16.2407 -15.8092 -10.76 -10.787 -10.772 -10.7595 -10.786 -10.7915 -10.844 -14.4905 -15.678 
