-4.759 
n/a 
n/a 
n/a 
n/a 
-4.759 
n/a 
n/a 
n/a 
n/a 
-4.759 
n/a 
n/a 
n/a 
n/a 
-4.759 
n/a 
n/a 
n/a 
n/a 
-2.4265 -2.186 -3.5795 -4.432 -4.328 -1.756 -2.8965 -5.0075 0 
-3.292 -7.236501 -8.147501 -4.899 -5.789 -3.751 -7.1445 -5.0075 
-8.6895 -12.3105 -9.021501 -6.1825 -7.727 -7.7075 -7.1445 
-13.9387 -13.1845 -10.4574 -7.941 -8.487 -7.7075 
-14.8127 -14.6204 -12.2159 -8.589001 -8.487 
-4.432 -4.328 -1.756 -2.8965 -4.328 -4.6805 -4.373 
-4.899 -5.789 -3.751 -7.6825 -9.855 -11.2233 
-6.1825 -7.727 -9.525001 -13.7675 -16.1036 
-7.941 -10.389 -15.9198 -20.0161 
-10.757 -17.014 -22.1684 
-4.432 -5.0075 0 -5.0075 -2.4945 -3.333 
-6.377501 -5.0075 -5.0075 -6.714 -4.3655 
-6.377501 -7.794001 -6.714 -8.908501 
-8.548 -9.318501 -8.908501 
-10.7059 -11.7692 
-7.900001 -1.756 -2.8965 -5.0075 -2.4945 -3.894 -3.9205 -2.5045 -5.0075 0 
-9.399 -3.751 -7.1445 -6.714 -6.557 -8.010501 -4.449 -7.294001 -5.0075 
-11.5586 -7.7075 -8.6905 -11.2743 -8.950001 -8.079 -9.590501 -7.294001 
-15.5151 -9.363001 -13.4148 -13.6673 -8.9845 -13.4519 -9.590501 
-17.1706 -14.1407 -15.8078 -13.7018 -14.4988 -13.4519 
