-4.759 
n/a 
n/a 
n/a 
n/a 
-4.759 
n/a 
n/a 
n/a 
n/a 
-4.759 
n/a 
n/a 
n/a 
n/a 
-4.759 
n/a 
n/a 
n/a 
n/a 
-9.362 -3.098 -3.6215 -5.581 -3.1385 -4.3845 -2.3335 -3.6885 0 -1.4985 -4.4525 -3.7855 -1.7695 -2.3335 -3.6885 -2.3345 -1.4985 -3.1385 -2.186 -3.383 -3.4915 
-12.9232 -6.6005 -8.662001 -8.471001 -6.563001 -6.99 -6.1295 -3.6885 -1.4985 -4.731 -7.401501 -4.793 -4.46 -6.1295 -6.29 -3.233 -4.2575 -5.6995 -4.438 -4.8075 
-16.4257 -12.1794 -9.959001 -12.0583 -9.269001 -8.2205 -6.1295 -5.7115 -4.731 -7.830501 -7.6305 -7.310501 -6.953 -8.761001 -7.519 -5.869 -6.807 -7.740001 -5.8945 
-22.0046 -13.4764 -13.7169 -14.7643 -10.2705 -8.2205 -7.649 -8.377501 -7.830501 -7.9085 -10.2035 -10.3605 -10.2225 -9.590001 -10.223 -8.076 -8.8885 -9.156 
-23.3016 -17.2343 -16.4229 -15.7658 -10.2705 -9.7805 -10.7326 -11.8358 -7.9085 -10.4585 -13.2535 -13.63 -10.6545 -12.3942 -12.43 -10.5745 -10.3535 
-2.3335 -3.6885 -4.9225 -3.098 -6.202001 -2.872 0 -4.9225 -1.7695 -3.6845 -4.1545 -1.7695 -3.6885 -1.756 -4.9225 -2.645 -1.756 -2.645 
-6.1295 -9.459001 -8.4415 -7.6205 -7.856 -2.872 -4.9225 -6.814 -4.2695 -7.514 -4.5375 -6.228001 -5.041 -6.4555 -8.0625 -4.776 -3.898 
-12.6672 -13.0568 -12.4705 -10.5545 -7.76 -8.547001 -6.814 -9.309 -8.116 -7.904 -8.3475 -7.2875 -9.920501 -9.365 -10.126 -5.009 
-16.265 -17.0858 -14.842 -10.025 -13.9782 -10.5367 -9.309 -13.3353 -8.358001 -12.1264 -9.2335 -12.5526 -12.8538 -11.7005 -10.1825 
-20.294 -19.4573 -14.842 -16.2904 -15.9679 -13.0317 -13.3353 -13.5773 -12.7284 -13.0124 -14.5672 -15.4859 -15.1893 -11.757 
-1.4985 -3.1385 -4.3845 -2.3335 -3.6885 -2.4945 -6.202001 -1.934 -3.264 0 -1.4985 -4.1545 -3.7855 -1.7695 -2.3335 -3.6885 -1.756 -3.45 -3.1385 -1.756 -1.4985 -4.5005 -2.4945 -3.383 -3.776 0 
-4.2575 -6.563001 -6.99 -6.1295 -6.529 -8.068001 -6.739 -5.6545 -3.264 -1.4985 -5.967501 -7.822001 -4.793 -4.46 -6.1295 -5.041 -4.834 -5.45 -4.6325 -3.0405 -5.91 -6.860001 -4.732 -5.936501 -3.776 
-6.956 -9.269001 -8.2205 -8.726501 -12.2624 -9.677501 -9.8675 -5.6545 -5.464 -5.967501 -8.562 -8.0775 -7.310501 -6.953 -7.564001 -8.245001 -7.0645 -7.02 -5.789001 -7.4345 -8.672501 -9.623001 -7.263 -5.936501 
-10.208 -10.2705 -10.532 -14.6527 -14.0994 -12.365 -9.403501 -7.408501 -10.534 -8.562 -8.689501 -10.733 -10.3605 -9.1425 -9.9055 -10.5975 -9.021501 -8.2895 -10.0155 -10.5188 -11.8781 -12.1792 -7.263 
-11.2095 -12.582 -16.4582 -16.4897 -16.9501 -12.5182 -10.8822 -12.6541 -13.1285 -8.689501 -11.4794 -13.783 -12.55 -11.5934 -12.258 -12.5545 -10.3225 -12.728 -13.3604 -13.7244 -14.4343 -12.1792 
-3.929 -2.3335 -3.6885 -4.468 -2.4945 -5.581 -1.4985 -3.7855 -4.4525 -1.7695 -2.3335 -3.6885 -1.756 -1.7695 -3.277 0 
-5.62 -6.1295 -7.1295 -6.2605 -8.977501 -8.1435 -5.094501 -8.1905 -5.610001 -4.46 -6.1295 -5.041 -3.963 -4.619 -3.277 
-9.474 -10.4265 -8.8265 -13.1917 -11.8764 -11.9861 -10.341 -8.962501 -8.116 -6.953 -7.564001 -7.2 -7.189 -4.619 
-14.0244 -12.1235 -15.9303 -16.0906 -15.719 -17.2326 -11.113 -11.5145 -10.9424 -9.1425 -9.345501 -10.6735 -7.189 
-15.7214 -19.2273 -18.8292 -19.9332 -20.9655 -18.0046 -13.665 -14.3409 -13.1319 -10.688 -12.9182 -10.6735 
