-4.759 
n/a 
n/a 
n/a 
n/a 
-4.759 
n/a 
n/a 
n/a 
n/a 
-4.759 
n/a 
n/a 
n/a 
n/a 
-4.759 
n/a 
n/a 
n/a 
n/a 
-3.4225 -3.468 -4.834 -3.5435 -3.9235 0 -2.3615 -4.3915 -1.7695 -3.2495 -3.959 -4.563 -3.135 -2.8965 -3.8035 
-3.628 -7.299 -8.9265 -6.641 -3.9235 -2.3615 -7.846001 -5.3125 -5.112 -5.837 -8.2155 -7.5795 -4.9085 -5.822001 
-9.8465 -13.7499 -12.458 -6.641 -6.3555 -7.846001 -9.022 -10.2182 -8.503501 -9.634501 -11.7576 -9.5445 -7.6545 
-16.3712 -17.2814 -12.458 -9.3155 -12.4026 -9.022 -13.9389 -13.6097 -12.4652 -13.395 -13.7226 -12.3395 
-19.9027 -17.2814 -15.1325 -15.4064 -13.5786 -13.9389 -17.3304 -17.5714 -16.2257 -15.36 -16.5176 
-1.4985 -3.4225 -4.39 -2.186 -1.8085 -3.354 -2.925 -4.5875 -1.7565 -3.849 -4.6555 -1.934 -1.4985 -3.188 -2.4265 -2.7415 -5.7095 -2.356 -1.4985 -4.4905 -1.7565 -5.5045 -4.461 -3.458 -3.959 -3.3255 -1.4985 -7.6815 -1.7565 -4.7895 -4.9185 -6.688 -1.4985 -4.656 -1.7565 -1.8085 -3.8275 
-3.9655 -4.7525 -6.5775 -3.164 -4.614 -4.3775 -8.303501 -6.3375 -5.0295 -7.611501 -6 -2.6125 -3.619 -5.508 -3.681 -6.783501 -7.854501 -3.1615 -5.2295 -5.283501 -6.596001 -8.3435 -5.147 -6.375501 -6.6665 -3.8945 -8.554501 -8.946501 -6.214 -9.300501 -8.646001 -7.582 -4.866 -4.96 -3.2595 -5.421 
-5.0455 -6.985 -7.6515 -5.791 -6.735 -8.637501 -9.203501 -8.835501 -8.7665 -8.699 -6.556001 -4.377 -5.7115 -6.725 -8.014501 -8.5985 -8.334001 -5.8685 -5.3985 -9.305501 -8.7375 -9.198001 -7.469 -8.842501 -7.3685 -10.264 -9.1245 -13.4176 -10.733 -13.126 -9.279 -9.595501 -5.0375 -5.9905 -6.6005 
-7.0075 -8.154 -10.5143 -7.8765 -10.6735 -9.455501 -11.6655 -12.6357 -9.7165 -9.107501 -8.002001 -6.2025 -6.927501 -10.66 -10.0995 -8.998501 -9.846001 -5.9445 -9.400001 -11.6762 -9.7845 -11.7538 -10.6735 -9.754001 -14.1264 -10.726 -13.6306 -17.9366 -14.5585 -13.759 -10.7585 -9.6785 -6.053 -8.668 
-8.213 -11.1552 -12.5998 -12.0924 -11.4915 -11.9185 -15.4657 -13.5857 -10.0365 -10.8415 -9.910001 -7.395501 -10.702 -12.745 -10.694 -10.3545 -9.904501 -9.458501 -11.8003 -12.7232 -12.3653 -14.9583 -11.585 -16.5763 -14.5884 -15.2321 -18.1496 -21.7621 -15.1915 -15.2385 -10.8415 -10.071 -8.736 
-4.6315 -3.959 
-8.752501 
n/a 
n/a 
n/a 
-7.7965 -4.1265 -4.5675 -2.186 -1.8085 -5.713 -1.7565 -2.5685 -3.5435 0 -2.4265 -2.186 -5.189 -1.7695 -3.908 -5.764 -3.9225 -3.135 -3.989 -3.5445 -1.4985 -3.959 -1.934 -5.149 -4.412 -3.4945 -3.0785 -1.7565 -3.8275 0 
-12.5052 -8.8925 -6.2415 -3.164 -8.255501 -7.025001 -3.938 -6.308001 -3.5435 -2.4265 -3.292 -6.329 -6.9295 -5.3245 -8.757001 -8.133501 -6.3605 -5.502 -7.2415 -4.002 -5.5 -5.2625 -6.9555 -7.7145 -6.5585 -6.7295 -5.1815 -4.8265 -3.8275 
-17.2712 -10.5975 -7.39 -9.743501 -8.935 -9.8855 -7.151501 -6.308001 -5.903 -3.292 -7.585001 -7.9645 -10.586 -10.4675 -11.6833 -9.494 -10.609 -9.8125 -7.695 -7.769001 -6.4555 -9.913 -9.5175 -9.5535 -10.172 -8.219501 -9.666 -4.8265 
-18.9762 -11.746 -14.4819 -10.145 -11.8247 -13.099 -7.151501 -8.976001 -6.656 -7.585001 -9.3415 -11.9126 -15.729 -13.3938 -13.0438 -13.8285 -14.9195 -10.319 -11.7106 -8.870501 -11.8784 -12.7444 -11.3565 -13.3736 -11.872 -10.7595 -9.666 
-20.1247 -18.8379 -14.8834 -13.0347 -15.0382 -13.099 -9.654 -10.1265 -10.733 -9.3415 -13.3434 -17.0556 -18.6553 -14.7543 -17.3783 -18.139 -15.426 -14.3346 -12.8121 -14.41 -14.7098 -14.5834 -15.1766 -15.0736 -14.412 -10.7595 
