-4.759 
n/a 
n/a 
n/a 
n/a 
-4.759 
n/a 
n/a 
n/a 
n/a 
-4.759 
n/a 
n/a 
n/a 
n/a 
-4.759 
n/a 
n/a 
n/a 
n/a 
-3.9745 0 -3.3195 0 -4.6035 -1.7565 -3.177 -5.1845 -2.871 -3.355 -1.7565 -4.6035 -2.186 -2.9645 -2.264 -5.1845 -3.1385 -2.229 
-3.9745 -3.3195 -3.3195 -4.6035 -6.306001 -5.4585 -8.573 -8.123 -5.7015 -3.725 -6.3015 -6.672 -6.4285 -5.2985 -7.422001 -7.4095 -4.6125 
-7.455 -3.3195 -6.671 -6.306001 -9.923 -10.2755 -12.0867 -12.0103 -5.995 -9.132 -8.2745 -11.2725 -8.2305 -11.0891 -9.650001 -9.0015 
-7.455 -6.671 -9.446501 -9.923 -15.1214 -13.9822 -15.974 -12.3038 -11.8522 -10.7185 -12.9486 -13.0745 -14.9181 -13.3171 -11.3406 
-10.4265 -9.446501 -13.2861 -15.1214 -18.8281 -17.8695 -16.2675 -18.161 -13.4387 -15.3926 -14.7506 -19.7621 -17.1461 -15.0077 
-2.5045 -1.8085 -3.355 -1.7565 -1.4985 -3.54 -4.017 -1.7565 -5.1845 -3.9205 -2.5045 -1.4985 -8.506001 0 -7.3625 0 -9.864 0 -1.4985 -3.594 -1.7565 -4.6035 0 -9.864 0 -2.186 -3.4625 -5.487 -2.3345 -1.4985 -5.1845 -3.1385 -3.401 -2.5195 -1.4985 -4.5735 -3.8405 0 
-3.3625 -4.6195 -3.725 -2.4195 -4.529 -6.718 -4.8305 -6.580501 -10.1425 -4.449 -3.583 -10.1855 -8.506001 -7.3625 -7.3625 -9.864 -9.864 -1.4985 -4.568 -4.857 -6.3015 -4.6035 -9.864 -9.864 -2.186 -4.4835 -7.2935 -6.468 -3.233 -6.5205 -7.4095 -6.8145 -5.304 -3.1695 -5.271 -7.679 -3.8405 
-5.6285 -4.725 -4.0515 -5.1905 -7.5055 -7.058001 -9.854501 -12.3815 -10.3225 -5.019001 -12.442 -10.1855 -9.683001 -7.3625 -17.6231 -9.864 -11.4789 -4.568 -5.042 -8.625 -6.3015 -15.4901 -9.864 -12.1664 -4.4835 -7.9525 -8.0985 -7.104501 -7.917 -7.6315 -11.4619 -8.418501 -5.943 -6.6455 -8.1355 -7.679 
-5.6725 -5.0485 -7.495 -7.972001 -7.7175 -12.208 -15.7007 -12.5615 -10.8925 -13.8582 -12.442 -11.3625 -9.683001 -17.6231 -17.6231 -11.4789 -14.5484 -5.042 -8.811501 -8.625 -17.6141 -15.4901 -12.1664 -14.4639 -7.9525 -8.812 -8.7015 -12.1209 -9.355 -11.8431 -13.0659 -8.795 -9.646501 -8.898 -8.1355 
-6.078 -8.8075 -10.759 -8.200001 -13.0289 -18.0542 -15.8807 -13.1315 -19.7317 -13.8582 -13.619 -11.3625 -20.4666 -17.6231 -19.238 -14.5484 -15.0224 -8.811501 -8.811501 -20.27 -17.6141 -17.7925 -14.4639 -17.9329 -8.812 -9.5775 -13.7929 -13.5589 -13.6338 -13.4471 -13.4424 -12.7493 -12.2522 -8.898 
-8.27 -4.174 -2.645 -3.699 -1.7695 -3.594 -1.7565 -4.6035 -2.3345 -3.7855 -4.281 -1.7695 -1.4985 -3.54 -5.1845 -2.5045 -4.1465 -3.3195 0 -4.6035 
-12.8708 -6.5105 -5.093 -4.585 -5.965001 -4.857 -6.3015 -6.927501 -6.8715 -8.265 -5.7715 -2.7955 -4.529 -8.802 -8.093 -7.236501 -5.6825 -3.3195 -4.6035 
-15.2073 -10.304 -6.033501 -9.294001 -7.8395 -8.625 -8.597 -11.9001 -11.9956 -10.451 -6.154 -6.102 -9.677 -11.9581 -13.235 -8.294001 -5.6825 -6.671 
-19.0008 -10.743 -10.702 -11.2799 -12.0783 -10.147 -13.743 -17.0242 -14.1816 -10.8335 -9.8275 -11.3878 -13.0033 -17.1001 -14.2925 -8.294001 -7.870501 
-19.4398 -15.4115 -12.6879 -15.5187 -13.6003 -16.1146 -18.8671 -19.2102 -14.5641 -14.507 -15.2723 -14.7141 -18.1453 -18.1576 -14.2925 -10.1945 
-4.4165 -1.4985 -3.594 -1.7565 -4.6035 -2.871 -3.9225 -1.4985 -3.54 -3.9035 -1.7565 -5.1845 0 -8.506001 0 -7.3625 0 -9.4055 0 -8.27 -2.4945 -4.077 -1.934 -1.4985 -3.594 -1.7565 -4.6035 -3.5065 -4.193 0 
-5.3005 -4.568 -4.857 -6.3015 -7.706501 -6.554 -4.463 -4.529 -6.125501 -4.616 -6.580501 -5.1845 -8.506001 -8.506001 -7.3625 -7.3625 -9.4055 -9.4055 -8.27 -9.5465 -5.416 -4.43 -2.6125 -4.568 -4.857 -6.3015 -8.019501 -7.157001 -4.193 
-8.6485 -5.042 -8.625 -9.271501 -11.8649 -7.095 -6.5325 -7.2555 -7.047501 -8.771501 -6.580501 -10.985 -8.506001 -9.683001 -7.3625 -10.703 -9.4055 -17.8571 -9.5465 -12.5014 -5.615 -4.9635 -5.6195 -5.042 -8.625 -9.258 -10.119 -7.157001 
-8.984 -8.811501 -11.9274 -13.5431 -12.4059 -8.7665 -9.616501 -7.4575 -11.4966 -8.771501 -13.224 -10.985 -9.683001 -9.683001 -10.703 -10.703 -17.8571 -19.1336 -12.5014 -12.7004 -6.219501 -8.198 -6.238501 -8.811501 -11.9139 -11.4009 -10.119 
-13.0325 -12.1331 -16.199 -14.0841 -14.0774 -11.9965 -9.8175 -12.1584 -11.4966 -16.8034 -13.224 -12.162 -9.683001 -10.7355 -10.703 -19.1546 -19.1336 -22.0885 -12.7004 -13.3049 -9.636001 -8.703501 -10.159 -12.1196 -14.0568 -11.4009 
