-4.759 
n/a 
n/a 
n/a 
n/a 
-4.759 
n/a 
n/a 
n/a 
n/a 
-4.759 
n/a 
n/a 
n/a 
n/a 
-4.759 
n/a 
n/a 
n/a 
n/a 
-3.8735 -2.674 -3.6135 -4.167 -5.802 0 -5.0565 0 -4.883 0 -5.3885 0 -5.311 0 -8.630501 0 -12.16972 0 
-6.702 -6.306 -6.365 -9.215 -5.802 -5.0565 -5.0565 -4.883 -4.883 -5.3885 -5.3885 -5.311 -5.311 -8.630501 -8.630501 -12.16972 -12.16972 
-10.4675 -9.488501 -12.0388 -9.215 -8.416 -5.0565 -7.079 -4.883 -7.692 -5.3885 -7.466001 -5.311 -14.8641 -8.630501 -22.19242 -12.16972 
-13.65 -15.4071 -12.0388 -10.576 -8.416 -7.079 -7.079 -7.692 -7.692 -7.466001 -7.466001 -14.8641 -14.8641 -22.19242 -22.19242 
-19.5686 -15.4071 -13.3998 -10.576 -10.107 -7.079 -8.307501 -7.692 -8.630501 -7.466001 -17.8215 -14.8641 -28.42602 -22.19242 
-5.6395 0 -5.0565 0 -4.883 0 -5.3885 0 -5.4995 0 -7.27 -2.4945 -2.871 -1.7565 -1.4985 -4.4665 -3.2875 -1.934 -3.8735 
-5.6395 -5.0565 -5.0565 -4.883 -4.883 -5.3885 -5.3885 -5.4995 -5.4995 -7.27 -10.3225 -5.2405 -3.5385 -2.4195 -4.729 -7.0655 -5.248 -4.885 
-7.104 -5.0565 -7.079 -4.883 -7.692 -5.3885 -7.377 -5.4995 -9.567 -10.3225 -13.0685 -5.4455 -3.7675 -5.4655 -7.4375 -7.455 -7.7875 
-7.104 -7.079 -7.079 -7.692 -7.692 -7.377 -7.377 -9.567 -13.1045 -13.0685 -13.2735 -5.5535 -5.6445 -8.795501 -7.628 -10.0215 
-9.294001 -7.079 -8.307501 -7.692 -8.4385 -7.377 -12.1605 -13.1045 -15.8505 -13.2735 -13.3815 -7.4635 -9.217 -9.095 -10.2175 
-2.871 -1.7565 -1.4985 -3.17 -4.4665 -4.167 -1.934 -3.8735 -2.7415 -5.802 0 -5.0565 0 -4.883 0 -5.3885 0 -6.659 0 -5.4995 0 -5.817 0 
-3.5385 -2.4195 -3.7115 -8.293501 -7.068 -5.437 -4.885 -6.64 -9.543501 -5.802 -5.0565 -5.0565 -4.883 -4.883 -5.3885 -5.3885 -6.659 -6.659 -5.4995 -5.4995 -5.817 -5.817 
-3.7675 -4.4355 -8.501 -10.4345 -7.785 -7.276501 -7.357501 -13.6952 -9.543501 -8.416 -5.0565 -7.079 -4.883 -7.692 -5.3885 -8.401 -6.659 -8.922001 -5.4995 -7.132501 -5.817 
-4.622 -9.1265 -10.5325 -11.4575 -10.1585 -10.442 -14.5075 -13.6952 -12.2033 -8.416 -7.079 -7.079 -7.692 -7.692 -8.401 -8.401 -8.922001 -8.922001 -7.132501 -7.132501 
-9.24 -10.6885 -11.6009 -13.831 -13.324 -17.592 -14.5075 -16.355 -12.2033 -10.107 -7.079 -8.307501 -7.692 -9.582001 -8.401 -9.724501 -8.922001 -10.3965 -7.132501 
-3.8735 -2.229 -3.6135 -4.167 -1.7565 -6.8505 0 -5.0565 0 -4.883 0 -5.3885 0 -5.311 0 -5.838 -4.414 0 -1.756 -3.074 -7.27 0 
-5.3655 -5.2915 -6.365 -5.5915 -9.2535 -6.8505 -5.0565 -5.0565 -4.883 -4.883 -5.3885 -5.3885 -5.311 -5.311 -5.838 -9.3985 -4.414 -1.756 -4.566 -11.3444 -7.27 
-8.515 -7.9845 -7.937 -14.0531 -9.2535 -8.797 -5.0565 -7.079 -4.883 -7.692 -5.3885 -7.466001 -5.311 -12.0716 -9.3985 -9.3985 -5.685 -4.566 -13.0224 -11.3444 
-9.308001 -10.31 -16.8788 -14.0531 -11.36 -8.797 -7.079 -7.079 -7.692 -7.692 -7.466001 -7.466001 -12.0716 -15.6321 -9.3985 -11.2857 -8.8885 -13.0224 -13.0224 
-11.8153 -19.4894 -16.8788 -16.1596 -11.36 -10.7335 -7.079 -8.307501 -7.692 -8.630501 -7.466001 -15.029 -15.6321 -15.6321 -11.2857 -14.4892 -17.4877 -13.0224 
