-4.759 
n/a 
n/a 
n/a 
n/a 
-4.759 
n/a 
n/a 
n/a 
n/a 
-4.759 
n/a 
n/a 
n/a 
n/a 
-4.759 
n/a 
n/a 
n/a 
n/a 
-4.749 -4.7175 -3.5455 -3.75 -5.8225 -5.535 -2.4945 -4.174 -4.4545 -1.7695 -1.4985 -3.2875 0 
-9.552 -8.032001 -5.228001 -8.134001 -7.127 -7.379001 -8.5275 -8.910501 -6.606501 -2.7955 -4.127 -3.2875 
-13.1007 -10.172 -8.238501 -9.908001 -8.865001 -13.9822 -13.351 -9.778001 -7.599501 -5.376 -4.127 
-15.2407 -13.1825 -9.992001 -11.8136 -15.5946 -18.8057 -14.2185 -10.4975 -9.874001 -5.376 
-18.2512 -14.936 -11.9386 -18.5432 -20.4181 -19.6732 -14.938 -12.772 -9.874001 
-3.502 -3.75 -5.8225 0 -5.0835 -3.5455 -3.641 -5.8225 -4.537 -4.4545 -1.7695 -1.4985 -3.2875 0 
-5.0795 -8.134001 -5.8225 -5.0835 -9.602001 -5.18 -7.812 -8.665501 -8.065001 -6.606501 -2.7955 -4.127 -3.2875 
-9.162001 -8.134001 -11.8384 -9.602001 -11.4267 -9.227501 -9.6785 -9.4475 -8.788 -7.599501 -5.376 -4.127 
-9.162001 -14.5319 -16.3569 -11.4267 -15.4742 -11.1396 -10.0335 -9.8395 -9.2775 -9.874001 -5.376 
-15.7149 -19.0504 -18.1816 -15.4742 -17.3863 -11.4946 -10.3685 -9.8745 -11.8002 -9.874001 
-1.4985 -3.5455 -3.641 -5.8225 -1.756 -4.749 -8.7895 -4.537 -4.4545 -1.7695 -1.4985 -3.2875 0 
-4.554 -5.18 -7.812 -7.4225 -6.0335 -14.8573 -13.5883 -8.065001 -6.606501 -2.7955 -4.127 -3.2875 
-5.9525 -9.227501 -9.235001 -12.1488 -16.9154 -19.6561 -17.1163 -8.788 -7.599501 -5.376 -4.127 
-9.3465 -10.6225 -14.0985 -23.0307 -21.7142 -23.1841 -17.8393 -9.2775 -9.874001 -5.376 
-10.689 -15.486 -24.9804 -27.8295 -25.2422 -23.9071 -18.3288 -11.8002 -9.874001 
-3.2875 -4.2985 -2.5045 -4.4545 -2.0935 -7.252 -3.9945 -4.4545 0 -4.7175 -3.5455 -3.641 -3.9945 -4.4545 
-8.931001 -6.852 -7.460501 -6.6915 -7.328 -10.1805 -9.4515 -4.4545 -4.7175 -8.032001 -5.18 -8.720001 -9.4515 
-11.5711 -12.3268 -9.612501 -10.79 -12.12 -16.1103 -9.4515 -8.034 -8.032001 -9.645 -10.4945 -14.3996 
-17.0459 -14.4788 -14.5794 -17.801 -18.944 -16.1103 -13.1614 -10.76 -9.645 -15.3589 -16.1741 
-19.1979 -19.4457 -21.1486 -23.4438 -18.944 -19.8202 -15.8874 -12.373 -15.3589 -21.0385 
