-4.759 
n/a 
n/a 
n/a 
n/a 
-4.759 
n/a 
n/a 
n/a 
n/a 
-4.759 
n/a 
n/a 
n/a 
n/a 
-4.759 
n/a 
n/a 
n/a 
n/a 
-3.788 -5.2025 -6.4275 -2.674 -4.896 -1.4985 -5.3265 -3.0695 -2.4945 -4.67 -2.688 -3.502 -4.4925 
-6.8365 -12.75 -8.4965 -7.056001 -6.111501 -6.468 -6.7405 -4.2085 -6.219501 -7.038 -5.0815 -5.05 
-14.5166 -14.819 -12.9841 -7.5635 -11.7248 -7.541 -7.680501 -7.4835 -8.603001 -9.3675 -5.102 
-16.5856 -19.3066 -13.4916 -13.267 -12.7978 -8.613 -11.2525 -10.044 -11.0843 -9.3745 
-21.0732 -19.8141 -19.1951 -14.34 -13.8698 -12.3314 -13.813 -12.5253 -11.0913 
-3.788 -3.0365 -2.7415 -2.664 -4.8565 -2.0935 -1.4985 -4.87 -1.7695 -3.6955 -3.222 -1.4985 -3.59 -2.9705 -2.7415 -4.69 -1.934 -5.451 0 
-6.099 -4.2225 -4.6625 -6.6155 -7.136 -2.9725 -5.68 -6.9095 -4.452 -5.343 -3.7835 -4.268 -6.172 -4.512 -6.2025 -6.144 -6.6265 -5.451 
-8.070001 -5.384 -8.528501 -9.239 -7.863 -7.2795 -7.149001 -9.7215 -6.1365 -6.122 -6.3165 -6.6505 -7.5675 -8.191 -7.373 -11.4245 -6.6265 
-9.3885 -9.0935 -11.3878 -9.744 -12.4462 -8.066501 -9.808001 -11.798 -6.824501 -7.9545 -8.428 -8.028 -11.4265 -9.151501 -13.1107 -11.4245 
-13.2086 -12.1098 -11.8928 -14.559 -13.2332 -11.0749 -11.8873 -12.486 -8.445001 -10.5525 -9.9665 -11.9212 -12.387 -15.03 -13.1107 
-3.788 -3.8245 -4.9225 -3.935 -1.7695 -3.6515 -1.7695 -3.502 -8.226501 -2.5045 -1.8085 -5.3265 0 
-7.1125 -8.9335 -9.400001 -5.7105 -6.2215 -3.9135 -5.535 -13.2271 -11.136 -3.3625 -8.4565 -5.3265 
-13.3957 -13.5762 -11.3345 -10.6335 -6.783 -7.675 -15.7637 -16.1366 -11.994 -9.918001 -8.4565 
-18.0384 -15.5107 -16.2575 -11.195 -9.8645 -18.5489 -18.6732 -16.9946 -18.5495 -9.918001 
-19.9729 -20.4337 -16.819 -14.2765 -20.865 -21.4584 -19.5312 -23.5501 -18.5495 
-3.788 -1.7695 -3.3165 -1.4985 -4.969 -4.809 -1.7695 -2.688 -3.502 -8.226501 -1.756 -3.563 -1.4985 -5.3265 -4.893 0 
-6.661 -4.0585 -5.419001 -6.6545 -10.9794 -6.198 -4.698 -5.0815 -13.2271 -10.0785 -5.2 -5.088 -6.468 -10.1595 -4.893 
-8.373501 -5.947001 -10.9414 -13.5511 -12.3684 -9.68 -7.351 -16.3838 -15.0791 -13.5225 -6.3085 -9.5495 -11.7208 -10.1595 
-10.1465 -11.746 -17.838 -14.9401 -15.8504 -12.4866 -18.8965 -18.2358 -18.5231 -14.631 -10.467 -15.2113 -11.7208 
-15.9455 -18.6426 -19.227 -18.4221 -18.657 -24.0321 -20.7485 -21.6798 -19.6316 -18.7895 -16.3166 -15.2113 
