-4.759 
n/a 
n/a 
n/a 
n/a 
-4.759 
n/a 
n/a 
n/a 
n/a 
-4.759 
n/a 
n/a 
n/a 
n/a 
-4.759 
n/a 
n/a 
n/a 
n/a 
-1.4985 -4.726 -3.2 -2.8645 -1.4985 -3.401 -1.7695 -6.745 -1.4985 -3.5435 -2.229 -4.179 -2.3335 -3.013 -2.6165 -5.247 -1.4985 -4.868 -3.5035 0 
-5.6165 -6.1545 -5.436 -4.3545 -3.9525 -4.275 -7.144501 -7.290501 -4.2755 -4.973001 -5.8005 -5.7535 -5.0225 -3.724 -7.0755 -7.3055 -5.6315 -5.93 -3.5035 
-6.5335 -8.019501 -6.858 -5.597 -4.539001 -8.461 -7.557001 -10.163 -5.2255 -8.5635 -8.116 -7.913001 -5.175 -7.606 -8.55 -11.9123 -7.571001 -5.93 
-8.3325 -9.639501 -8.901 -5.7075 -8.5465 -8.944501 -10.2915 -10.305 -8.981501 -10.248 -10.476 -8.077001 -8.5705 -9.8065 -13.2382 -13.8518 -7.571001 
-9.896501 -11.8503 -9.226501 -9.338 -9.085501 -12.0576 -10.4765 -14.061 -10.485 -12.608 -10.732 -11.7819 -11.28 -14.5489 -15.1777 -13.8518 
-1.4985 -4.726 -3.2 -2.8645 -1.4985 -3.2895 -1.7695 -4.0135 -1.4985 -4.179 -2.9705 -3.4405 -2.6165 -6.551 -1.4985 -3.5435 -3.2 0 
-5.6165 -6.1545 -5.436 -4.3545 -4.862 -4.985001 -4.613 -4.874 -5.087 -6.2665 -5.5315 -3.7415 -9.984 -7.005 -4.2755 -6.713 -3.2 
-6.5335 -8.019501 -6.858 -7.2805 -5.677 -7.5845 -5.369 -9.3885 -7.2665 -9.664501 -5.6585 -12.5642 -10.6126 -10.1465 -7.815001 -6.713 
-8.3325 -9.639501 -10.757 -7.471 -8.537001 -9.222501 -9.9975 -10.7585 -10.4755 -9.739 -14.6226 -13.1928 -13.7541 -13.805 -7.815001 
-9.896501 -13.7063 -10.9475 -10.513 -10.0445 -13.9972 -11.4113 -13.9675 -10.5175 -18.9045 -15.2512 -16.3343 -17.4126 -13.805 
-3.9655 -3.5035 -2.9705 -2.4945 -2.6165 -4.3895 -2.4945 -4.465 -2.3345 -4.352 -3.6215 0 
-7.343 -5.9165 -4.302 -3.8065 -6.282001 -7.6555 -6.062 -5.2135 -6.937 -9.194 -3.6215 
-10.223 -7.596001 -5.338 -7.157001 -9.566501 -11.514 -6.2845 -10.5035 -12.3298 -9.194 
-11.9025 -8.7545 -9.219501 -9.9405 -13.4962 -11.7365 -11.9323 -15.8963 -12.3298 
-13.061 -12.8646 -12.6316 -13.944 -13.7187 -17.3843 -17.3251 -15.8963 
-4.726 -3.2 -2.8645 -1.4985 -3.519 -1.7695 -5.4355 -1.4985 -3.5035 -2.9705 -3.4405 -5.651501 -3.8185 -1.4985 -4.868 -3.5035 0 
-6.1545 -5.436 -4.3545 -4.426001 -4.761 -5.6925 -6.079 -4.4895 -5.9165 -5.5315 -9.1385 -8.176001 -4.662 -5.6315 -5.93 -3.5035 
-8.019501 -6.858 -6.0545 -5.072001 -7.983 -6.3335 -8.9945 -6.7255 -8.1315 -10.053 -12.0105 -9.763501 -9.01 -7.571001 -5.93 
-9.639501 -8.819 -6.1585 -8.251 -8.609 -9.717501 -11.8843 -9.113501 -12.9847 -12.679 -11.8845 -14.6845 -11.1809 -7.571001 
-11.7683 -8.9475 -8.847 -8.7915 -12.3138 -12.7643 -14.2723 -14.0437 -15.7342 -14.104 -15.9935 -16.8554 -11.1809 
