-4.759 
n/a 
n/a 
n/a 
n/a 
-4.759 
n/a 
n/a 
n/a 
n/a 
-4.759 
n/a 
n/a 
n/a 
n/a 
-4.759 
n/a 
n/a 
n/a 
n/a 
-1.4985 -3.188 -3.189 -3.9235 -4.85 -1.4985 -5.214 -3.189 -3.456 -3.2 -1.934 -3.533 -2.5045 -3.0835 -1.934 -5.629 0 -2.872 -5.961 -1.934 -4.0865 -3.6615 0 
-3.619 -5.4315 -5.56 -8.6225 -6.434501 -4.6085 -5.9185 -4.0715 -5.5235 -4.9415 -5.0615 -6.197001 -5.9195 -5.265 -7.767 -5.629 -2.872 -9.7775 -7.790501 -6.0895 -6.094501 -3.6615 
-5.8645 -5.6215 -9.0555 -9.172501 -8.889501 -7.01 -7.4665 -5.6165 -6.794 -8.048 -6.855 -9.552 -7.9575 -9.788 -7.767 -8.252501 -9.7775 -9.885501 -9.2375 -7.889001 -6.094501 
-5.984 -9.057 -9.3125 -9.816001 -11.6645 -7.118001 -7.355 -6.8675 -9.6195 -9.7535 -9.9175 -10.183 -10.181 -9.788 -9.803 -10.1185 -9.885501 -10.0315 -9.526001 -7.889001 
-9.075001 -9.3125 -9.780001 -10.4165 -9.6925 -7.6 -8.545 -9.694 -10.225 -10.1925 -10.189 -10.195 -10.181 -10.1835 -10.1975 -10.1325 -10.0315 -10.0625 -9.526001 
-1.934 -3.533 -3.188 -3.189 -3.9235 -4.3465 -3.676 -3.0835 -3.5015 -1.934 -4.2325 0 -2.872 -1.934 -4.0865 -3.6615 -4.3465 -5.961 -4.2315 
-5.0615 -6.8925 -5.4315 -5.56 -8.118 -8.035001 -6.6295 -5.07 -4.704 -7.4475 -4.2325 -2.872 -4.659 -6.0895 -6.094501 -8.2795 -11.3985 -10.2185 
-8.546 -8.405001 -5.6215 -9.6975 -11.7985 -11.7157 -9.615 -6.239501 -10.7183 -7.4475 -6.8045 -4.659 -8.594001 -7.889001 -11.3969 -15.4355 -15.656 
-10.2805 -8.607 -9.7255 -13.5854 -15.4792 -14.7012 -10.7355 -12.7962 -10.7183 -9.622001 -8.4665 -8.594001 -10.275 -13.2956 -18.5529 -19.693 
-10.3765 -12.913 -13.6182 -17.2661 -18.4647 -15.8217 -17.2922 -12.7962 -12.8928 -11.3554 -12.5585 -10.275 -16.0606 -20.4516 -22.8104 
-1.934 -3.533 0 -3.0695 -4.174 -3.676 -1.4985 -2.847 -2.1715 -3.8685 -1.934 -3.3785 -3.237 -3.8385 -2.872 -2.4265 -4.3725 -3.676 -1.934 -5.961 -3.8685 -1.934 -4.0865 -3.6615 0 
-5.0615 -3.533 -3.0695 -6.061501 -8.337 -5.338 -5.125 -4.624 -6.369501 -5.1635 -4.5895 -4.9495 -6.977 -6.5155 -4.062 -7.09 -8.964001 -5.558 -8.092501 -8.970501 -5.1635 -6.0895 -6.094501 -3.6615 
-5.0615 -7.0275 -6.061501 -10.459 -9.142 -8.8035 -5.8375 -7.5045 -7.606001 -8.1575 -7.758 -9.235001 -9.397501 -7.646 -9.102501 -11.6619 -9.528501 -12.5699 -9.84 -10.0075 -9.192501 -7.889001 -6.094501 
-8.1695 -9.338501 -10.459 -10.7165 -12.9213 -9.031 -7.796 -7.9915 -10.7984 -11.559 -12.2953 -11.6901 -10.5445 -12.8589 -13.7314 -12.2264 -17.0182 -14.3174 -10.7605 -14.0103 -11.105 -7.889001 
-10.7171 -14.836 -10.7165 -14.4958 -13.1488 -11.8275 -8.314 -11.4517 -14.1999 -16.0963 -14.7504 -12.8371 -15.7574 -17.4878 -14.2959 -19.7161 -18.7657 -15.2379 -14.7633 -15.9228 -11.105 
-3.533 -2.3615 -3.4515 -1.934 -4.089 -5.6535 -2.7835 -1.4985 -3.6035 -2.186 -4.3665 -3.5455 -1.4985 -3.383 -3.8315 -4.763 -1.7565 -4.477 -6.12 -6.438 -2.882 -3.074 -2.489 -3.2955 -1.7695 -3.659 -4.8525 -4.477 -6.12 -6.438 -2.7415 -3.0835 -5.487 -1.934 -1.4985 -5.235 
-6.0775 -5.9225 -4.7655 -6.8155 -6.811501 -8 -3.7575 -4.7865 -5.475 -5.3395 -6.429 -3.91 -4.554501 -5.824 -5.806 -5.1985 -5.778 -7.136001 -8.887501 -8.613501 -4.559 -4.381 -3.979 -3.9425 -6.032001 -9.596001 -8.396001 -7.136001 -8.887501 -8.361 -5.276 -8.2015 -6.328001 -2.6125 -5.5435 
-9.317 -5.9845 -8.5485 -8.774501 -8.814501 -9.067 -6.622 -6.172 -6.705501 -7.522 -6.7555 -7.4575 -6.744 -7.1685 -5.9815 -7.2545 -7.1425 -11.9803 -11.3328 -9.801001 -5.061 -5.411 -4.5435 -9.6915 -12.7718 -13.1819 -11.4946 -11.9803 -11.0803 -10.6605 -8.755 -8.858 -6.893001 -5.870501 
-9.39 -9.612 -9.788 -10.4345 -9.52 -12.0157 -7.2715 -6.9945 -9.0485 -7.964 -10.361 -8.304001 -7.350501 -7.401 -7.944 -8.9944 -13.0778 -14.4256 -12.5203 -9.948501 -6.047 -5.8245 -10.2805 -16.4313 -16.3577 -16.2805 -16.3389 -14.1731 -13.3798 -14.1395 -9.217 -9.452001 -10.155 
-13.0281 -10.8611 -11.613 -11.14 -12.4941 -12.6652 -8.8155 -9.4495 -9.4285 -11.6815 -10.621 -8.802501 -7.497001 -9.234 -9.9441 -14.9297 -15.5231 -15.6131 -12.6678 -10.426 -6.4985 -11.7519 -17.0203 -20.0172 -19.4563 -21.1248 -18.5317 -16.4726 -16.8588 -14.6015 -9.694 -12.7314 
