-4.759 
n/a 
n/a 
n/a 
n/a 
-4.759 
n/a 
n/a 
n/a 
n/a 
-4.759 
n/a 
n/a 
n/a 
n/a 
-4.759 
n/a 
n/a 
n/a 
n/a 
-3.929 -1.934 -6.245 -3.4465 -7.241 -2.8645 -5.371 0 -1.756 -2.8645 -4.875 -4.602 -3.5015 -3.9225 -5.5565 -3.959 0 
-5.9385 -8.927501 -9.7375 -11.9937 -10.4425 -8.6595 -4.7945 -1.756 -4.3855 -6.4555 -10.6605 -7.624001 -6.5105 -10.7175 -9.341001 -3.959 
-13.561 -12.4868 -18.3683 -15.1952 -17.6965 -10.1185 -7.679 -4.3855 -7.8715 -12.8834 -13.6825 -9.7815 -13.5953 -14.502 -9.341001 
-17.1203 -21.1176 -21.5698 -22.4492 -17.6965 -13.003 -10.5855 -7.8715 -14.3516 -15.9054 -15.84 -16.8545 -17.3798 -14.502 
-25.7511 -24.3191 -28.8238 -22.4492 -20.581 -15.9095 -14.2333 -14.3516 -17.3736 -18.0629 -22.913 -20.639 -17.3798 
-2.5045 -1.8085 -3.4465 -1.7565 -4.63 -3.4075 -3.836 0 -6.245 0 0 -3.6705 0 -1.4985 -5.214 -4.502 -1.7565 -5.371 0 -4.85 -3.228 -3.9225 -7.8465 -4.9075 -3.468 0 
-3.3625 -5.498 -4.919 -5.9455 -6.482 -6.357 -3.836 -6.245 -6.245 0 -3.6705 -3.6705 -1.4985 -4.6085 -7.1885 -5.475 -7.4175 -4.7945 -4.85 -7.513 -7.5325 -9.432501 -10.9985 -7.893001 -3.468 
-6.666 -6.0045 -7.580501 -7.315001 -7.153 -6.357 -7.6825 -6.245 -6.245 -3.6705 -3.6705 -4.5585 -4.1465 -8.458 -9.496 -10.8275 -7.5185 -10.6735 -7.513 -8.522501 -11.131 -13.489 -11.656 -7.893001 
-6.705 -8.1495 -9.006001 -7.886 -7.153 -7.716001 -7.6825 -6.245 -9.5935 -3.6705 -4.5585 -7.403501 -8.013 -9.2875 -13.636 -10.4765 -13.9291 -13.3349 -8.522501 -10.521 -11.1365 -10.4115 -10.135 
-8.1805 -9.2845 -9.382501 -7.886 -7.719 -7.716001 -7.6825 -9.5935 -9.5935 -4.5585 -7.403501 -10.0275 -9.5225 -13.1363 -12.6818 -16.8871 -16.5905 -14.3444 -10.2675 -10.297 -10.2805 -10.269 
-3.4465 -1.7565 -3.3785 -3.4075 -3.836 0 -6.245 0 0 -3.676 -2.229 -5.371 0 -2.186 -4.602 -4.3725 -1.934 -9.6925 0 
-4.919 -5.1425 -7.0085 -6.357 -3.836 -6.245 -6.245 0 -3.676 -4.593 -7.5825 -4.7945 -2.186 -7.836 -9.813001 -5.022501 -10.419 -9.6925 
-8.2815 -9.09 -10.0605 -6.357 -7.6825 -6.245 -6.245 -3.676 -4.593 -12.5595 -7.961 -8.3785 -7.836 -13.715 -10.463 -14.2793 -10.419 
-12.7584 -12.2296 -10.0605 -7.716001 -7.6825 -6.245 -10.7972 -4.593 -12.6601 -12.6601 -12.0214 -14.5603 -13.715 -14.365 -19.7198 -14.2793 
-15.898 -12.2296 -11.4499 -7.716001 -7.6825 -10.7972 -11.7142 -12.6601 -12.6601 -16.7205 -18.2032 -20.4393 -14.365 -23.6218 -19.7198 
-3.4765 -3.929 -1.4985 -3.4465 -1.7565 -3.676 -2.7415 -5.371 0 -1.934 -3.5085 -3.4075 -4.63 -3.836 0 -2.4265 -3.7555 -4.602 -3.5015 -3.9225 -3.143 -3.959 
-4.589 -4.8985 -5.500501 -4.919 -4.4345 -6.2495 -8.433001 -4.7945 -1.934 -5.161 -7.0425 -8.125501 -5.764 -3.836 -2.4265 -5.6305 -9.427 -7.624001 -6.5105 -7.922 -6.9825 
-5.3395 -8.566501 -5.9195 -8.580501 -7.0915 -12.701 -8.257501 -7.238501 -5.161 -8.489 -9.887 -9.869501 -5.764 -6.5435 -5.6305 -11.766 -10.3055 -9.7815 -10.3345 -9.470501 
-8.928 -8.743 -9.729001 -12.1105 -13.7564 -12.701 -9.5845 -10.709 -8.489 -11.7053 -11.6408 -9.869501 -8.536 -10.4675 -11.766 -12.6445 -12.7068 -13.5937 -11.883 
-9.1175 -12.5943 -13.3038 -18.7754 -13.7564 -14.028 -13.3946 -14.2654 -11.7053 -13.4591 -11.6408 -12.6415 -12.5226 -16.603 -12.6445 -15.0458 -16.519 -15.1422 
