-4.759 
n/a 
n/a 
n/a 
n/a 
-4.759 
n/a 
n/a 
n/a 
n/a 
-4.759 
n/a 
n/a 
n/a 
n/a 
-4.759 
n/a 
n/a 
n/a 
n/a 
-1.934 -1.4985 -4.975 -4.4695 -1.8085 -4.7015 -4.6485 0 -2.871 -3.355 -1.7565 -1.4985 -3.158 -3.4405 -2.6165 -3.7875 -3.7805 0 -2.3615 -2.186 -3.849 -2.5045 -4.918 -3.7465 
-2.6125 -5.592 -6.559 -6.613 -5.54 -9.052 -4.6485 -2.871 -5.7015 -3.725 -2.4195 -4.178 -6.8725 -3.7415 -5.409 -7.7485 -3.7805 -2.3615 -3.5005 -4.8565 -6.305 -8.0485 -8.064 
-6.1705 -6.75 -8.534 -10.7917 -10.7175 -9.052 -8.105501 -5.7015 -5.995 -4.0515 -4.4755 -7.962501 -7.215001 -8.355 -9.723001 -7.7485 -6.442 -3.5005 -5.99 -7.104 -11.9526 -11.5103 
-7.789001 -8.5765 -12.9995 -15.9692 -10.7175 -12.7052 -10.647 -5.995 -6.272 -6.633 -8.263 -8.331 -12.4237 -12.8324 -9.723001 -10.8556 -7.2095 -5.99 -8.515 -12.8814 -15.4144 
-9.76 -13.0756 -18.177 -15.9692 -14.3707 -15.2467 -10.9405 -6.272 -9.0895 -10.0535 -8.798 -13.6605 -16.9011 -12.8324 -12.9133 -11.6231 -9.029501 -8.515 -14.349 -16.3432 
-3.183 -3.6845 -1.4985 -6.099 -3.741 -4.822 0 -4.251 0 -1.7695 -8.1555 -4.2485 -1.756 -5.015 -3.8465 0 -4.764 -4.113 -2.186 -1.4985 -3.788 -2.0935 -1.4985 -3.784 -5.014 -3.618 -3.2295 -4.103 -4.644 -1.7565 -2.95 
-5.9655 -4.7485 -6.486501 -9.193501 -9.002501 -4.822 -4.251 -4.251 -1.7695 -9.897 -12.0415 -5.4505 -6.245 -8.932501 -3.8465 -4.764 -8.779001 -6.241 -3.339 -4.6805 -5.6485 -2.9725 -4.6165 -8.217501 -6.716001 -6.9165 -6.9545 -6.4385 -5.2855 -4.3865 
-6.2075 -9.195001 -10.199 -10.6345 -9.002501 -7.998 -4.251 -6.290501 -7.296 -11.3675 -10.9815 -6.8385 -10.0505 -8.932501 -7.632501 -8.779001 -9.649001 -7.7095 -6.5325 -6.6035 -6.4535 -6.1125 -8.736 -9.2995 -8.914001 -9.557 -7.374 -6.73 -5.7935 
-10.1545 -10.575 -10.6415 -10.6345 -10.2185 -7.998 -6.290501 -10.483 -11.093 -12.128 -10.5955 -10.19 -10.0505 -10.1995 -10.181 -9.649001 -9.887501 -10.0505 -7.513 -7.501501 -9.5395 -10.0995 -9.859 -9.9335 -10.0225 -9.723001 -7.6385 -6.851 
-10.5815 -10.6655 -10.6415 -10.6685 -10.2185 -8.0085 -10.202 -13.1205 -11.1 -11.172 -11.1185 -10.19 -10.2045 -10.207 -10.2065 -9.887501 -10.2005 -10.1435 -8.102 -10.028 -10.192 -10.196 -10.0165 -10.036 -10.034 -9.9245 -7.6635 
-3.7515 -1.4985 -4.31 -1.7565 -6.184 0 -2.871 -4.537 -3.6505 -2.186 -6.9985 -2.871 -3.355 -1.7565 -1.4985 -3.158 -4.3185 -2.847 -6.142 -2.186 -3.849 -2.5045 -4.918 -3.7465 0 
-4.6795 -5.318 -5.726 -8.173 -6.184 -2.871 -7.9845 -8.146 -5.316 -8.141001 -9.9735 -5.7015 -3.725 -2.4195 -4.178 -8.642501 -6.296 -9.172001 -7.581 -4.8565 -6.305 -8.0485 -8.064 -3.7465 
-8.224 -6.509 -12.9191 -8.173 -9.6555 -7.9845 -11.8357 -9.530001 -11.4855 -11.392 -12.745 -5.995 -4.0515 -4.4755 -9.59 -10.504 -12.996 -9.926001 -9.699 -7.104 -11.9526 -11.5103 -8.064 
-9.802501 -13.9629 -12.9191 -11.9185 -14.8004 -11.8357 -13.2197 -16.5371 -15.0065 -14.6136 -12.9877 -6.272 -6.633 -9.8695 -11.5083 -17.204 -13.607 -11.5895 -11.5545 -12.8814 -15.4144 -11.5103 
-17.322 -13.9629 -16.6646 -17.0634 -18.6516 -13.2197 -20.2268 -19.5755 -18.1487 -14.7601 -13.2167 -9.0895 -12.5172 -11.8648 -18.2083 -17.815 -15.4888 -14.3971 -17.6093 -16.3432 -15.4144 
-3.7515 -1.4985 -6.184 -7.754 -3.0365 -2.186 -2.664 -4.9305 -3.8465 -2.186 -3.962 -1.934 -2.3615 -2.871 -3.957 -1.7565 -1.4985 -3.158 -2.742 -2.489 -3.4945 -3.7805 -1.756 -2.3615 -2.186 -3.849 -4.989 -4.525 
-4.6795 -7.2285 -14.793 -10.647 -3.66 -3.8555 -5.663 -8.509501 -5.4395 -5.363 -4.8165 -3.539 -4.583 -5.406 -4.676 -2.4195 -4.178 -5.765 -3.301 -5.908 -7.3675 -5.1485 -4.4615 -3.5005 -4.8565 -8.303 -8.6385 
-9.1245 -16.0869 -17.686 -11.2705 -4.9795 -6.676001 -9.554501 -10.5535 -8.171 -6.1475 -6.517 -6.1575 -8.505501 -5.843 -5.031 -4.4755 -6.778501 -6.152 -6.915501 -9.187 -8.4235 -7.910501 -5.0895 -5.99 -9.2775 -12.1063 
-19.1035 -18.9799 -18.3095 -12.59 -8.054001 -10.396 -11.6407 -13.285 -8.918 -7.715 -9.315001 -9.834001 -9.326 -6.1095 -6.299 -6.9785 -7.14 -9.882501 -10.3475 -10.1725 -11.5141 -8.526 -7.832 -10.328 -13.234 
-21.9965 -19.6034 -19.629 -15.6645 -12.0388 -12.4822 -14.3722 -14.032 -10.6567 -10.688 -13.0653 -10.706 -9.736 -8.5385 -8.289001 -7.334 -11.0485 -13.3145 -11.333 -13.4059 -12.1296 -10.5855 -12.2814 -14.4701 
