-4.759 
n/a 
n/a 
n/a 
n/a 
-4.759 
n/a 
n/a 
n/a 
n/a 
-4.759 
n/a 
n/a 
n/a 
n/a 
-4.759 
n/a 
n/a 
n/a 
n/a 
-4.628 -4.743 -4.0415 -2.186 -3.54 -3.355 -2.925 -2.4945 -3.873 -4.0415 0 -4.1115 -4.0415 0 -1.756 -4.392 -4.0415 0 
-4.7515 -8.356501 -6.3265 -6.0895 -6.1115 -6.5115 -3.7675 -7.3325 -8.387501 -4.0415 -4.1115 -8.389501 -4.0415 -1.756 -6.295 -9.2895 -4.0415 
-8.3625 -10.5975 -10.76 -9.343 -9.669001 -7.271501 -8.723001 -12.3036 -8.387501 -7.867001 -8.389501 -8.389501 -5.4805 -6.295 -11.6097 -9.2895 
-10.609 -15.031 -14.0135 -12.9569 -10.429 -12.3796 -13.8083 -12.3036 -9.4005 -9.788501 -8.389501 -10.5865 -11.2099 -11.6097 -11.6097 
-15.0425 -18.2845 -17.6274 -13.7169 -15.5371 -17.4649 -13.8083 -13.3166 -10.2605 -9.788501 -10.5865 -16.3159 -16.5246 -11.6097 
-1.4985 -3.54 -4.348 -1.7565 -4.628 -4.743 -2.4945 -4.257 0 -4.5605 -1.756 -3.599 -3.9665 0 
-4.529 -7.573501 -5.6535 -6.107501 -4.7515 -7.639 -7.9505 -4.257 -4.5605 -5.9695 -5.2745 -4.743 -3.9665 
-8.098001 -8.616 -9.188 -6.281001 -7.644001 -13.236 -7.9505 -6.1385 -5.9695 -7.1105 -6.564 -4.743 
-8.7945 -12.4727 -9.193 -8.502001 -13.2426 -13.236 -8.7985 -7.148 -7.1105 -7.1375 -6.564 
-12.8352 -12.4777 -10.2195 -14.1992 -13.2426 -14.084 -9.797501 -7.3595 -7.1375 -7.1375 
-12.16972 -3.54 -4.348 0 -6.899 -4.257 -3.9665 0 -6.899 -4.5605 0 -6.899 -3.599 -3.9665 0 
-15.70972 -7.573501 -4.348 -6.899 -9.082001 -7.689 -3.9665 -6.899 -10.013 -4.5605 -6.899 -9.1855 -4.743 -3.9665 
-19.74322 -7.573501 -11.136 -9.082001 -12.6052 -7.689 -9.637501 -10.013 -10.013 -12.3993 -9.1855 -10.3755 -4.743 
-19.74322 -14.7051 -13.319 -12.6052 -12.6052 -13.9028 -14.3123 -10.013 -18.01 -14.6858 -10.3755 -10.3755 
-26.87482 -16.8881 -16.8422 -12.6052 -18.819 -18.5776 -14.3123 -18.01 -20.2965 -15.8758 -10.3755 
-6.899 -2.229 -9.160001 -2.4945 -10.406 -2.229 -4.257 0 -10.406 -2.229 -10.651 0 -10.406 -2.229 -4.6045 -3.9665 
-8.988 -11.08 -10.451 -14.3287 -12.9148 -5.2305 -4.257 -10.406 -12.9148 -13.475 -10.651 -10.406 -12.9148 -6.813 -8.606001 
-18.0144 -12.371 -22.5746 -16.8375 -15.9163 -5.2305 -15.6208 -12.9148 -24.1608 -13.475 -21.057 -12.9148 -17.4988 -9.978001 
-19.3054 -24.4946 -25.0834 -19.839 -15.9163 -17.1639 -18.1296 -24.1608 -24.1608 -23.881 -23.5658 -17.4988 -20.6638 
-31.429 -27.0034 -28.0849 -19.839 -27.8497 -19.6727 -29.3756 -24.1608 -34.5668 -26.3898 -28.1498 -20.6638 
