-4.759 
n/a 
n/a 
n/a 
n/a 
-4.759 
n/a 
n/a 
n/a 
n/a 
-4.759 
n/a 
n/a 
n/a 
n/a 
-4.759 
n/a 
n/a 
n/a 
n/a 
-2.872 -3.982 -3.581 -5.651501 -3.935 -1.4985 -3.8275 0 
-7.672501 -8.132501 -8.243 -7.403501 -5.08 -4.726 -3.8275 
-12.4844 -13.1107 -12.3285 -10.1105 -6.765 -4.726 
-17.4626 -15.7617 -12.006 -12.811 -6.765 
-20.1136 -17.0177 -14.4815 -12.811 
-1.4985 -3.6205 -1.7565 -3.8275 -2.3345 -12.16972 -1.7565 -3.982 -2.7415 -1.7695 -4.299 -3.9465 -4.021 0 -3.982 -3.423 -2.6165 -1.934 -1.8085 -3.8685 -1.7695 -4.1425 -1.4985 -3.3365 -4.4095 -1.7565 -4.2815 -2.0935 -3.3365 -5.2365 0 
-4.755 -5.2835 -4.8265 -6.005 -14.83482 -13.92622 -5.614 -6.608 -4.604 -5.4975 -8.553 -8.1975 -4.021 -3.982 -7.489 -4.4935 -4.552 -3.2685 -5.120501 -5.2975 -5.453001 -5.560501 -4.3335 -6.551001 -5.1885 -5.607 -6.521 -5.0915 -8.507501 -5.2365 
-6.1175 -9.264 -6.7965 -19.15492 -16.59132 -17.78372 -7.773 -8.393001 -7.7775 -8.8795 -13.0922 -8.1975 -8.924001 -7.489 -8.318501 -7.2455 -5.7205 -5.587 -5.75 -8.448 -6.109 -8.312 -7.761001 -7.888 -9.196 -7.847 -10.322 -10.411 -8.507501 
-10.1585 -11.3234 -20.35782 -20.91142 -20.44882 -19.94272 -9.573 -11.7759 -10.7025 -13.5593 -13.0922 -13.3873 -12.579 -8.318501 -10.647 -8.755501 -6.528501 -5.7775 -9.484 -9.1175 -8.753 -12.2097 -7.977 -12.1405 -11.6284 -11.941 -15.6415 -10.411 
-12.2179 -24.88472 -22.11432 -24.76892 -22.60782 -21.74272 -13.0901 -14.7009 -15.3823 -13.5593 -18.282 -17.0423 -13.4085 -10.647 -12.157 -9.8349 -6.5635 -9.613001 -10.139 -11.8473 -12.8953 -12.4257 -12.4209 -14.5729 -15.7224 -17.2605 -15.6415 
-1.934 -3.8275 -3.982 -4.7715 -4.9385 -12.16972 -3.585 -1.7695 -5.7715 -3.9465 0 -2.872 -3.982 -2.6165 -4.3285 -1.7695 -3.429 -2.95 -1.7695 -4.0655 -4.126 -1.7565 -4.2815 0 
-5.911 -7.386 -9.107 -9.379 -18.30042 -15.75472 -5.2295 -6.198501 -8.283 -3.9465 -2.872 -7.672501 -7.4545 -5.818 -6.210001 -4.032 -5.6335 -4.11 -6.680501 -8.5425 -5.221001 -5.607 -4.2815 
-10.054 -13.0102 -13.7529 -22.81472 -21.88542 -17.39922 -10.485 -8.634001 -8.283 -6.77 -7.672501 -10.7175 -11.2088 -8.030001 -8.466001 -6.4545 -5.964 -8.5135 -11.4005 -10.093 -9.508 -5.607 
-15.6782 -17.6561 -27.18862 -26.39972 -23.52992 -22.65472 -12.9205 -8.634001 -10.0005 -9.814001 -10.7175 -14.4718 -13.4208 -10.4505 -11.2741 -6.984 -10.6735 -13.5731 -12.951 -14.5246 -9.508 
-20.3241 -31.09182 -30.77362 -28.04422 -28.78542 -25.09022 -12.9205 -10.1635 -13.0445 -12.9934 -14.4718 -16.6838 -15.8413 -13.2586 -11.8036 -11.8267 -15.7331 -15.1236 -17.3826 -14.5246 
-2.5045 -3.982 -2.229 -12.16972 -3.6205 -2.7415 -1.7695 -4.299 -3.9465 -4.2735 0 -3.982 -2.7415 -1.934 -1.8085 -4.1445 -2.3335 -2.4265 -3.2645 -2.6165 -3.9915 -4.2815 -1.7695 -3.0465 -4.3895 0 
-6.868 -5.746 -14.99372 -15.79022 -5.747 -4.604 -5.4975 -8.553 -8.9685 -4.2735 -3.982 -6.608 -4.5155 -3.2685 -5.339 -5.613 -3.913 -4.563 -4.457 -5.161 -8.1945 -6.2485 -3.683 -6.351 -4.3895 
-7.647 -19.26372 -18.61422 -17.91672 -6.457 -7.7775 -8.8795 -13.8632 -8.9685 -9.5635 -6.608 -8.255 -5.65 -6.82 -6.337 -7.17 -5.849 -5.7365 -6.8795 -9.271 -8.3745 -8.260501 -7.567 -6.351 
-21.44452 -22.88422 -20.74072 -18.62672 -8.888 -10.7025 -14.3303 -13.8632 -14.3433 -12.3063 -8.255 -9.166 -8.472501 -7.726501 -8.266001 -8.734501 -6.8485 -8.5385 -10.3215 -9.399501 -10.523 -12.4941 -7.567 
-25.06502 -25.01072 -21.45072 -21.05772 -11.909 -16.1533 -14.3303 -19.238 -17.0861 -13.9533 -9.166 -12.1749 -9.698501 -9.46 -9.7685 -9.4095 -9.487 -12.2093 -10.452 -11.6906 -14.7566 -12.4941 
