-4.759 
n/a 
n/a 
n/a 
n/a 
-4.759 
n/a 
n/a 
n/a 
n/a 
-4.759 
n/a 
n/a 
n/a 
n/a 
-4.759 
n/a 
n/a 
n/a 
n/a 
-1.934 -12.16972 -3.16 -3.852 -4.548 -3.135 -21.142 -2.229 -4.0685 -7.157001 0 
-15.11012 -15.32972 -6.709001 -8.529 -7.296 -24.5623 -22.5388 -5.681 -12.1257 -7.157001 
-18.27012 -18.87872 -10.1 -11.706 -29.3951 -26.9976 -25.9908 -14.6716 -12.1257 
-21.81912 -22.26972 -14.9042 -33.8051 -31.6876 -30.4496 -34.9814 -14.6716 
-25.21012 -27.07392 -37.0033 -36.0976 -35.1396 -39.4402 -34.9814 
-12.16972 -3.16 -4.535 -5.3245 -7.1695 -9.118501 -2.229 -12.16972 -12.16972 
-15.32972 -7.918 -9.214001 -13.7016 -16.0525 -10.8465 -14.99372 -24.33944 
-20.08772 -13.1486 -17.8339 -22.5846 -18.1375 -23.71832 -27.16344 
-25.31832 -21.7685 -26.7169 -24.6696 -31.29182 -35.88804 
-33.93822 -30.6515 -28.8019 -37.82392 -43.46154 
-12.16972 -3.4605 -4.8165 -1.4985 -11.096 -2.229 -3.628 -4.942 
-15.63022 -9.1315 -6.0005 -11.619 -11.6805 -5.3015 -7.884501 
-21.30122 -10.1515 -17.294 -14.5275 -14.8989 -9.074501 
-22.32122 -21.959 -19.72 -18.243 -18.6811 
-34.12872 -24.0776 -23.1555 -22.016 
-10.939 -4.942 -3.793 -1.934 -12.16972 -3.16 -3.452 0 
-15.881 -8.876501 -4.752 -15.11012 -15.32972 -7.172 -3.452 
-19.8155 -10.0165 -18.64712 -18.27012 -19.34172 -7.172 
-20.9555 -23.99042 -21.80712 -22.28212 -19.34172 
-34.92942 -27.15042 -25.81912 -22.28212 
