-4.759 
n/a 
n/a 
n/a 
n/a 
-4.759 
n/a 
n/a 
n/a 
n/a 
-4.759 
n/a 
n/a 
n/a 
n/a 
-4.759 
n/a 
n/a 
n/a 
n/a 
-4.251 0 -1.4985 -3.8475 -2.9705 -7.9965 -1.7695 -3.691 -2.742 -2.489 -4.23 -1.934 -4.6555 0 
-4.251 -1.4985 -5.09 -6.3125 -10.533 -8.330501 -5.5435 -6.4065 -3.301 -6.5305 -6.0855 -6.7145 -4.6555 
-5.6885 -5.09 -7.441501 -14.3572 -10.867 -9.620001 -7.89 -7.058001 -7.6685 -7.7435 -9.517 -6.7145 
-9.633501 -7.441501 -15.6644 -14.6912 -12.1565 -12.0505 -8.538501 -11.7957 -8.946501 -11.4196 -9.517 
-12.0662 -15.6644 -15.9984 -15.9807 -14.587 -12.699 -13.6142 -13.0737 -12.7042 -11.4196 
-4.251 0 -1.4985 -3.8475 -2.9705 -5.7565 -4.676 -3.222 -3.691 -3.1425 -3.254 -3.325 -3.644 -5.4075 -3.391 0 
-4.251 -1.4985 -5.09 -6.3125 -8.189 -11.7457 -9.0185 -6.6475 -6.978001 -7.167001 -6.8225 -6.812 -9.297501 -8.804001 -3.391 
-5.6885 -5.09 -7.441501 -12.0132 -14.562 -16.0882 -12.55 -9.434 -11.2553 -10.0345 -10.757 -13.0951 -12.8686 -8.804001 
-9.633501 -7.441501 -13.3204 -18.3862 -18.9045 -19.6197 -15.3365 -13.8217 -14.1228 -13.9322 -17.0401 -16.6662 -12.8686 
-12.0662 -13.3204 -19.6934 -22.7287 -22.436 -22.4062 -19.7242 -16.6892 -18.0205 -20.2153 -20.6112 -16.6662 
-4.7935 0 -3.45 -3.0695 -3.6955 -1.7695 -3.691 -4.676 -2.4945 -5.349 -3.325 -1.4985 -3.644 -3.391 -3.32 0 
-4.7935 -3.45 -4.273 -5.826 -4.4705 -5.5435 -9.1525 -9.397501 -5.841001 -6.940001 -3.898 -4.9855 -6.902 -6.7095 -3.32 
-8.471001 -4.273 -6.761 -6.193501 -7.1905 -11.7062 -14.0932 -12.9012 -7.484 -7.342 -7.446 -8.165001 -10.553 -6.7095 
-9.301001 -6.761 -7.2675 -8.751 -13.899 -16.6469 -17.5969 -14.5442 -7.901 -11.5176 -11.0815 -11.9206 -10.553 
-11.9476 -7.2675 -9.778501 -15.8841 -18.8397 -20.1506 -19.2399 -14.9612 -12.1714 -15.1531 -14.8371 -11.9206 
-2.4265 -2.186 -4.015 -2.3335 -1.4985 -6.4075 -1.934 -3.691 -2.186 -2.645 -4.2815 -1.7695 -3.4975 -3.8475 0 
-3.292 -7.1225 -6.460001 -3.3515 -7.4145 -7.8545 -4.8225 -5.832 -4.528 -7.398001 -4.4915 -5.6855 -5.271 -3.8475 
-8.366 -9.578 -7.2755 -9.371501 -9.290001 -11.1136 -6.714001 -8.344501 -9.259001 -7.554501 -8.1555 -7.372 -5.271 
-10.275 -10.413 -13.4169 -11.0196 -12.8237 -13.0051 -9.0305 -13.2529 -9.328001 -11.3873 -10.1225 -7.372 
-11.11 -16.5544 -15.065 -14.5533 -14.7152 -15.3216 -13.9855 -13.3219 -13.2988 -13.3543 -10.1225 
