-4.759 
n/a 
n/a 
n/a 
n/a 
-4.759 
n/a 
n/a 
n/a 
n/a 
-4.759 
n/a 
n/a 
n/a 
n/a 
-4.759 
n/a 
n/a 
n/a 
n/a 
-3.322 -3.436 -1.4985 -7.83 -3.9345 -1.7695 -3.091 -3.331 0 
-6.0975 -4.213 -8.528501 -12.2091 -3.94 -4.458 -6.883 -3.331 
-7.1565 -11.7634 -13.1662 -12.2146 -6.0395 -7.846001 -6.883 
-15.2315 -16.4011 -13.1717 -14.3141 -8.0135 -7.846001 
-19.8692 -16.4066 -15.2712 -16.2881 -8.0135 
-4.352 -3.757 -3.469 
-7.6045 -7.732 
-12.0483 
n/a 
n/a 
-6.5435 -3.499 -5.268 -3.319 -4.4615 
-10.8835 -9.951 -8.8395 -8.910501 
-17.3355 -13.6769 -14.811 
-21.0614 -19.6484 
-27.0329 
-6.3195 -2.264 -1.4985 -4.1175 -1.7565 -4.3065 -1.756 -1.4985 -3.322 -2.9905 
-9.006001 -2.9195 -4.6915 -4.7545 -5.2505 -5.326 -3.0405 -5.443 -6.0645 
-9.445001 -4.9245 -4.851 -7.9605 -6.2445 -6.6215 -7.0395 -7.396 
-11.686 -4.9575 -8.191501 -8.96 -7.444 -11.2147 -8.758 
-11.719 -8.305 -9.153 -10.01 -12.2056 -12.9332 
