-4.759 
n/a 
n/a 
n/a 
n/a 
-4.759 
n/a 
n/a 
n/a 
n/a 
-4.759 
n/a 
n/a 
n/a 
n/a 
-4.759 
n/a 
n/a 
n/a 
n/a 
-1.934 -3.994 0 -1.4985 -3.8235 -3.16 0 -3.147 -3.202 -2.742 -2.489 -3.9515 -4.0245 0 -2.3335 -2.186 -3.2955 -1.7695 -4.433 -2.5045 -2.4265 -2.186 -1.934 -1.4985 -5.6595 -3.519 
-4.095 -3.994 -1.4985 -4.53 -7.257 -3.16 -3.147 -7.209001 -6.839 -3.301 -7.4585 -5.903 -4.0245 -2.3335 -3.7085 -4.348001 -3.9425 -5.0885 -7.386 -4.228 -3.292 -4.0835 -2.6125 -8.176001 -8.538 
-4.095 -5 -4.53 -8.133 -7.257 -6.5975 -7.209001 -10.7565 -7.7115 -8.1185 -9.838 -5.903 -6.085501 -3.7085 -5.582 -4.837 -6.113 -8.227 -9.547501 -4.900001 -5.206 -4.6915 -9.844 -8.5705 
-5.008 -8.5815 -8.133 -8.133 -11.0231 -11.7373 -10.7565 -11.629 -12.7872 -10.9148 -9.838 -9.1575 -7.467501 -5.582 -5.9545 -6.538001 -9.601 -10.3155 -10.277 -6.2795 -5.7495 -12.2694 -10.2751 
-8.599 -12.2077 -8.133 -12.3625 -16.1629 -15.2848 -11.629 -16.7047 -15.5835 -10.9148 -13.2559 -9.894501 -9.200001 -5.9545 -8.211 -10.541 -12.4465 -11.045 -11.6565 -6.893001 -13.5128 -12.7005 
-2.0935 -3.7405 0 -3.16 0 -3.0365 -3.202 -2.186 -4.4155 -2.5045 -1.8085 -3.5825 0 -2.186 -3.881 -2.5045 -1.8085 -3.815 -3.8235 0 
-4.859 -3.7405 -3.16 -3.16 -3.0365 -7.4215 -6.1055 -6.0275 -6.3805 -3.3625 -5.3605 -3.5825 -2.186 -5.3 -5.817 -3.3625 -4.6365 -7.579 -3.8235 
-4.859 -7.0985 -3.16 -6.8815 -7.4215 -9.591001 -10.0315 -7.308001 -7.168 -6.777 -5.3605 -5.8525 -5.3 -6.7515 -6.403 -6.5535 -7.993 -7.579 
-8.4715 -7.0985 -6.8815 -12.3249 -9.591001 -13.749 -11.5786 -8.095501 -10.3155 -6.777 -7.2215 -9.1085 -6.7515 -7.336 -9.177001 -9.744 -7.993 
-8.4715 -11.7004 -12.3249 -14.4944 -13.749 -15.2961 -12.3661 -11.283 -10.3155 -8.5415 -10.7629 -10.8898 -7.336 -9.9715 -12.5605 -9.744 
-4.8315 0 -1.4985 -3.8235 -3.16 0 -3.3155 -1.4985 -3.202 -2.186 -3.9515 -4.0245 0 -2.186 -4.621 -1.7695 -2.489 -1.4985 -3.815 -3.519 -1.7565 -1.4985 -3.16 0 
-4.8315 -1.4985 -4.53 -7.257 -3.16 -3.3155 -4.1745 -5.7475 -6.1055 -7.0105 -5.903 -4.0245 -2.186 -5.5835 -6.315001 -3.1405 -3.9675 -5.0275 -5.89 -4.4175 -2.4195 -4.0625 -3.16 
-5.488 -4.53 -8.133 -7.257 -6.7395 -4.1745 -8.429501 -8.0415 -11.1738 -9.117001 -5.903 -5.9215 -5.5835 -7.673501 -7.397501 -4.568 -7.945001 -6.6055 -7.074501 -5.4985 -5.068501 -4.0625 
-8.2045 -8.133 -8.133 -10.66 -7.6635 -8.429501 -9.7635 -13.2564 -13.2803 -9.117001 -8.6195 -9.0485 -7.673501 -8.290001 -8.771001 -8.585501 -9.651001 -7.433001 -7.606 -8.867001 -5.068501 
-12.3257 -8.133 -11.9994 -11.584 -12.5907 -9.7635 -14.992 -15.3629 -13.2803 -12.6337 -11.9769 -11.4115 -8.290001 -9.290501 -12.9751 -10.1505 -10.109 -7.908501 -11.4261 -8.867001 
-1.4985 -3.8235 -3.16 -4.603 0 -3.147 -4.603 -1.8085 -3.9515 -3.8235 -3.202 0 -2.186 -1.934 -1.4985 -5.3545 
-4.53 -7.257 -9.104 -4.603 -3.147 -7.79 -6.153 -5.7485 -9.165501 -7.2335 -3.202 -2.186 -4.0835 -2.6125 -6.3675 
-8.133 -13.5296 -9.104 -6.804 -7.79 -8.851501 -9.5495 -10.354 -12.6469 -7.2335 -6.1055 -4.0835 -4.6915 -8.326 
-14.869 -13.5296 -11.3592 -11.8518 -8.851501 -12.9172 -15.211 -13.8354 -12.6469 -8.682501 -8.067 -4.6915 -10.647 
-14.869 -15.7848 -16.407 -12.9133 -12.9172 -18.5787 -18.6924 -13.8354 -14.0959 -10.159 -8.6715 -10.647 
