-4.759 
n/a 
n/a 
n/a 
n/a 
-4.759 
n/a 
n/a 
n/a 
n/a 
-4.759 
n/a 
n/a 
n/a 
n/a 
-4.759 
n/a 
n/a 
n/a 
n/a 
-1.4985 -3.9745 -1.7565 -4.1865 -3.9675 0 -5.5095 -4.0935 -3.948 -4.763 -2.356 -4.3425 0 
-4.7475 -4.5865 -5.463 -6.6535 -3.9675 -5.5095 -10.7142 -6.878 -6.175 -6.836 -6.599501 -4.3425 
-4.8625 -8.506001 -7.504001 -6.6535 -9.332001 -10.7142 -13.4987 -10.733 -8.716001 -11.3613 -6.599501 
-8.9735 -9.920501 -7.504001 -12.5556 -14.6983 -13.4987 -17.3537 -13.274 -13.4347 -11.3613 
-10.6605 -9.920501 -13.5955 -17.9219 -17.4828 -17.3537 -19.8947 -17.9927 -13.4347 
-1.4985 -3.9745 -1.7565 -4.1865 -6.0965 -2.186 -4.2815 -1.7695 -6.2175 -4.0455 -2.0935 -3.1435 -3.5905 -4.441 0 
-4.7475 -4.5865 -5.463 -8.5945 -7.603001 -6.0975 -4.4915 -8.481501 -6.569 -6.0635 -4.568 -6.4245 -7.997001 -4.441 
-4.8625 -8.506001 -9.154501 -9.9535 -11.7875 -6.382 -11.8729 -8.9495 -9.323501 -8.573 -7.9835 -9.913 -7.997001 
-8.9735 -12.5143 -10.5705 -14.138 -12.072 -14.1124 -12.3409 -10.733 -11.899 -12.1113 -11.8432 -9.913 
-13.0242 -13.9303 -14.755 -14.4225 -19.8024 -14.5804 -14.1244 -13.3085 -15.4373 -15.971 -11.8432 
-3.8735 -2.229 -7.7225 -1.7565 -3.766 0 -2.9905 -3.8055 -4.3425 -2.0935 -4.0725 -3.7095 0 
-5.3655 -9.8925 -11.1415 -5.1285 -3.766 -2.9905 -6.777 -9.257501 -6.5445 -5.7355 -7.487 -3.7095 
-14.0508 -13.8707 -14.5135 -5.1285 -7.294001 -6.777 -12.198 -11.8221 -10.523 -9.442 -7.487 
-18.029 -17.2427 -14.5135 -9.445001 -10.4265 -12.198 -14.7626 -15.8006 -14.2295 -9.442 
-21.401 -17.2427 -18.83 -13.0903 -15.8475 -14.7626 -18.7411 -19.5071 -14.2295 
-4.1865 -4.8775 -5.06 -1.756 -4.3425 -2.8645 -3.3715 -4.763 0 
-7.5375 -10.3165 -5.912001 -5.856 -7.633 -5.473001 -7.296 -4.763 
-13.2407 -11.1685 -7.993001 -9.1075 -10.485 -8.890501 -7.296 
-14.0927 -13.2495 -11.5047 -11.9235 -13.9025 -8.890501 
-16.1737 -16.7612 -14.3207 -15.341 -13.9025 
