-4.759 
n/a 
n/a 
n/a 
n/a 
-4.759 
n/a 
n/a 
n/a 
n/a 
-4.759 
n/a 
n/a 
n/a 
n/a 
-4.759 
n/a 
n/a 
n/a 
n/a 
-8.42 -4.085 0 -3.941 -4.7115 0 
-12.104 -4.085 -3.941 -7.7965 -4.7115 
-12.2526 -9.116501 -7.7965 -7.7965 
-17.5359 -13.4186 -7.7965 
-21.838 -13.4186 
-3.3635 -5.0565 -4.085 0 -5.08 -4.7115 0 
-8.498 -8.6625 -4.085 -5.08 -7.349501 -4.7115 
-12.2526 -8.6625 -10.089 -7.349501 -7.349501 
-12.2526 -14.9183 -12.3585 -7.349501 
-18.5084 -17.1878 -12.3585 
-3.3635 0 -5.0565 -4.085 0 -3.941 -4.7115 0 
-3.3635 -5.0565 -8.6625 -4.085 -3.941 -7.7965 -4.7115 
-8.498 -8.6625 -8.6625 -9.116501 -7.7965 -7.7965 
-12.2526 -8.6625 -13.9458 -13.4186 -7.7965 
-12.2526 -13.9458 -18.2479 -13.4186 
-3.3635 0 -5.0565 -4.085 0 -5.08 -4.7115 0 
-3.3635 -5.0565 -8.6625 -4.085 -5.08 -7.349501 -4.7115 
-8.498 -8.6625 -8.6625 -10.089 -7.349501 -7.349501 
-12.2526 -8.6625 -14.9183 -12.3585 -7.349501 
-12.2526 -14.9183 -17.1878 -12.3585 
