-4.759 
n/a 
n/a 
n/a 
n/a 
-4.759 
n/a 
n/a 
n/a 
n/a 
-4.759 
n/a 
n/a 
n/a 
n/a 
-4.759 
n/a 
n/a 
n/a 
n/a 
-5.1495 -3.458 -5.7565 -3.9665 -1.756 -3.7075 -4.983 0 -4.31 -1.7565 -4.983 -2.186 -4.296 0 
-6.8155 -8.404501 -6.969501 -5.324 -5.7245 -7.178 -4.983 -4.31 -5.726 -7.086 -7.295 -5.484 -4.296 
-12.3432 -9.786501 -8.2945 -10.451 -8.8095 -7.178 -9.421501 -5.726 -10.5035 -8.772 -9.848001 -5.484 
-13.7252 -9.933001 -13.7465 -13.536 -8.8095 -12.0251 -11.2845 -10.5035 -12.1895 -11.3496 -9.848001 
-13.8717 -15.4108 -16.8315 -13.536 -13.7862 -13.8881 -16.062 -12.1895 -14.7671 -11.3496 
-4.088 -4.5185 -4.816 -4.57 -2.7415 -4.5485 -2.3345 -1.4985 -5.1495 -1.7565 -4.692 -4.983 -1.756 -3.7075 -4.237 -4.828 0 
-8.716001 -10.3325 -9.084501 -7.6615 -5.5565 -5.4845 -3.233 -6.190001 -6.638 -6.084001 -9.307001 -6.256001 -5.7245 -7.817 -6.805 -4.828 
-14.9526 -14.601 -12.8164 -10.485 -6.542 -6.058 -7.7365 -7.071 -10.717 -11.2626 -10.5545 -9.56 -9.632 -10.494 -6.805 
-19.2211 -18.3329 -15.6399 -11.4705 -7.2345 -9.092501 -8.127 -11.481 -15.8956 -12.5101 -13.8585 -13.7449 -12.3374 -10.494 
-22.953 -21.1564 -16.6254 -12.163 -9.8625 -9.1815 -12.799 -16.6596 -17.1431 -15.8141 -18.0434 -16.4503 -12.3374 
-4.5185 -4.983 -4.1885 -3.433 -1.7565 -1.4985 -5.0795 -3.458 -5.0735 -3.9665 -1.756 -3.7075 -3.599 0 
-10.4995 -9.296 -8.68 -4.1845 -2.4195 -6.025001 -6.6245 -8.744501 -8.863001 -5.324 -5.7245 -7.427501 -3.599 
-14.8125 -13.9297 -9.597001 -4.6515 -7.2145 -7.186 -12.3826 -12.8526 -10.139 -10.451 -9.335501 -7.427501 
-19.4462 -14.8467 -10.192 -9.024 -7.95 -13.1199 -16.4907 -14.1286 -15.5258 -14.062 -9.335501 
-20.3632 -15.4417 -14.5645 -9.646001 -14.2053 -17.228 -17.7667 -19.5154 -19.1368 -14.062 
-5.0735 -4.126 -1.756 -3.7075 -4.202 -1.7565 -3.737 -4.5185 -4.202 0 
-9.739 -5.5705 -5.7245 -8.679001 -5.3045 -5.1295 -8.8935 -10.647 -4.202 
-11.3125 -10.31 -11.184 -9.604501 -7.8795 -10.6215 -15.2338 -10.647 
-16.052 -15.7695 -12.1095 -13.0229 -13.5135 -16.9618 -15.2338 
-21.5115 -16.695 -15.5279 -18.6569 -19.8538 -16.9618 
