-4.759 
n/a 
n/a 
n/a 
n/a 
-4.759 
n/a 
n/a 
n/a 
n/a 
-4.759 
n/a 
n/a 
n/a 
n/a 
-4.759 
n/a 
n/a 
n/a 
n/a 
-3.1435 -2.6165 -1.934 -3.301 -4.052 
-5.3155 -4.552 -5.044 -7.386 
-7.253 -6.8525 -9.2235 
-10.0845 -11.7078 
-15.061 
-1.934 -4.7885 0 -1.4985 -4.3755 -1.7565 -4.237 -2.186 -2.6165 -1.934 -4.4265 -3.333 0 
-6.4805 -4.7885 -1.4985 -5.385 -5.345 -5.66 -6.133 -3.5105 -4.552 -6.25 -6.851501 -3.333 
-6.4805 -7.87 -5.385 -5.8405 -8.4455 -7.557 -7.661 -5.3075 -7.8595 -7.507 -6.851501 
-10.1425 -12.0133 -5.8405 -8.701 -10.375 -9.057 -10.01 -8.3525 -9.165501 -7.507 
-14.2858 -12.4688 -8.701 -10.6095 -11.875 -11.4796 -13.1224 -9.972 -9.165501 
-1.934 -4.7885 -4.4695 -4.237 -4.9445 -4.194 -2.489 -1.934 -4.2 -4.412 
-6.4805 -7.1525 -9.437 -7.5755 -8.865001 -7.774 -4.348 -6.2725 -7.664001 
-9.526 -12.6382 -12.9581 -10.504 -12.912 -9.772501 -8.788 -9.325001 
-15.0711 -16.1593 -15.8866 -14.551 -14.9105 -14.4091 -12.2309 
-18.5922 -19.0878 -19.9336 -16.5495 -19.5471 -17.852 

n/a 
n/a 
n/a 
n/a 
