-4.759 
n/a 
n/a 
n/a 
n/a 
-4.759 
n/a 
n/a 
n/a 
n/a 
-4.759 
n/a 
n/a 
n/a 
n/a 
-4.759 
n/a 
n/a 
n/a 
n/a 
-3.3155 -2.186 -4.352 -3.979 
-5.035 -6.52 -9.696001 
-9.018001 -12.2614 
-14.9158 
n/a 
-2.186 -3.0365 -3.979 -2.0935 -1.4985 -4.352 0 
-4.5415 -8.573501 -5.825 -2.9725 -4.71 -4.352 
-10.111 -10.6163 -6.793 -6.325 -4.71 
-12.1538 -11.5843 -10.467 -6.325 
-13.1218 -15.2583 -10.467 
-11.128 -8.144 -8.644 0 0 -3.3155 -2.186 -3.979 -2.0935 -4.352 0 0 
-19.272 -17.7586 -8.644 0 -3.3155 -5.035 -7.3065 -5.825 -6.173501 -4.352 0 
-28.8866 -17.7586 -8.644 -3.3155 -5.035 -10.204 -9.84 -10.4256 -6.173501 -4.352 
-28.8866 -17.7586 -12.1861 -5.035 -10.204 -13.0203 -14.4406 -10.4256 -6.173501 
-28.8866 -21.3007 -13.9056 -10.204 -13.0203 -17.6209 -14.4406 -10.4256 
-3.3155 -2.7765 -2.489 -1.8085 -3.9785 -2.0935 -1.8085 -4.352 0 
-5.0595 -3.495 -3.799 -5.6645 -5.678 -3.385 -6.329 -4.352 
-7.858 -4.987 -7.7555 -6.8605 -6.903501 -7.9315 -6.329 
-9.183001 -9.192 -8.375501 -7.8255 -11.774 -7.9315 
-13.5614 -9.573001 -9.179501 -12.911 -11.774 
