-4.759 
n/a 
n/a 
n/a 
n/a 
-4.759 
n/a 
n/a 
n/a 
n/a 
-4.759 
n/a 
n/a 
n/a 
n/a 
-4.759 
n/a 
n/a 
n/a 
n/a 
-2.4265 -2.186 -3.264 -2.3335 -3.9225 -3.54 -5.1845 -4.922 -4.281 -2.5045 -3.0835 -4.0375 0 -3.9785 -4.0375 -1.756 -3.228 -4.0375 0 -3.098 -5.1845 -4.245 -1.7565 -3.228 -4.0375 -2.186 -12.16972 
-3.292 -5.316 -4.533 -6.2085 -6.7845 -8.802 -11.4009 -9.486 -5.893 -5.9195 -6.752 -4.0375 -3.9785 -8.2635 -5.5295 -5.3125 -8.3095 -4.0375 -3.098 -8.8 -7.991 -6.1035 -5.2935 -8.3095 -5.994501 -15.56612 
-5.862 -6.1675 -7.932 -9.4525 -12.3745 -15.266 -15.9649 -11.3902 -8.679 -9.0165 -6.752 -7.524501 -8.2635 -11.0187 -9.4645 -10.749 -8.3095 -7.339001 -8.8 -11.6015 -9.700001 -9.9405 -11.0448 -10.1225 -19.89862 
-6.1755 -9.413 -11.4136 -15.0635 -18.8385 -19.83 -17.8691 -14.1762 -12.0716 -9.0165 -10.9316 -10.3545 -11.0187 -14.9537 -15.2342 -10.749 -12.016 -13.5492 -11.6015 -13.3105 -13.959 -16.0336 -12.8578 -24.24882 
-9.414001 -12.9046 -17.0246 -21.5275 -23.4025 -21.7342 -20.6551 -17.5688 -12.0716 -13.3749 -13.7616 -13.1097 -14.9537 -20.7234 -15.2342 -14.4555 -18.2262 -16.3507 -13.3105 -17.5695 -20.0521 -17.8466 -26.98412 
-3.0835 -3.8475 0 -3.9785 -3.8475 0 -1.756 -4.0325 -3.8475 -1.934 -1.4985 -3.098 -6.05 -2.5195 -4.0325 -3.8475 -2.186 -3.333 -2.5045 -3.8825 0 
-7.7615 -3.8475 -3.9785 -9.729501 -3.8475 -1.756 -5.8935 -9.477501 -5.4975 -2.6125 -4.123 -10.5535 -8.2435 -6.2915 -9.477501 -5.632 -4.2385 -4.623 -5.282001 -3.8825 
-7.7615 -7.952001 -9.729501 -9.729501 -5.133 -5.8935 -11.5423 -11.2655 -6.2775 -6.606 -12.3491 -12.747 -12.3587 -12.4691 -10.661 -8.3725 -5.345 -7.3535 -5.282001 
-12.3354 -14.5298 -9.729501 -11.0806 -10.159 -11.5423 -13.3303 -12.0455 -10.243 -15.0653 -14.5426 -16.8622 -18.5363 -13.6526 -13.4015 -9.280001 -8.4325 -7.3535 
-18.9132 -14.5298 -11.0806 -16.1066 -15.8078 -13.3303 -14.1103 -16.011 -18.9281 -17.2588 -18.6578 -23.0398 -19.7198 -16.3931 -14.309 -12.4781 -8.4325 
-3.0835 -3.8405 0 -3.9785 -3.8405 0 -1.756 -3.826 -3.8405 -3.152 -3.7855 -3.9915 -1.7695 -1.4985 -3.8405 -1.934 -2.3615 -3.54 -4.644 -3.826 -3.8405 -4.798 -3.098 -3.7875 -3.115 -4.9325 -2.3345 -1.4985 -4.9225 
-6.1255 -3.8405 -3.9785 -7.447001 -3.8405 -1.756 -5.495501 -7.007501 -6.5465 -5.473001 -6.692 -5.7605 -2.7955 -4.7545 -5.3015 -3.539 -6.1905 -7.0555 -8.793 -7.007501 -8.7915 -9.745501 -6.7025 -7.7235 -8.388 -6.2445 -3.233 -6.040501 
-6.1255 -7.791 -7.447001 -7.447001 -5.3535 -5.495501 -8.754001 -10.013 -9.2085 -8.43 -8.459001 -6.732 -6.344 -6.2385 -7.218 -7.2205 -10.6536 -11.4477 -12.3149 -12.2083 -14.1272 -13.3868 -9.710501 -13.3853 -10.4105 -6.8995 -7.6435 
-10.4004 -9.728001 -7.447001 -8.785 -8.6285 -8.754001 -11.8805 -12.675 -12.2735 -10.0035 -9.168 -10.6985 -7.8245 -8.566501 -10.586 -12.185 -15.0458 -14.9696 -17.5157 -17.544 -17.7685 -16.3948 -15.5923 -15.4078 -11.0655 -9.784501 
-12.3374 -9.728001 -8.785 -12.2456 -10.6345 -11.8805 -14.5425 -15.74 -13.847 -10.7125 -13.3651 -12.179 -10.494 -12.0497 -15.5505 -16.5772 -18.5677 -20.1704 -22.8514 -21.1853 -20.7765 -22.2766 -17.6148 -16.0628 -13.9505 
-1.4985 -3.8405 -2.4945 -4.7925 -2.5045 -8.3305 -3.8405 0 -5.066 -3.8405 -1.756 -7.623 -5.7745 -3.1495 -3.8405 -2.7295 -3.7555 -3.098 -6.2055 -2.9705 -3.8755 -1.934 -1.4985 -3.228 -4.395 -3.8405 0 
-4.7545 -6.3855 -5.941501 -6.9465 -9.542001 -9.910501 -3.8405 -5.066 -6.9255 -5.3535 -10.8305 -13.1675 -7.907001 -8.3385 -6.184 -5.0695 -6.978 -9.714001 -8.700001 -6.554 -5.2035 -2.6125 -3.9575 -8.746 -7.3555 -3.8405 
-7.5525 -9.540501 -7.87 -14.5577 -11.385 -8.8465 -7.759501 -6.9255 -8.126 -14.6281 -15.5265 -16.0074 -12.968 -10.5035 -8.776501 -8.363001 -14.2692 -12.4187 -12.3517 -9.099501 -5.851 -4.7305 -9.054501 -11.8389 -7.3555 
-10.609 -11.837 -15.9154 -16.5884 -11.5192 -13.1581 -8.699 -8.126 -17.877 -19.3365 -18.3589 -21.3531 -15.598 -13.096 -12.2326 -15.7788 -16.9739 -16.0704 -14.8972 -9.7025 -7.627 -10.2645 -12.1678 -11.8389 
-12.9055 -19.8824 -17.9461 -16.5884 -15.8308 -14.0976 -10.75 -17.877 -22.3574 -22.1689 -23.6532 -23.5743 -18.1905 -16.5521 -19.6484 -18.4835 -20.6256 -18.6159 -15.5002 -11.5755 -13.5496 -13.3778 -12.1678 
