-4.759 
n/a 
n/a 
n/a 
n/a 
-4.759 
n/a 
n/a 
n/a 
n/a 
-4.759 
n/a 
n/a 
n/a 
n/a 
-4.759 
n/a 
n/a 
n/a 
n/a 
-1.934 -4.9335 -1.4985 -4.3135 -3.5965 -2.186 -3.383 -4.5555 0 
-6.2435 -6.654 -5.928 -7.715501 -5.619 -4.438 -6.339 -4.5555 
-7.157001 -11.4509 -9.958501 -10.6354 -7.941 -7.0505 -6.339 
-12.1917 -15.4814 -13.1722 -12.9574 -10.9695 -7.0505 
-16.2222 -18.6951 -15.4942 -15.9859 -10.9695 
-1.4985 -5.193 -4.3955 -3.152 -4.819 -4.1585 -2.3335 -2.3615 -2.7415 -1.7695 -2.489 -2.664 -4.2945 -3.5435 -3.6705 -1.4985 -3.5485 -1.756 -3.5385 -3.152 -3.321 -4.794 -2.5195 -1.4985 -3.711 -4.7285 -1.756 -1.4985 0 -3.8605 -2.4285 -3.0415 0 -3.711 -3.152 -4.5275 -2.925 -3.222 -4.449 -3.711 -1.756 -3.9595 -1.7695 -3.948 -5.913 -2.4285 -5.6955 -3.6215 -1.4985 -3.8955 -3.9535 -3.3155 -3.937 
-6.5085 -9.8205 -6.4285 -6.2925 -7.589001 -5.438 -4.2805 -4.455 -4.604 -3.1405 -4.563 -5.986 -7.5655 -7.613501 -4.5585 -5.0185 -4.869 -4.993 -5.624 -5.589 -7.3555 -5.6105 -3.1695 -5.0515 -7.886001 -6.2235 -3.0405 -1.4985 -3.8605 -6.2385 -4.940001 -3.0415 -3.711 -5.7615 -6.809 -6.0615 -5.585 -6.1965 -6.656501 -5.016 -5.8875 -4.9785 -5.414001 -9.308001 -7.896 -7.918 -8.3535 -4.094 -4.759501 -5.842 -6.668 -8.074 
-9.9665 -11.8687 -9.410501 -8.523001 -8.645 -7.013 -5.581501 -6.4445 -5.526 -5.011 -8.303 -8.469 -10.634 -8.5275 -8.170001 -6.4115 -5.64 -6.913 -8.1855 -8.0815 -8.021501 -5.9935 -6.973 -8.281 -9.151001 -7.796501 -3.0405 -5.821 -6.2385 -7.3475 -4.940001 -7.357 -5.7615 -9.576501 -7.909 -6.866 -7.2885 -7.3855 -7.7355 -9.171501 -6.5655 -8.5325 -10.494 -11.5082 -9.535501 -10.7495 -8.443501 -6.754 -6.451 -8.265 -11.7137 
-12.0147 -14.8507 -10.587 -9.045 -10.2235 -7.7885 -7.803501 -6.9575 -7.455501 -8.708501 -10.6095 -11.8871 -11.548 -12.2548 -9.873501 -6.949501 -7.175 -9.481001 -10.468 -8.9905 -8.1955 -8.8915 -9.956 -9.5465 -10.1075 -7.796501 -7.4025 -7.783 -7.3475 -7.3475 -8.238001 -9.1875 -9.576501 -10.461 -8.432 -8.3395 -8.242001 -8.245001 -10.3745 -9.793001 -9.508 -13.8779 -12.6942 -13.1477 -12.8522 -10.785 -11.8713 -8.325001 -8.559 -13.4565 
-14.9967 -16.0272 -11.109 -10.4945 -10.63 -9.523001 -8.035001 -8.591001 -10.749 -11.1262 -14.0276 -12.8011 -15.2753 -13.9583 -10.319 -8.144 -9.7365 -11.7717 -11.377 -9.263 -10.758 -11.7727 -11.2693 -10.478 -10.1075 -12.3755 -9.4575 -7.961 -7.3475 -10.0925 -9.7915 -13.0329 -10.461 -10.984 -9.8675 -8.9395 -8.990001 -10.4265 -10.996 -12.8019 -14.877 -16.0781 -14.3337 -16.4644 -12.8877 -14.2128 -13.4423 -10.388 -13.8013 
-4.127 -3.5965 -6.138 -2.0935 -3.668 -3.324 
-6.9265 -9.906 -6.832001 -3.995 -6.754001 
-13.8178 -10.489 -10.634 -8.0345 
-14.4008 -14.9124 -14.6735 
-18.8242 -18.9519 
-2.3615 -4.4985 -4.161 -3.7905 -3.6975 -2.5045 -3.3715 -3.9035 -2.8645 -3.1125 -3.9285 -4.7265 0 -3.668 -4.3435 -4.352 -4.3435 0 -7.252501 -7.6585 -4.673 -2.264 -4.9335 0 0 -3.3715 -4.352 -4.0135 -1.7565 -4.3435 -4.673 0 
-6.198 -9.086 -7.702001 -6.5205 -6.281 -4.771 -5.995 -7.2645 -3.5345 -5.778501 -8.776501 -4.7265 -3.668 -6.553 -9.0895 -7.658 -4.3435 -7.252501 -15.3134 -12.7645 -5.9015 -8.318501 -4.9335 0 -3.3715 -7.796 -9.559501 -4.201 -5.822001 -10.007 -4.673 
-11.4937 -12.8266 -10.598 -7.976501 -8.702001 -7.8735 -9.1035 -7.9145 -6.3365 -10.298 -8.776501 -9.6475 -6.553 -12.1216 -10.317 -7.658 -12.5016 -15.3134 -20.4194 -13.993 -12.6928 -8.318501 -4.9335 -3.3715 -7.796 -13.5493 -10.318 -8.1295 -12.2269 -10.007 
-15.2343 -15.7226 -12.054 -10.0035 -11.9997 -11.183 -10.361 -10.6875 -11.1144 -10.298 -13.8793 -12.5325 -12.1216 -13.3491 -10.317 -16.2223 -20.5625 -20.4194 -21.6479 -20.7843 -12.6928 -8.318501 -8.936501 -7.796 -13.5493 -14.3078 -14.2465 -14.915 -12.2269 
-18.1303 -17.1786 -14.081 -13.9254 -15.3092 -12.4405 -13.134 -15.4654 -11.1144 -15.6542 -16.7643 -18.1011 -13.3491 -13.3491 -18.8813 -24.2832 -25.6685 -21.6479 -28.4392 -20.7843 -12.6928 -12.4491 -13.5012 -13.5493 -14.3078 -18.2363 -21.032 -14.915 
