-4.759 
n/a 
n/a 
n/a 
n/a 
-4.759 
n/a 
n/a 
n/a 
n/a 
-4.759 
n/a 
n/a 
n/a 
n/a 
-4.759 
n/a 
n/a 
n/a 
n/a 
-3.524 -7.476001 -8.071501 -4.8115 -1.934 -6.077 -4.8315 -4.0205 -4.9225 0 -2.645 -3.1575 -3.3935 -5.228 
-10.874 -17.8872 -13.3926 -6.611 -7 -10.4675 -9.489 -9.714001 -4.9225 -2.645 -3.72 -5.109 -8.080501 
-21.4975 -23.3317 -15.1921 -9.449 -10.6735 -15.125 -15.6195 -9.714001 -8.0625 -3.72 -5.317 -8.4245 
-26.8186 -25.1312 -18.0301 -13.2677 -15.331 -21.2555 -15.6195 -13.1328 -9.0065 -5.317 -8.4245 
-28.6181 -27.9692 -21.8488 -17.9252 -21.4615 -21.2555 -19.0383 -14.0768 -10.7505 -8.4245 
-3.524 -3.06 0 -1.934 -1.4985 -4.889 -4.8115 -5.7475 -1.934 -6.077 -4.0205 -3.1385 -3.152 -4.493 -1.756 -2.645 -3.1575 -3.3935 -3.1385 -3.152 -4.874 0 
-5.3645 -3.06 -1.934 -2.6125 -5.8525 -6.759501 -9.247 -6.765 -7 -10.0445 -7.403501 -5.219 -5.593 -5.8585 -3.898 -3.72 -5.109 -6.0575 -5.219 -6.21 -4.874 
-5.3645 -5.641 -2.6125 -7.543 -7.963 -10.451 -9.895 -12.354 -11.2709 -13.4275 -9.1055 -6.315001 -6.381001 -7.42 -5.4925 -5.317 -6.9195 -7.5945 -6.9205 -6.21 
-8.229 -6.2725 -7.543 -8.785501 -11.9407 -10.648 -15.65 -16.6249 -14.6539 -15.1295 -9.4825 -6.867001 -7.667 -7.4515 -6.8595 -6.967 -8.179501 -8.594 -6.9205 
-8.956 -11.5968 -8.785501 -12.937 -12.1377 -16.403 -19.9209 -20.0079 -16.3559 -15.5065 -10.03 -7.857501 -7.6905 -8.265 -8.642501 -8.194501 -9.229001 -8.594 
-3.524 -3.06 0 -2.5045 -3.76 -4.0205 -3.1385 -3.152 -4.493 -1.934 -4.537 -4.889 -5.5435 -1.934 -3.8735 -2.229 -6.077 -3.8145 -3.2295 -4.122 -3.152 -4.874 0 
-5.3645 -3.06 -2.5045 -3.8195 -7.596001 -7.403501 -5.219 -5.593 -5.1865 -6.7 -8.286501 -6.920501 -6.994501 -4.885 -5.3655 -8.6355 -9.0825 -7.414001 -5.713 -7.685 -6.21 -4.874 
-5.3645 -5.788 -3.8195 -7.599 -8.955001 -9.1055 -6.315001 -6.176001 -9.901001 -9.938001 -8.3765 -7.68 -8.891001 -6.688001 -8.8785 -11.9608 -13.0006 -9.940001 -9.134501 -8.922001 -6.21 
-7.608 -7.3865 -7.599 -8.955001 -9.728001 -9.4825 -6.896501 -11.4409 -10.6915 -9.971001 -8.708501 -9.165501 -9.642501 -9.159 -12.5132 -15.8789 -15.5266 -13.4367 -10.3355 -8.922001 
-10.5865 -11.7312 -8.955001 -9.7305 -9.843 -10.056 -12.398 -12.2314 -10.73 -10.0975 -10.5865 -9.978001 -10.72 -12.7995 -16.4313 -18.4049 -19.0233 -14.6377 -10.3355 
-6.077 -3.1715 -4.6165 -4.889 -4.9635 -2.5045 -3.7055 -3.06 
-8.0005 -8.370501 -10.265 -7.245001 -6.545 -6.856501 -5.447001 
-13.6153 -14.3582 -12.621 -8.4125 -11.6022 -8.250501 
-19.603 -16.7142 -13.7885 -13.6831 -12.9962 
-21.959 -17.8817 -19.0591 -15.0771 
