-4.759 
n/a 
n/a 
n/a 
n/a 
-4.759 
n/a 
n/a 
n/a 
n/a 
-4.759 
n/a 
n/a 
n/a 
n/a 
-4.759 
n/a 
n/a 
n/a 
n/a 
-4.2875 0 -12.16972 0 -5.349 0 -12.16972 0 -3.1495 -2.4945 -3.9285 
-4.2875 -12.16972 -12.16972 -5.349 -5.349 -12.16972 -12.16972 -3.1495 -4.459 -5.071 
-17.64162 -12.16972 -17.51872 -5.349 -18.35952 -12.16972 -15.31922 -4.459 -7.3825 
-17.64162 -17.51872 -17.51872 -18.35952 -18.35952 -15.31922 -16.62872 -7.3825 
-22.99062 -17.51872 -30.52924 -18.35952 -21.50902 -16.62872 -19.55222 
-3.9225 -3.45 -3.7965 -3.958 -4.8905 0 -5.4735 -6.0795 0 -4.9225 0 -4.862 0 
-5.533 -8.658 -7.7845 -7.856501 -4.8905 -5.4735 -8.4025 -6.0795 -4.9225 -4.9225 -4.862 -4.862 
-10.749 -12.889 -11.9364 -7.856501 -7.7155 -8.4025 -8.4025 -10.9575 -4.9225 -7.9145 -4.862 
-14.98 -17.0409 -11.9364 -10.0545 -9.883 -8.4025 -13.5539 -10.9575 -7.9145 -7.9145 
-19.1319 -17.0409 -14.1344 -12.4114 -9.883 -13.5539 -13.5539 -13.9495 -7.9145 
-2.3335 -2.8645 -5.349 0 -3.958 -4.8905 0 -12.16972 -2.4945 -3.8825 
-4.3785 -8.999001 -5.349 -3.958 -7.856501 -4.8905 -12.16972 -14.66422 -5.478001 
-10.733 -8.999001 -9.268001 -7.856501 -7.856501 -18.02062 -14.66422 -17.64772 
-10.733 -13.1138 -9.397 -7.856501 -21.29162 -20.51512 -17.64772 
-14.8478 -13.2428 -9.397 -21.29162 -23.78612 -23.49862 
-3.1495 -4.2875 -7.164001 -4.8905 -4.2875 0 -5.0795 -4.217 0 -7.4405 -2.4945 -3.9285 0 
-7.3525 -12.6359 -12.8787 -8.727 -4.2875 -5.0795 -7.519 -4.217 -7.4405 -11.0145 -5.071 -3.9285 
-16.1631 -18.3506 -16.7152 -8.727 -8.922501 -7.519 -7.519 -12.7607 -11.0145 -13.591 -5.071 
-21.8778 -22.1871 -16.7152 -13.5674 -10.2135 -7.519 -16.4401 -16.3347 -13.591 -13.591 
-25.7143 -22.1871 -21.5556 -14.8584 -10.2135 -16.4401 -20.0141 -18.9112 -13.591 
