-4.759 
n/a 
n/a 
n/a 
n/a 
-4.759 
n/a 
n/a 
n/a 
n/a 
-4.759 
n/a 
n/a 
n/a 
n/a 
-4.759 
n/a 
n/a 
n/a 
n/a 
-2.264 -3.524 -4.655 -4.432 -4.328 -9.4705 -9.947001 -4.3215 -2.3335 -3.8605 -4.257 -3.711 -2.7415 -4.493 -1.756 -5.2455 -3.152 -4.874 0 
-4.855 -6.382501 -8.713 -4.899 -15.0957 -19.8619 -15.6821 -5.1075 -7.068001 -8.611501 -6.821 -6.6645 -5.5985 -5.8585 -8.201 -9.262501 -6.21 -4.874 
-7.219501 -11.3509 -9.596001 -16.3755 -25.4871 -25.597 -16.4681 -9.267501 -12.2424 -10.7575 -9.943001 -8.946 -6.7325 -13.3725 -10.2135 -12.3463 -6.21 
-12.2685 -12.2339 -21.5831 -26.7669 -31.2222 -26.383 -20.6281 -14.5515 -14.3884 -13.8795 -12.2245 -9.634501 -14.6347 -15.385 -13.2973 -12.3463 
-13.1515 -24.221 -31.9745 -32.502 -32.0082 -30.543 -25.9121 -16.6975 -17.5104 -16.161 -12.913 -17.7693 -16.6472 -18.4688 -13.2973 
-3.524 -2.743 0 -3.757 -8.186001 -6.960001 -4.5715 -1.934 -1.4985 -4.698 -2.3335 -3.5455 -1.4985 -3.6905 -1.7565 -3.531 -3.8605 -4.744 -4.424 -1.756 -5.2455 -3.152 -4.874 0 
-5.5535 -2.743 -3.757 -12.99 -16.0244 -12.4359 -6.652 -2.6125 -5.740001 -6.8675 -5.755 -3.91 -4.7535 -5.23 -5.3905 -7.72 -7.878 -7.3205 -5.9015 -8.201 -9.262501 -6.21 -4.874 
-5.5535 -7.439 -12.99 -20.8284 -21.5003 -14.5164 -7.541 -6.765501 -7.803501 -10.147 -6.059 -6.055 -5.5765 -6.8005 -9.444501 -12.2925 -10.2865 -8.4175 -13.3615 -10.2135 -12.3463 -6.21 
-9.665001 -16.9978 -20.8284 -26.3043 -23.5808 -15.4054 -12.0822 -8.663501 -10.733 -10.3355 -8.332001 -6.266001 -6.8465 -10.6875 -14.1422 -14.701 -11.3835 -16.3511 -15.374 -13.2973 -12.3463 
-19.4932 -24.8362 -26.3043 -28.3848 -24.4698 -19.9466 -13.9802 -11.6202 -10.786 -12.6085 -8.422 -7.450001 -10.7545 -15.3852 -16.5507 -15.798 -19.3171 -18.3636 -18.4578 -13.2973 
-3.524 -7.175 -4.328 -9.976501 -11.0555 -4.3215 -1.934 -7.2955 -2.3335 -1.934 -1.4985 -3.8405 -1.7565 -3.531 -3.8605 -4.744 -3.152 -4.493 -1.756 -5.2455 -3.152 -5.228 
-10.613 -8.269501 -10.9075 -21.2746 -15.377 -5.7535 -8.481001 -9.2425 -4.468 -2.6125 -4.7545 -4.563 -5.3905 -7.72 -7.878 -6.309 -5.593 -5.8585 -8.201 -9.262501 -6.564 
-11.501 -15.9703 -22.2056 -25.5961 -16.809 -13.2491 -10.287 -11.5658 -5.0815 -5.7585 -5.365 -7.723 -9.444501 -12.2925 -9.399501 -7.0505 -6.381001 -13.3725 -10.2135 -12.7003 
-18.224 -27.4236 -26.5271 -27.0281 -24.3046 -15.0551 -12.6103 -12.1793 -7.7055 -6.6715 -7.838 -12.5742 -14.1422 -13.814 -10.255 -7.694001 -14.3434 -15.385 -13.6513 
-29.5221 -31.7451 -27.9591 -34.5237 -26.1106 -17.3784 -13.2238 -14.8033 -8.5155 -9.3695 -12.8528 -17.2719 -15.6637 -14.6695 -10.9059 -16.1518 -16.3559 -18.8228 
-3.524 -2.743 0 -4.432 -4.328 -6.88 -4.628 -12.16972 -4.5715 -1.4985 -4.698 -2.3335 -4.732 -3.531 -3.8605 -3.1385 -3.152 -4.493 -1.756 -3.6215 -5.2455 -3.152 -4.874 0 
-5.5535 -2.743 -4.432 -4.899 -12.5052 -9.9895 -18.25312 -16.74122 -5.9335 -5.740001 -6.8675 -7.299001 -7.3865 -7.72 -6.241 -5.219 -5.593 -5.8585 -5.195 -9.661 -9.262501 -6.21 -4.874 
-5.5535 -7.8025 -4.899 -13.785 -15.6147 -23.61462 -22.82462 -18.10322 -9.2025 -7.803501 -12.1378 -10.2485 -11.4543 -10.6555 -7.647 -6.315001 -6.381001 -8.574 -11.4963 -13.8762 -12.3463 -6.21 
-10.6215 -8.682 -13.785 -16.8945 -29.23982 -28.18612 -24.18662 -21.37222 -9.4565 -13.2278 -15.0873 -14.3163 -14.3898 -12.0615 -8.291 -6.867001 -8.818501 -15.2959 -15.7115 -16.96 -12.3463 
-10.7805 -17.7232 -16.8945 -30.51962 -33.81132 -29.54812 -27.45562 -21.62622 -15.1872 -16.1773 -19.1551 -17.2518 -15.7958 -12.7055 -9.047 -9.062501 -15.6866 -19.5111 -18.7953 -16.96 
