-4.759 
n/a 
n/a 
n/a 
n/a 
-4.759 
n/a 
n/a 
n/a 
n/a 
-4.759 
n/a 
n/a 
n/a 
n/a 
-4.759 
n/a 
n/a 
n/a 
n/a 
-4.426 -1.7565 -1.4985 -3.0835 -4.7285 -4.1555 -3.147 -3.188 -2.7415 -2.264 -2.3335 0 
-5.47 -2.4195 -3.535 -6.042 -8.4455 -5.77 -7.13 -5.910501 -4.934 -4.6785 -2.3335 
-5.9535 -4.6785 -6.335501 -9.523001 -9.541501 -9.706501 -10.4807 -8.017 -7.0225 -4.6785 
-8.021 -7.476501 -10.0095 -10.7035 -13.478 -13.1848 -12.5872 -10.504 -7.0225 
-9.983001 -11.3061 -11.3 -14.64 -16.9563 -15.2913 -15.0742 -10.504 
-2.3335 -2.186 -4.3725 -2.264 -3.995 0 
-3.7085 -5.3785 -5.023001 -4.972 -3.995 
-6.646 -5.9165 -8.455501 -4.972 
-6.891001 -10.0645 -8.455501 
-12.057 -10.0645 
-3.995 -2.7415 -2.264 -2.3335 -3.098 
-6.3075 -4.934 -4.6785 -5.0465 
-8.870001 -7.0225 -8.3555 
-11.3181 -11.0451 
-15.3407 
-3.995 -2.186 -4.06 -2.264 -2.3335 -3.098 
-5.7465 -4.672 -4.9805 -4.6785 -5.0465 
-8.6575 -5.5595 -7.980501 -8.3555 
-9.894001 -8.615 -12.2243 
-13.0265 -13.0636 
