-4.759 
n/a 
n/a 
n/a 
n/a 
-4.759 
n/a 
n/a 
n/a 
n/a 
-4.759 
n/a 
n/a 
n/a 
n/a 
-4.759 
n/a 
n/a 
n/a 
n/a 
-5.3885 -2.186 -2.871 -1.7565 -1.4985 -4.088 -2.9705 -3.152 -4.4465 -2.3345 -5.3085 -1.934 -7.0335 
-7.7415 -4.247 -3.5385 -2.4195 -5.6785 -6.732 -5.007 -6.3415 -4.897501 -7.4455 -6.8945 -7.999501 
-9.062 -4.411 -3.7675 -6.388 -7.828501 -8.257 -8.259001 -6.6235 -8.4405 -8.9375 -11.0785 
-9.098001 -4.5655 -7.0495 -8.368501 -9.172001 -11.645 -8.374001 -10.0065 -9.2335 -12.2599 
-9.157001 -7.6605 -9.2095 -9.969501 -12.6486 -11.76 -11.781 -10.8645 -12.7411 
-5.3885 -2.7415 -3.074 -1.8085 -3.5015 -3.034 -7.775001 -4.5115 -2.264 -3.5195 -3.3635 
-8.401501 -4.727 -4.639 -4.642 -6.0725 -11.972 -12.7421 -5.4995 -4.863 -5.205 
-10.238 -5.633 -6.9615 -7.877 -15.1881 -16.9391 -13.7301 -9.158001 -8.4975 
-11.144 -8.2895 -10.609 -17.2602 -20.1552 -17.9271 -17.3886 -13.0279 
-13.8005 -11.734 -19.9922 -22.2273 -21.1432 -21.5856 -21.2585 
-5.3885 -2.186 -3.074 -2.871 -1.7565 -1.4985 -3.5015 -2.9705 -5.198 -2.3345 -11.128 -3.5195 -3.3635 
-7.7415 -4.156 -5.798 -3.5385 -2.4195 -4.737 -6.2245 -7.778501 -5.898001 -13.7931 -14.6475 -5.205 
-9.1675 -6.1775 -5.95 -3.7675 -6.0035 -7.114 -11.5095 -10.634 -18.1858 -17.3126 -16.333 
-10.6605 -6.254 -6.064 -8.612 -8.136001 -12.7596 -14.365 -22.9218 -21.7053 -18.9981 
-10.683 -6.356 -10.6735 -10.5325 -13.8052 -15.6151 -26.6528 -26.4413 -23.3908 
-5.3885 -3.074 -2.871 -1.7565 -1.4985 -5.3085 -5.198 -4.088 -2.264 -3.5195 -3.3635 0 
-8.795 -5.798 -3.5385 -2.4195 -6.114 -10.0925 -9.803 -5.9465 -4.863 -5.205 -3.3635 
-11.7378 -5.95 -3.7675 -6.912001 -10.3815 -14.7697 -11.7951 -8.989 -8.4975 -5.205 
-11.8898 -6.064 -9.6145 -11.3653 -15.0587 -16.7618 -14.8376 -13.0213 -8.4975 
-12.0038 -12.3934 -14.165 -16.0425 -17.0508 -19.8043 -18.8699 -13.0213 
