-4.759 
n/a 
n/a 
n/a 
n/a 
-4.759 
n/a 
n/a 
n/a 
n/a 
-4.759 
n/a 
n/a 
n/a 
n/a 
-4.759 
n/a 
n/a 
n/a 
n/a 
-3.321 -2.9805 -3.6705 -2.5045 -1.8085 -4.1985 -1.934 -1.4985 -10.377 -2.229 -3.93 -4.3715 -3.284 0 
-5.175 -7.7635 -5.5335 -3.3625 -5.2985 -5.8505 -2.6125 -12.9693 -13.2016 -6.3275 -6.985001 -5.4425 -3.284 
-10.4712 -9.559 -5.8465 -6.094501 -6.589 -6.566 -14.4775 -15.7939 -17.3001 -8.8065 -7.3585 -5.4425 
-12.2667 -9.8645 -7.829 -7.1615 -7.1775 -18.8524 -17.3021 -19.8924 -19.7791 -8.8865 -7.3585 
-12.5722 -11.847 -8.526 -7.719 -19.5607 -21.677 -21.4006 -22.3714 -19.8591 -8.8865 
-3.882 -4.254 -2.5045 -3.6085 -4.1985 -1.934 -12.16972 -3.93 -4.3715 -3.284 
-7.159 -5.522 -6.601501 -6.2565 -5.8505 -15.11012 -16.09972 -6.985001 -5.4425 
-7.767 -9.7795 -8.8325 -7.4715 -19.51062 -19.04012 -19.15472 -7.3585 
-12.3973 -10.3845 -9.744 -21.43342 -23.44062 -22.09512 -19.52822 
-13.0023 -11.296 -23.75572 -25.36342 -26.49562 -22.46862 
-3.321 -2.9805 -4.254 -2.5045 -2.664 -3.6085 -4.1985 -1.934 -10.2775 -3.93 -4.3715 -3.284 
-5.175 -5.5985 -5.522 -4.074 -5.588 -6.2565 -5.8505 -13.2179 -14.6413 -6.985001 -5.4425 
-8.037001 -6.3975 -6.372 -6.9585 -6.9405 -7.4715 -17.6184 -17.5817 -17.6963 -7.3585 
-8.705001 -7.2 -8.473001 -7.557 -7.8245 -19.5412 -21.9822 -20.6367 -18.0698 
-9.673 -9.476 -8.693 -8.2545 -19.9994 -23.905 -25.0372 -21.0102 
-3.321 -2.9805 -4.254 -2.5045 -3.6085 -4.1985 -2.5045 -10.312 -3.299 -3.284 
-5.175 -5.5985 -5.522 -6.601501 -6.2565 -6.0755 -13.5115 -14.1998 -4.0885 
-8.037001 -6.3975 -9.7795 -8.8325 -7.561501 -17.3159 -17.3993 -14.9893 
-8.705001 -11.2382 -10.3845 -9.853001 -18.8419 -21.2037 -18.1888 
-13.4979 -11.8432 -11.405 -21.123 -22.7297 -21.9932 
