-4.759 
n/a 
n/a 
n/a 
n/a 
-4.759 
n/a 
n/a 
n/a 
n/a 
-4.759 
n/a 
n/a 
n/a 
n/a 
-4.759 
n/a 
n/a 
n/a 
n/a 
-1.934 -5.5435 -3.488 -3.2785 -4.5885 -4.033 -6.0075 -3.4815 -5.7345 -3.6955 -1.7695 -12.16972 
-6.953 -9.106501 -5.4155 -8.314 -6.323 -9.234501 -10.3815 -10.27 -8.803 -4.4705 -14.92142 
-11.0928 -11.3278 -10.76 -10.254 -12.3877 -14.1725 -17.381 -13.5143 -10.0385 -18.23982 
-13.3141 -16.6723 -12.7 -16.3187 -17.3257 -21.172 -20.6253 -14.7498 -23.90742 
-18.6586 -18.6123 -18.7647 -21.2567 -24.3252 -24.4163 -21.8608 -28.61872 
-1.934 -5.5435 -3.488 -4.97 -3.193 -4.5885 -4.033 -4.944 -3.4815 -4.0555 -1.7695 -3.9515 -3.873 0 
-6.953 -9.106501 -6.277 -7.2925 -7.3815 -6.323 -9.509001 -8.2945 -7.5505 -4.7475 -6.0185 -7.762 -3.873 
-11.0928 -12.1893 -9.601501 -12.7128 -9.567 -12.6622 -12.9371 -12.6319 -8.4145 -9.39 -9.4195 -7.762 
-14.1756 -15.5138 -15.8672 -14.8983 -16.0468 -16.0903 -17.2745 -13.4959 -13.3444 -13.0028 -9.4195 
-17.5001 -21.7795 -18.0527 -21.3781 -19.4749 -20.4277 -18.1385 -18.4258 -16.9572 -13.0028 
-8.504 -12.16972 -11.128 -3.251 -4.518 -4.5655 -1.934 -8.525001 -3.609 -5.5435 
-20.80662 -23.29772 -14.379 -6.1035 -10.254 -6.259 -10.533 -12.713 -8.0315 
-32.20162 -26.54872 -17.2315 -12.1123 -11.9475 -15.5068 -15.3334 -17.1355 
-35.45262 -29.40122 -23.2403 -13.8058 -21.1953 -20.3072 -19.7559 
-38.30512 -35.41002 -24.9338 -23.0536 -25.9957 -24.7297 
-1.934 -5.5435 0 -3.488 -3.2785 0 -4.5885 -4.033 -5.5485 -6.508 -6.0305 -5.3155 -3.0365 0 
-6.953 -5.5435 -3.488 -5.4155 -3.2785 -4.5885 -6.323 -8.327 -9.645 -9.836 -9.766001 -7.5645 -3.0365 
-6.953 -9.106501 -5.4155 -5.4155 -8.314 -6.323 -8.6495 -9.6475 -9.8485 -13.7245 -12.5502 -7.5645 
-11.0928 -11.3278 -5.4155 -10.76 -10.254 -8.6495 -9.7205 -9.8505 -13.7382 -16.5087 -12.5502 
-13.3141 -11.3278 -10.76 -12.7 -12.5805 -9.7205 -9.9335 -13.741 -16.5224 -16.5087 
