-4.759 
n/a 
n/a 
n/a 
n/a 
-4.759 
n/a 
n/a 
n/a 
n/a 
-4.759 
n/a 
n/a 
n/a 
n/a 
-4.759 
n/a 
n/a 
n/a 
n/a 
-1.7695 -5.193 -1.4985 -3.3755 -1.756 -4.5475 -2.7295 -2.7765 -2.9645 -3.8935 -3.397 -3.925 -2.0935 -4.5095 -1.4985 -3.3425 -1.934 -4.1145 0 
-5.53 -5.6265 -4.057 -5.1655 -6.4475 -7.2495 -4.065 -4.5195 -6.4375 -6.3795 -5.7015 -5.648 -5.9455 -5.8345 -4.4685 -5.2005 -6.6335 -4.1145 
-5.937 -8.045501 -5.9495 -9.887501 -9.248501 -8.466001 -5.8385 -7.877 -8.638 -7.4155 -7.067 -7.968 -7.113501 -7.71 -6.0445 -9.2165 -6.6335 
-8.3505 -10.2706 -10.228 -12.8405 -10.404 -9.8255 -8.880501 -9.786 -10.6745 -8.693 -9.0235 -8.991501 -8.9505 -9.4275 -9.896501 -9.2165 
-10.631 -14.5491 -13.207 -13.996 -11.7635 -12.9119 -10.6345 -12.0053 -11.952 -10.146 -9.745501 -10.9855 -10.7452 -13.5973 -9.896501 
-4.0995 -1.4985 -4.3435 -1.7565 -3.135 -3.44 -3.7095 0 -3.135 -2.8965 -3.991 -1.7565 -4.5095 -2.7415 -3.074 -5.268 -1.934 -4.278 
-4.5135 -5.6925 -5.325 -4.6765 -6.051001 -5.3175 -3.7095 -3.135 -4.9085 -5.8275 -5.0075 -6.4145 -7.3895 -4.727 -7.7585 -6.36 -6.2645 
-9.1945 -5.9175 -8.012501 -8.693 -7.8205 -5.3175 -7.714001 -4.9085 -7.9075 -6.383 -8.913 -9.018001 -9.294001 -9.814501 -8.656 -11.5561 
-9.3415 -8.469501 -12.3022 -10.064 -7.8205 -9.2955 -9.7325 -7.9075 -8.7465 -10.138 -11.7391 -10.9547 -14.4847 -10.8664 -13.6733 
-11.9423 -12.9134 -13.6732 -10.064 -12.4499 -11.5734 -12.9735 -8.7465 -12.6225 -13.3351 -13.6758 -16.1454 -15.5366 -15.8837 
-2.3615 -4.853 -2.664 -3.7765 -4.4515 -2.356 -5.692 -1.934 -2.3615 -3.493 -1.4985 -4.285 -3.397 -2.882 -2.489 -1.4985 -3.5905 -3.4715 -4.064 -1.7565 -1.4985 -2.871 -4.672 -1.4985 -3.0835 -3.7765 
-6.6835 -6.266 -5.6485 -7.825 -5.478001 -7.351501 -6.8335 -3.539 -4.628 -4.839 -4.774 -8.127001 -6.36 -3.631 -3.9675 -4.435 -5.4045 -7.083 -4.3045 -2.4195 -4.316 -6.8815 -5.493501 -3.535 -7.103001 
-7.744 -10.051 -8.618 -8.949 -10.001 -8.915501 -8.495001 -4.735 -5.3525 -8.236 -8.748501 -11.765 -6.875 -5.258 -7.374001 -6.3875 -9.265501 -7.4795 -5.28 -5.716001 -7.973001 -7.766 -8.1365 -7.8675 
-11.6936 -13.1583 -10.064 -13.4894 -11.565 -10.082 -9.747001 -5.368 -8.64 -10.7595 -12.8381 -12.28 -9.083 -8.6835 -9.191501 -9.4425 -9.441501 -7.9275 -7.269 -9.938001 -8.5245 -10.223 -12.7696 
-14.8009 -14.6043 -14.6044 -15.0534 -12.7315 -10.7395 -10.2835 -8.648001 -11.2665 -14.8491 -13.3531 -14.488 -12.7601 -10.4105 -12.3763 -9.561001 -9.929001 -9.072001 -10.717 -10.472 -10.6735 -15.0003 
-5.4085 -2.4945 -4.1895 -2.0935 -3.135 -3.8935 -3.397 -4.5095 -3.1575 -3.757 -3.3425 -3.44 -5.2345 -1.756 -3.9195 0 
-7.191 -6.3275 -5.8355 -4.4665 -6.063001 -6.3795 -6.619 -8.311501 -7.4605 -7.0375 -6.538 -8.714001 -6.381001 -5.199 -3.9195 
-10.6095 -7.311 -7.6905 -7.671 -8.578001 -8.7465 -9.801001 -12.9147 -8.875501 -10.702 -12.7672 -9.896501 -9.23 -5.199 
-11.593 -8.9825 -11.3252 -10.396 -10.7025 -12.1973 -14.924 -14.3297 -12.8092 -16.9312 -13.9497 -12.9583 -9.23 
-13.2645 -12.9868 -14.0502 -12.5205 -14.1533 -17.3203 -16.339 -18.2634 -19.0384 -18.1137 -17.0115 -12.9583 
