-4.759 
n/a 
n/a 
n/a 
n/a 
-4.759 
n/a 
n/a 
n/a 
n/a 
-4.759 
n/a 
n/a 
n/a 
n/a 
-4.759 
n/a 
n/a 
n/a 
n/a 
-3.16 -3.849 -4.9385 -3.895 -2.7415 -3.383 -4.079 
-7.732 -8.3935 -10.586 -6.465 -4.8365 -5.4065 
-12.7923 -14.5922 -13.156 -8.678 -7.122 
-18.991 -17.1622 -15.369 -10.564 
-21.561 -19.3752 -17.255 
-3.432 -2.186 0 -4.87 -4.9385 0 -4.9385 0 -5.1265 -2.186 -2.664 -3.77 -3.3755 -5.42 0 
-5.681 -2.186 -4.87 -11.0845 -4.9385 -4.9385 -4.9385 -5.1265 -7.665 -3.8555 -4.9335 -5.318501 -8.327001 -5.42 
-5.681 -6.240001 -11.0845 -11.0845 -7.2305 -4.9385 -7.689001 -7.665 -9.4985 -5.799 -5.7245 -11.2964 -8.327001 
-10.76 -13.8961 -11.0845 -13.3765 -7.2305 -7.689001 -11.6199 -9.4985 -11.5128 -6.5185 -12.6954 -11.2964 
-18.4161 -13.8961 -13.3765 -13.3765 -10.9322 -11.6199 -13.4534 -11.5128 -12.2323 -14.1528 -12.6954 
-3.5025 -3.99 0 -2.4265 -2.186 -1.4985 -3.5015 -2.0935 -4.9385 -1.7695 -5.0525 -2.3345 -5.3265 0 
-8.459 -3.99 -2.4265 -3.292 -3.339 -4.737 -4.7905 -6.973001 -7.213 -5.652 -7.605 -7.144 -5.3265 
-8.459 -5.547 -3.292 -4.5995 -5.516 -5.8745 -9.4175 -8.356501 -11.8135 -8.493501 -13.2811 -7.144 
-10.7335 -6.5375 -4.5995 -7.1875 -6.227 -10.9303 -9.545501 -13.4394 -14.655 -14.0628 -13.2811 
-11.724 -7.819 -7.1875 -8.435 -11.8984 -11.0583 -15.9904 -16.2809 -20.2243 -14.0628 
-3.5025 -2.186 -1.4985 -3.2825 -3.3755 -1.7695 -4.4755 -10.2555 0 
-5.481 -3.339 -3.712 -5.0085 -3.992 -5.448 -15.9602 -10.2555 
-6.603 -4.8425 -5.071 -5.0865 -7.1815 -17.5083 -15.9602 
-7.153 -5.7765 -5.1515 -8.3915 -19.8084 -17.5083 
-8.6855 -5.847 -8.4145 -21.1868 -19.8084 
