-4.759 
n/a 
n/a 
n/a 
n/a 
-4.759 
n/a 
n/a 
n/a 
n/a 
-4.759 
n/a 
n/a 
n/a 
n/a 
-4.759 
n/a 
n/a 
n/a 
n/a 
-3.1385 -3.8245 -2.0935 -5.493 -1.934 -6.6585 0 -1.756 -4.4615 -5.1845 -1.756 -3.4635 -4.832 -4.2655 -2.4945 -3.849 -2.5045 -6.899 -5.1845 -5.1255 0 
-5.577001 -5.99 -7.4965 -8.379 -7.809 -6.6585 -1.756 -5.9395 -9.26 -7.2435 -5.7385 -9.000001 -7.445001 -6.8475 -5.410501 -6.305 -9.9645 -9.2285 -9.094501 -5.1255 
-8.309 -12.446 -9.97 -14.4724 -7.809 -8.549 -5.9395 -10.5745 -10.1955 -11.998 -11.7658 -11.793 -9.578501 -9.587501 -7.648001 -13.8686 -12.1974 -13.2377 -9.094501 
-15.5808 -14.9195 -16.1584 -14.4724 -9.307501 -12.9757 -10.5745 -11.51 -14.95 -18.0253 -14.5588 -13.9265 -12.4347 -11.8872 -15.2428 -16.1015 -16.2066 -13.2377 
-18.0543 -21.1079 -16.1584 -15.9709 -13.749 -17.6107 -11.51 -16.2645 -20.9773 -20.8183 -16.6923 -16.7827 -14.7344 -19.482 -17.4757 -20.1107 -16.2066 
-3.1385 -3.0695 -2.674 -4.657 -1.934 -4.628 -4.743 -2.0935 -4.778 -3.7875 -5.1845 -2.5045 -4.121 -5.0485 -1.756 -3.4635 -4.9115 -2.4945 -4.628 -5.939 -5.1845 -5.1255 0 
-4.286 -4.343 -5.782 -5.156 -5.9605 -4.7515 -7.322001 -5.584001 -8.123501 -9.739 -8.093 -6.727 -6.243001 -6.1755 -5.7385 -8.6455 -7.182001 -8.336 -5.9615 -7.814 -9.094501 -5.1255 
-5.2185 -6.731 -6.2275 -8.999001 -5.9845 -7.329 -9.6705 -8.979 -14.3734 -12.9409 -10.757 -7.946001 -7.491001 -10.459 -9.9805 -10.586 -13.3311 -9.022 -7.8265 -12.324 -9.094501 
-7.416 -7.191 -10.031 -9.01 -7.879001 -9.674001 -13.1455 -15.3573 -17.5753 -15.6049 -11.976 -9.371 -12.2947 -14.701 -12.0174 -16.7351 -14.0171 -10.7025 -12.3519 -12.324 
-7.923 -11.2923 -10.0395 -9.6455 -10.2275 -13.147 -19.5238 -18.5592 -20.2393 -16.8239 -13.401 -14.2657 -16.5367 -16.7379 -18.1665 -17.4211 -15.6976 -15.2279 -12.3519 
-1.4985 -6.844 -5.1845 -5.1255 -2.674 -5.914001 -1.934 -4.628 -4.743 -2.0935 -1.8085 -3.469 -2.95 -1.756 -2.674 -3.757 -4.1205 -5.1845 -2.985 -4.121 -5.0485 0 
-8.304001 -8.685 -9.094501 -6.8645 -7.091001 -6.227001 -5.9605 -4.7515 -7.322001 -3.385 -4.362 -4.7535 -4.287 -4.3315 -5.2365 -6.7065 -10.634 -9.731001 -6.031 -6.243001 -5.0485 
-9.797001 -12.906 -10.7575 -11.6583 -7.336 -10.061 -5.9845 -7.329 -8.5605 -5.1655 -4.91 -5.959 -6.6405 -6.6035 -7.488 -13.4298 -15.1805 -10.7595 -7.172501 -6.243001 
-14.2014 -14.569 -15.5513 -11.9033 -11.4526 -10.102 -7.879001 -8.566001 -9.904 -5.2885 -6.0405 -7.548 -8.576 -8.9215 -14.4337 -17.9763 -16.209 -10.779 -7.172501 
-15.8644 -19.3628 -15.7963 -16.0199 -11.4936 -12.2119 -9.069501 -9.935 -10.147 -6.2425 -7.6095 -8.931 -10.513 -16.1486 -18.9802 -19.0048 -16.2285 -10.779 
-2.5685 -3.45 -3.0695 -4.657 -1.756 -5.1845 -4.4615 -4.9115 -3.1385 -3.152 -3.849 -2.5045 -5.1845 -5.1255 0 
-4.985 -4.273 -5.7825 -6.045 -7.0085 -7.859 -9.481501 -8.340501 -5.219 -5.9565 -6.305 -8.208 -9.094501 -5.1255 
-5.758 -7.0515 -7.2565 -12.3687 -9.1325 -13.5098 -13.1333 -10.27 -8.095501 -8.2095 -10.533 -12.3282 -9.094501 
-8.663501 -8.400001 -14.416 -14.4927 -15.0237 -17.1616 -15.0628 -13.1465 -10.254 -12.5735 -14.6532 -12.3282 
-9.894 -15.7201 -16.54 -20.3839 -18.6755 -19.0911 -17.9393 -15.305 -14.825 -16.6937 -14.6532 
