-4.759 
n/a 
n/a 
n/a 
n/a 
-4.759 
n/a 
n/a 
n/a 
n/a 
-4.759 
n/a 
n/a 
n/a 
n/a 
-4.759 
n/a 
n/a 
n/a 
n/a 
-2.925 -4.5275 -3.9225 -4.2315 -2.5045 -4.065 0 -3.9685 0 -9.123501 0 -5.185 0 -4.176 0 -4.3435 0 -5.218 0 
-6.923 -6.85 -6.2445 -5.5285 -6.7445 -4.065 -3.9685 -3.9685 -9.123501 -9.123501 -5.185 -5.185 -4.176 -4.176 -4.3435 -4.3435 -5.218 -5.218 
-10.115 -9.410001 -7.732 -8.5345 -6.7445 -7.146 -3.9685 -14.1784 -9.123501 -14.5959 -5.185 -9.181001 -4.176 -5.7575 -4.3435 -8.74 -5.218 
-10.5705 -10.9493 -11.4412 -8.5345 -9.4925 -7.146 -14.1784 -14.1784 -14.5959 -14.5959 -9.181001 -9.181001 -5.7575 -5.7575 -8.74 -8.74 
-12.1098 -14.6585 -11.4412 -11.6767 -9.4925 -18.2205 -14.1784 -19.6508 -14.5959 -18.5919 -9.181001 -11.2053 -5.7575 -9.832001 -8.74 
-2.3345 -2.985 -3.6065 -4.8445 -3.115 -4.065 0 -3.9685 0 -4.7445 0 -4.5495 0 -4.176 0 -4.3435 -1.756 -5.218 -2.925 -4.5975 -2.985 -5.719 0 
-4.871 -6.502 -6.7685 -7.5925 -7.584001 -4.065 -3.9685 -3.9685 -4.7445 -4.7445 -4.5495 -4.5495 -4.176 -4.176 -4.3435 -6.0925 -6.8785 -9.214001 -6.9275 -7.026 -7.035501 -5.719 
-8.028 -9.729 -9.521501 -12.3335 -7.584001 -7.146 -3.9685 -8.5975 -4.7445 -7.359 -4.5495 -7.739 -4.176 -5.7575 -6.0925 -9.2425 -10.2695 -13.4057 -8.291 -11.7543 -7.035501 
-11.339 -12.603 -14.3009 -12.3335 -10.523 -7.146 -8.5975 -8.5975 -7.359 -7.359 -7.739 -7.739 -5.7575 -7.265 -9.2425 -12.8433 -14.4612 -14.7692 -13.4405 -11.7543 
-14.213 -17.3824 -14.3009 -15.2725 -10.523 -10.27 -8.5975 -9.635 -7.359 -9.3195 -7.739 -8.9255 -7.265 -10.403 -12.8433 -17.035 -15.8247 -19.9187 -13.4405 
-2.925 -5.1785 -4.2315 -2.5045 -3.6085 0 -7.4985 0 -9.123501 0 -4.5495 0 -4.176 0 -4.3435 0 -6.5085 0 
-7.643001 -7.0105 -5.5285 -6.601501 -3.6085 -7.4985 -7.4985 -9.123501 -9.123501 -4.5495 -4.5495 -4.176 -4.176 -4.3435 -4.3435 -6.5085 -6.5085 
-8.535001 -8.2685 -8.894501 -6.601501 -9.354501 -7.4985 -17.2598 -9.123501 -13.9604 -4.5495 -7.739 -4.176 -5.7575 -4.3435 -9.7885 -6.5085 
-9.959001 -11.8087 -8.894501 -12.8281 -9.354501 -17.2598 -17.2598 -13.9604 -13.9604 -7.739 -7.739 -5.7575 -5.7575 -9.7885 -9.7885 
-13.5628 -11.8087 -15.3367 -12.8281 -19.51 -17.2598 -22.0967 -13.9604 -17.1499 -7.739 -8.9255 -5.7575 -12.9169 -9.7885 
-3.6085 0 -3.9685 0 -9.502001 0 -4.5495 0 -4.176 0 -10.526 0 -12.16972 -3.135 -3.319 -1.7565 -4.346 0 
-3.6085 -3.9685 -3.9685 -9.502001 -9.502001 -4.5495 -4.5495 -4.176 -4.176 -10.526 -10.526 -12.16972 -15.30472 -5.8835 -4.165 -6.872001 -4.346 
-5.392 -3.9685 -14.5569 -9.502001 -14.5591 -4.5495 -7.739 -4.176 -15.5804 -10.526 -22.69572 -15.30472 -18.05322 -5.932 -10.104 -6.872001 
-5.392 -14.5569 -14.5569 -14.5591 -14.5591 -7.739 -7.739 -15.5804 -15.5804 -22.69572 -25.83072 -18.05322 -18.10172 -12.0036 -10.104 
-17.273 -14.5569 -19.614 -14.5591 -17.7486 -7.739 -19.8012 -15.5804 -27.75012 -25.83072 -28.57922 -18.10172 -24.17332 -12.0036 
