-4.759 
n/a 
n/a 
n/a 
n/a 
-4.759 
n/a 
n/a 
n/a 
n/a 
-4.759 
n/a 
n/a 
n/a 
n/a 
-4.759 
n/a 
n/a 
n/a 
n/a 
-2.985 -4.02 -4.4665 -1.7695 -4.7565 -1.934 -1.4985 -3.291 -4.1055 -3.277 0 
-6.726 -8.4615 -5.5575 -5.778 -5.2585 -2.6125 -3.9665 -7.643001 -6.095 -3.277 
-10.733 -8.857 -7.953001 -6.8335 -5.9095 -4.871 -7.933001 -8.158501 -6.095 
-11.1285 -9.8025 -8.8205 -7.4335 -8.3605 -9.123001 -8.1785 -8.158501 
-12.074 -10.67 -9.850501 -8.79 -13.3463 -9.381001 -8.1785 
-2.985 -3.264 -4.066 -3.539 -1.7695 -4.1055 -3.277 -5.7285 -4.3905 
-6.2155 -7.363501 -5.765 -4.574 -5.707 -6.095 -9.275001 -7.5905 
-9.472 -9.4975 -5.888 -8.059 -7.626501 -12.5298 -11.2726 
-12.2682 -9.837501 -10.354 -10.0797 -14.4093 -14.5274 
-12.6082 -14.3035 -12.3747 -16.8625 -16.4069 
-2.985 -4.02 -1.934 -1.4985 -3.291 -3.7375 -3.277 -9.028501 -5.3285 
-6.726 -5.502 -2.6125 -3.9665 -5.318 -4.877501 -13.3817 -14.6694 
-8.044001 -6.099 -4.871 -5.3335 -5.884 -15.3738 -19.0226 
-8.51 -8.2885 -5.8175 -5.891 -16.9163 -21.0147 
-10.451 -9.4115 -6.4085 -16.9325 -22.5572 
-2.4265 -3.251 -3.9535 -1.7695 -4.2065 -1.934 -2.7455 -4.1055 -3.277 
-4.8545 -6.0795 -5.098001 -4.563 -7.022 -5.2345 -6.1415 -6.095 
-7.434 -6.8255 -8.264501 -7.597001 -10.5975 -8.158501 -7.7365 
-8.099501 -9.814 -9.956 -11.4373 -13.5215 -9.432 
-11.436 -11.5673 -14.0317 -14.3613 -14.795 
