-4.759 
n/a 
n/a 
n/a 
n/a 
-4.759 
n/a 
n/a 
n/a 
n/a 
-4.759 
n/a 
n/a 
n/a 
n/a 
-4.759 
n/a 
n/a 
n/a 
n/a 
-2.3615 -4.2485 -3.685 -1.4985 -3.995 -1.7565 -4.2485 -1.7695 -5.279 0 
-6.834001 -9.261001 -5.283 -4.712 -6.804 -5.969 -6.2815 -7.600501 -5.279 
-12.3309 -11.0386 -9.218 -7.225501 -11.5593 -8.219 -12.8653 -7.600501 
-14.1085 -14.9736 -12.3031 -12.2554 -13.8093 -14.9116 -12.8653 
-18.0435 -18.0587 -17.333 -14.5054 -20.5019 -14.9116 
-1.934 -4.0195 -2.3615 -4.237 -4.567 -3.106 -2.802 -2.674 -1.934 -3.188 0 -4.567 -3.511 -1.934 -3.8245 -5.164 
-7.165 -6.1225 -6.852 -8.9205 -9.032001 -5.88 -6.591001 -5.0615 -5.387 -3.188 -4.567 -7.272 -4.582 -5.86 -6.658 
-9.3085 -10.494 -11.9019 -13.8351 -12.1422 -9.859 -8.937 -9.0625 -5.387 -8.075001 -7.272 -7.649001 -8.8275 -8.460501 
-13.8828 -15.5439 -16.8165 -16.9453 -16.1212 -12.3334 -13.4158 -9.0625 -10.543 -10.9202 -7.649001 -12.2309 -11.88 
-18.9327 -20.4585 -19.9267 -20.9243 -18.5956 -16.8122 -13.4158 -14.3901 -13.3882 -11.2972 -12.2309 -15.2834 
-4.426 -1.7565 -1.4985 -3.0835 -4.7285 -4.1555 -3.147 -2.3615 -4.142 -1.7565 -3.995 -1.934 -4.142 -3.106 -4.082 -4.024 -6.049 -1.756 -3.8245 -3.681 -2.645 -4.375 0 
-5.47 -2.4195 -3.535 -6.042 -8.4455 -5.77 -5.445 -6.949 -5.3145 -5.423 -5.975 -5.811501 -6.387 -7.736 -9.123001 -11.4412 -7.344 -5.5 -6.1385 -6.372001 -7.3535 -4.375 
-5.9535 -4.6785 -6.335501 -9.523001 -9.541501 -8.02 -10.6303 -8.713 -9.514501 -7.498 -10.5411 -8.421 -11.513 -12.9772 -17.0206 -12.7362 -11.5182 -7.7435 -9.167 -11.7081 -7.3535 
-8.021 -7.476501 -10.0095 -10.7035 -11.7915 -13.6073 -12.3943 -12.847 -12.0133 -12.2555 -13.1506 -14.3962 -16.7542 -20.8748 -18.3156 -16.9104 -13.7617 -10.9772 -14.6227 -11.7081 
-9.983001 -11.3061 -11.3 -12.9535 -17.3788 -15.3713 -16.5283 -15.3458 -16.7708 -14.865 -19.1258 -19.6374 -24.6518 -22.1698 -22.4898 -19.1539 -16.9954 -16.4329 -14.6227 

n/a 
n/a 
n/a 
n/a 
