-4.759 
n/a 
n/a 
n/a 
n/a 
-4.759 
n/a 
n/a 
n/a 
n/a 
-4.759 
n/a 
n/a 
n/a 
n/a 
-4.759 
n/a 
n/a 
n/a 
n/a 
-4.386 -1.7565 -5.2695 -4.4995 -2.5045 -3.7285 -4.371 -3.098 
-4.539 -6.818501 -10.4115 -6.753 -6.181 -7.9875 -7.6165 
-9.165501 -12.3887 -12.665 -11.0343 -10.892 -11.945 
-15.0395 -14.6422 -16.9463 -15.7453 -14.8495 
-17.293 -18.9235 -21.6573 -19.7028 
-3.17 -1.7565 -1.4985 -5.2695 -2.4945 -4.9385 -2.356 -4.7245 
-4.179 -2.4195 -7.1835 -6.8715 -5.9385 -6.554 -7.457001 
-4.497 -7.961501 -8.592501 -8.528501 -7.727 -12.027 
-9.1505 -9.253501 -9.677001 -10.1945 -13.4394 
-9.8225 -10.186 -11.4234 -16.1703 
-1.934 -3.3715 -4.4285 -4.371 -2.8645 -2.871 -4.284 -4.0455 0 
-4.622 -8.857 -9.757 -6.7815 -5.417 -7.0495 -8.2615 -4.0455 
-9.908501 -14.0877 -12.2519 -9.801001 -9.116 -11.571 -8.2615 
-15.5378 -16.5826 -15.2714 -13.4294 -13.8373 -11.571 
-18.0327 -19.6021 -18.8998 -18.1507 -13.8373 
-3.17 -4.371 -2.4945 -4.0745 -1.7695 -6.6285 
-8.4475 -6.953501 -6.09 -6.077 -6.991 
-11.5048 -10.8414 -7.327001 -9.666 
-15.3927 -12.0784 -10.1035 
-16.6297 -15.2559 
