-4.759 
n/a 
n/a 
n/a 
n/a 
-4.759 
n/a 
n/a 
n/a 
n/a 
-4.759 
n/a 
n/a 
n/a 
n/a 
-4.759 
n/a 
n/a 
n/a 
n/a 
-6.8165 -2.356 -5.0265 -4.39 -3.9465 0 -3.4225 -4.0965 0 -4.2815 -1.756 -2.985 -5.611 -3.152 -3.0365 0 
-9.565001 -7.176001 -7.493 -7.883501 -3.9465 -3.4225 -4.2 -4.0965 -4.2815 -5.558001 -4.2025 -7.949501 -7.982 -5.5585 -3.0365 
-14.6864 -9.0695 -10.4425 -7.883501 -6.832001 -4.2 -4.2 -7.748001 -5.558001 -8.3275 -9.3085 -9.836 -10.586 -5.5585 
-16.5799 -12.1568 -10.4425 -10.3475 -6.942501 -4.2 -7.765 -8.847001 -8.3275 -13.5229 -11.2334 -12.4882 -10.586 
-19.6672 -12.1568 -12.9065 -10.524 -6.942501 -7.765 -8.851501 -10.2135 -13.5229 -15.4478 -13.8856 -12.4882 
-4.819 -3.9465 0 -3.4225 -4.2815 0 -4.2815 -3.152 -1.934 -5.282 -2.356 -5.4005 -3.959 0 
-9.558001 -3.9465 -3.4225 -7.3215 -4.2815 -4.2815 -7.3205 -4.9115 -8.001 -7.1745 -6.851501 -6.517 -3.959 
-9.558001 -6.832001 -7.3215 -7.3215 -6.425 -7.3205 -8.973001 -11.5761 -10.2385 -10.598 -7.744 -6.517 
-12.6071 -11.8086 -7.3215 -10.361 -9.928201 -8.973001 -15.792 -13.8136 -13.662 -11.4905 -7.744 
-17.5837 -11.8086 -10.361 -14.1818 -11.5807 -15.792 -18.0295 -17.2371 -14.5545 -11.4905 
-1.934 -1.4985 -4.193 -3.9465 0 -3.4225 -4.0965 -1.756 -4.2815 -3.152 -3.2015 -1.4985 -4.2645 
-2.6125 -4.594501 -9.5245 -3.9465 -3.4225 -4.2 -5.706 -5.786 -7.3205 -8.1405 -4.57 -5.584001 
-5.558001 -9.691001 -9.5245 -6.832001 -4.2 -5.86 -8.619 -7.854 -12.4806 -9.986501 -8.184 
-10.103 -9.691001 -12.5428 -6.942501 -5.86 -8.6285 -10.749 -13.1911 -14.3266 -13.6005 
-10.103 -12.7643 -12.6533 -8.5015 -8.6285 -10.7495 -16.0861 -15.0371 -17.9406 
-5.4005 -3.959 -3.9465 0 -3.4225 -8.052501 0 -4.2815 -2.4945 -4.077 -1.934 -3.6135 -3.5435 
-6.517 -6.8835 -3.9465 -3.4225 -13.5776 -8.052501 -4.2815 -6.896501 -5.416 -4.43 -5.716 -6.183001 
-9.874001 -6.8835 -6.832001 -13.5776 -13.5776 -12.963 -6.896501 -9.5105 -5.615 -8.3605 -8.1385 
-9.874001 -8.6645 -18.0647 -13.5776 -18.4881 -15.578 -9.5105 -9.6085 -9.743501 -11.141 
-11.4692 -20.9062 -18.0647 -18.4881 -21.1031 -18.192 -9.6085 -13.852 -12.5958 
