-4.759 
n/a 
n/a 
n/a 
n/a 
-4.759 
n/a 
n/a 
n/a 
n/a 
-4.759 
n/a 
n/a 
n/a 
n/a 
-4.759 
n/a 
n/a 
n/a 
n/a 
-3.0365 -2.186 -2.847 -3.8135 -2.0935 -12.16972 -1.934 -5.1845 -1.934 -15.175 0 
-3.66 -4.1045 -6.1245 -5.457 -15.25422 -14.10372 -6.564 -7.9875 -16.0975 -13.356 
-4.256001 -6.9395 -7.8695 -19.05072 -17.18822 -18.73372 -8.81 -23.2168 -16.8631 
-6.945001 -8.866 -22.15822 -20.98472 -21.81822 -20.97972 -24.0771 -23.2168 
-8.8725 -23.58292 -24.09222 -25.61472 -24.06422 -36.24682 -24.0771 
-1.934 -5.1845 -4.0145 -3.0365 -2.186 -2.847 -4.5585 -2.0935 -4.3475 
-6.564 -9.7355 -6.837501 -3.66 -4.1045 -5.7845 -6.151 -6.5115 
-11.7272 -12.6783 -7.5075 -4.256001 -8.0365 -8.698 -9.6745 
-14.67 -13.3483 -8.0885 -8.052501 -9.376 -12.3601 
-15.34 -13.9293 -12.1076 -9.390501 -13.1129 
-5.1845 -4.0145 0 -1.934 -5.1845 -3.0365 -2.186 -2.847 -4.4525 -2.0935 -4.3475 0 
-9.7355 -4.0145 -1.934 -6.564 -8.9455 -3.66 -4.1045 -6.907001 -6.035501 -6.5115 -4.3475 
-9.7355 -5.479 -6.564 -9.529 -9.404 -4.256001 -8.5275 -8.8865 -8.7685 -6.5115 
-11.3198 -10.0315 -9.529 -9.862 -10.0725 -8.586 -9.432501 -9.611001 -8.7685 
-15.8723 -13.0309 -9.862 -10.6785 -14.4025 -9.451501 -10.2618 -9.611001 
-4.98 0 -3.687 0 -6.508 0 -2.4945 -5.1845 -4.0145 0 -3.0365 -2.186 -2.847 -4.4525 -2.0935 -8.375 -5.1845 
-4.98 -3.687 -3.687 -6.508 -6.508 -2.4945 -8.5895 -9.7355 -4.0145 -3.0365 -3.66 -4.1045 -6.907001 -6.035501 -10.6475 -13.9551 
-8.355 -3.687 -8.688001 -6.508 -10.907 -8.5895 -13.2325 -9.7355 -6.837501 -3.66 -4.256001 -8.5275 -8.8865 -15.1573 -16.2276 
-8.355 -8.688001 -8.688001 -10.907 -17.002 -13.2325 -13.2325 -12.6783 -7.5075 -4.256001 -8.586 -9.432501 -18.2671 -20.7374 
-13.5992 -8.688001 -13.7274 -17.002 -21.645 -13.2325 -16.1753 -13.3483 -8.0885 -8.586 -9.451501 -18.9179 -23.8472 
