-4.759 
n/a 
n/a 
n/a 
n/a 
-4.759 
n/a 
n/a 
n/a 
n/a 
-4.759 
n/a 
n/a 
n/a 
n/a 
-4.759 
n/a 
n/a 
n/a 
n/a 
-4.426 -1.7565 -1.4985 -3.6115 -4.7285 -4.1555 -3.147 -4.628 -4.743 -1.934 -1.4985 -3.473 -1.7565 -5.1845 -3.5025 -1.7565 -3.13 -3.506 0 -3.0105 -1.7695 -3.5195 -3.2785 -3.0105 -3.852 -1.7565 -1.4985 -8.137 0 
-5.47 -2.4195 -4.081 -6.5495 -8.4455 -5.77 -8.5045 -4.7515 -6.9355 -2.6125 -4.624001 -4.882 -6.580501 -8.614 -6.4225 -5.4475 -5.864 -3.506 -3.0105 -5.493 -5.6925 -5.5895 -5.0555 -6.259501 -5.511 -2.4195 -9.637 -8.137 
-5.9535 -5.180501 -6.670501 -9.978001 -9.541501 -10.575 -9.049 -6.945 -7.646 -5.738 -6.1005 -10.064 -10.111 -12.3138 -10.5035 -7.772501 -5.864 -4.7705 -5.493 -7.171 -7.88 -6.672 -9.3465 -8.3265 -6.234 -10.459 -9.637 
-8.462501 -7.797 -10.054 -11.0524 -14.3465 -11.1195 -11.3621 -7.654 -11.2641 -7.4195 -11.4569 -13.5239 -13.8108 -16.3948 -12.8285 -7.772501 -6.8885 -7.2535 -7.171 -8.309501 -8.283 -11.3724 -11.7699 -8.8 -15.1127 -10.459 
-10.2375 -11.2985 -11.1648 -15.8574 -14.891 -13.4326 -12.0711 -11.2847 -12.9456 -12.9405 -14.9168 -17.2237 -17.8918 -18.7198 -12.8285 -9.136001 -9.503 -9.012501 -8.309501 -8.3105 -14.1288 -13.7958 -12.2434 -17.8467 -15.1127 
-4.628 -4.743 -3.473 -3.1335 -1.7695 -5.1845 -3.432 -2.9775 -3.737 -1.7695 -3.13 -3.506 -3.0105 -3.0835 -3.5195 -3.2785 -3.0105 -3.5725 -4.2765 -2.4265 0 
-4.7515 -9.2915 -5.8755 -4.809 -7.4505 -7.6925 -6.34 -7.066501 -6.3935 -5.5605 -5.864 -4.7705 -6.347 -7.93 -5.5895 -5.0555 -7.280001 -7.586501 -6.156 -2.4265 
-9.309001 -11.9494 -7.8435 -10.172 -10.0005 -11.4629 -11.1356 -10.411 -10.5875 -8.012501 -6.8885 -8.243501 -11.7935 -9.762001 -6.672 -9.415501 -11.6484 -9.057501 -6.156 
-11.9819 -13.9174 -13.5865 -12.722 -13.8757 -16.2585 -14.4801 -14.605 -13.0395 -9.77 -10.575 -13.941 -13.6255 -11.0215 -11.4414 -13.9141 -13.1194 -9.057501 
-13.9499 -19.6604 -16.1365 -16.5972 -18.6713 -19.603 -18.6741 -17.057 -14.797 -13.5269 -16.2725 -15.773 -14.885 -15.7909 -15.94 -15.3851 -13.1194 
-1.934 -4.628 -4.743 0 -3.5455 -1.4985 -3.8405 -2.5195 -3.506 -3.13 0 -3.0105 -1.7695 -3.5195 -3.2785 0 -3.0105 0 -3.889 -2.7415 -4.9775 0 -3.4945 -4.4265 -4.0735 0 -1.7695 -6.694 -1.7695 -3.685 -2.5045 -3.5025 -3.1335 -4.1405 0 
-5.9605 -4.7515 -4.743 -3.5455 -3.91 -4.7545 -5.6585 -5.8085 -5.435 -3.13 -3.0105 -5.493 -5.6925 -5.5895 -3.2785 -3.0105 -3.0105 -3.889 -6.6445 -6.668 -4.9775 -3.4945 -6.237 -7.068001 -4.0735 -1.7695 -9.245501 -10.31 -4.9795 -5.0275 -5.9895 -5.3935 -4.9165 -4.1405 
-5.9845 -4.7515 -8.1315 -3.91 -5.4455 -5.969 -7.483 -7.842501 -5.435 -4.976 -5.493 -7.171 -7.88 -5.5895 -5.0555 -3.0105 -6.3465 -6.6445 -9.065001 -6.668 -8.099001 -6.237 -7.861 -7.068001 -5.056 -9.245501 -12.8165 -13.52 -5.608 -9.132001 -7.442 -5.955 -4.9165 
-5.9845 -8.142501 -8.3855 -5.4455 -6.642 -7.685 -9.412001 -7.842501 -6.428 -7.5405 -7.171 -8.309501 -7.88 -6.672 -5.0555 -6.3465 -10.7495 -9.065001 -9.065001 -9.460501 -10.304 -7.861 -7.861 -8.0465 -13.8242 -12.8165 -16.0265 -14.1485 -9.684 -9.772501 -7.6775 -5.955 
-8.521501 -8.392501 -9.6875 -6.642 -8.222501 -9.635 -9.412001 -9.240001 -8.403501 -9.8195 -8.309501 -8.309501 -8.283 -6.672 -9.293501 -10.7495 -13.17 -9.065001 -12.4967 -11.8317 -12.1198 -7.861 -9.441501 -17.0995 -17.3952 -16.0265 -16.655 -18.2245 -10.5141 -10.761 -7.6775 
-4.628 -5.939 -4.9985 -2.0935 -3.5025 -3.1335 -2.0935 -5.1845 -3.432 -3.4605 -2.5045 -3.13 -3.506 0 -3.0105 -1.7695 -3.5195 -3.2785 -3.0105 
-5.9615 -12.0821 -6.438001 -5.425 -5.3935 -4.924 -7.298 -7.6925 -6.322001 -5.219 -5.571 -5.864 -3.506 -3.0105 -5.493 -5.6925 -5.5895 -5.0555 
-12.1656 -13.5216 -10.6279 -7.241 -7.4065 -10.7175 -10.3126 -10.66 -8.976501 -9.727501 -8.761001 -5.864 -4.7705 -5.493 -7.171 -7.88 -6.672 
-13.6051 -17.7115 -12.4439 -9.366501 -13.627 -13.7321 -13.2801 -13.3145 -13.531 -13.0801 -8.761001 -6.8885 -7.2535 -7.171 -8.309501 -8.283 
-17.795 -19.5275 -14.5694 -15.8168 -16.6416 -16.6996 -15.9346 -17.869 -16.8836 -13.0801 -9.731001 -9.503 -9.012501 -8.309501 -8.3105 
