-4.759 
n/a 
n/a 
n/a 
n/a 
-4.759 
n/a 
n/a 
n/a 
n/a 
-4.759 
n/a 
n/a 
n/a 
n/a 
-4.759 
n/a 
n/a 
n/a 
n/a 
-12.16972 -8.006001 -12.16972 -3.0465 -1.934 -1.7695 -4.1645 
-20.17572 -20.78752 -15.21622 -4.8825 -4.0395 -6.475501 
-32.95724 -23.83402 -17.05222 -6.7145 -10.064 
-36.00374 -25.67002 -18.88422 -13.1516 
-37.83974 -27.50202 -25.32132 
-7.4885 -4.3285 -1.756 -5.1605 -2.985 -4.846 -2.264 -1.4985 -4.1175 -1.7565 -5.891 0 
-12.4442 -5.857 -6.781 -8.161 -6.8915 -7.1315 -2.9195 -4.6915 -4.7545 -7.1095 -5.891 
-13.9727 -10.096 -9.4615 -10.1225 -9.024 -7.8305 -4.9245 -4.851 -8.370001 -7.1095 
-18.2117 -13.1737 -11.4752 -12.3656 -9.3225 -9.0775 -4.9575 -8.402 -8.370001 
-21.2894 -15.1874 -13.7183 -12.6641 -10.0895 -9.09 -8.4075 -8.402 
-8.257501 -5.2495 -4.126 -1.7565 -5.891 -4.7615 -4.2675 -1.756 -3.4985 -1.7695 -3.5435 -3.8405 0 
-13.9362 -9.466001 -5.221001 -7.1095 -11.5629 -10.575 -6.0375 -4.8285 -5.6065 -5.561501 -7.9315 -3.8405 
-18.1527 -10.6548 -11.3434 -13.1736 -17.3764 -12.345 -9.467001 -7.002501 -9.2955 -10.2485 -7.9315 
-19.3415 -16.7772 -17.4075 -18.9871 -19.1464 -15.7745 -11.8002 -10.9793 -14.0951 -10.2485 
-25.4639 -22.8413 -23.221 -20.7571 -22.5759 -18.1077 -15.777 -15.7789 -14.0951 
-10.0905 -3.1385 -3.5185 -4.1 -1.756 -4.1695 -1.756 -2.925 -5.1605 -2.356 -3.325 -2.985 -3.84 0 
-13.3614 -6.736501 -7.3825 -5.774 -4.966 -5.2235 -4.2585 -7.3755 -7.553 -6.434 -5.788 -6.74 -3.84 
-16.9594 -10.9827 -9.3535 -8.277 -6.3065 -8.151501 -8.6255 -9.259501 -12.0932 -9.462 -8.414001 -6.74 
-21.2056 -12.9537 -12.1369 -9.715 -8.914001 -12.7225 -10.5975 -13.8587 -15.1212 -12.1574 -8.414001 
-23.1766 -15.7371 -13.5749 -12.3239 -13.5152 -14.6945 -15.1967 -16.8867 -17.8166 -12.1574 
