-4.759 
n/a 
n/a 
n/a 
n/a 
-4.759 
n/a 
n/a 
n/a 
n/a 
-4.759 
n/a 
n/a 
n/a 
n/a 
-4.759 
n/a 
n/a 
n/a 
n/a 
-3.545 -2.871 -1.7565 -3.4185 -3.8055 -2.4265 -3.332 -4.7055 -8.4185 -1.756 -10.008 0 
-6.561501 -3.5385 -5.8015 -7.975 -4.9605 -6.428 -6.6335 -14.0354 -10.575 -11.08 -10.008 
-7.1355 -9.053 -10.575 -8.3325 -8.837501 -10.0125 -16.6142 -16.1919 -19.899 -11.08 
-12.7892 -13.9939 -11.3763 -12.3353 -12.4778 -19.9932 -18.7707 -25.5159 -19.899 
-17.7301 -14.7952 -15.3791 -15.9756 -22.4585 -22.1497 -28.0947 -25.5159 
-2.925 -4.118 -4.572 -9.630501 0 -4.916 -1.7565 -6.304 -1.756 -5.8785 0 -2.264 -5.499 -4.814 -1.934 -1.4985 -4.524 
-6.2545 -7.8625 -15.3805 -9.630501 -4.916 -5.372 -7.464001 -7.438001 -7.1515 -5.8785 -2.264 -8.271001 -10.8845 -6.434 -2.6125 -5.5905 
-9.4665 -18.9784 -15.3805 -14.6903 -5.372 -9.519001 -8.484001 -13.4695 -7.1515 -8.459001 -8.271001 -13.8357 -12.5045 -7.0555 -6.2165 
-20.7464 -18.9784 -20.4403 -15.1463 -9.519001 -10.0485 -14.7301 -13.4695 -9.337501 -14.7328 -13.8357 -15.4557 -13.126 -11.1011 
-20.7464 -24.0382 -20.8963 -19.2933 -10.0485 -16.3928 -14.7301 -15.6555 -15.7159 -20.2975 -15.4557 -16.0772 -17.1716 
-9.914001 -1.934 -1.4985 -3.545 -2.742 -3.903 -1.4985 -4.701 0 -4.916 -1.7565 -6.304 -1.756 -4.986 0 -1.7695 -3.6055 -4.3125 -4.7055 -2.3615 -2.186 -3.849 -2.5045 -9.630501 
-11.988 -2.6125 -4.401 -6.1445 -5.533 -5.24 -6.526 -4.701 -4.916 -5.372 -7.464001 -7.438001 -6.342 -4.986 -1.7695 -5.259501 -7.663001 -9.4645 -7.344501 -3.5005 -4.8565 -6.305 -13.0524 
-12.6665 -5.1745 -6.6435 -9.880501 -6.690001 -8.4645 -6.526 -8.615001 -5.372 -9.519001 -8.484001 -12.66 -6.342 -7.167 -5.259501 -8.8345 -13.0654 -12.1505 -8.0315 -5.99 -7.104 -16.9565 
-15.2285 -7.7625 -10.6785 -10.737 -10.2177 -8.4645 -9.397 -9.667001 -9.519001 -10.0485 -13.9206 -12.66 -8.271001 -11.3244 -8.8345 -14.5657 -15.7514 -12.8375 -9.539001 -8.515 -17.8853 
-17.8165 -11.9571 -11.535 -14.2647 -10.2177 -11.9231 -10.4908 -13.814 -10.0485 -15.5833 -13.9206 -14.589 -12.64 -14.8994 -14.5657 -17.2517 -16.4384 -14.345 -12.275 -19.3529 
-3.3975 -3.499 -5.12 -2.3345 -4.657 0 -9.630501 0 0 -4.916 -1.7565 -6.304 -1.756 -4.986 -4.7975 0 -1.7695 -1.4985 -5.054 -3.6765 -1.934 -1.4985 -3.3975 0 
-5.114501 -9.591001 -7.975501 -5.679 -4.657 -9.630501 -9.630501 0 -4.916 -5.372 -7.464001 -7.438001 -6.342 -8.1695 -4.7975 -1.7695 -2.7955 -5.747001 -7.8795 -5.201 -2.6125 -4.584001 -3.3975 
-11.8125 -12.6537 -11.8314 -5.679 -15.4285 -9.630501 -9.630501 -4.916 -5.372 -9.519001 -8.484001 -12.66 -9.9175 -8.1695 -6.7855 -2.7955 -7.476 -8.130001 -9.676001 -5.757 -5.559 -4.584001 
-14.8752 -16.5096 -11.8314 -16.7183 -15.4285 -9.630501 -14.6903 -5.372 -9.519001 -10.0485 -13.9206 -16.2355 -9.9175 -10.061 -7.681 -7.476 -10.022 -10.1225 -10.2255 -7.826 -5.559 
-18.7311 -16.5096 -22.8707 -16.7183 -15.4285 -14.6903 -15.1463 -9.519001 -10.0485 -15.5833 -17.4961 -16.2355 -11.809 -10.9565 -12.6891 -10.022 -12.0921 -10.672 -12.2945 -7.826 
