-4.759 
n/a 
n/a 
n/a 
n/a 
-4.759 
n/a 
n/a 
n/a 
n/a 
-4.759 
n/a 
n/a 
n/a 
n/a 
-4.759 
n/a 
n/a 
n/a 
n/a 
-3.1495 -10.3915 -3.013 -1.4985 -3.1495 0 -6.411 -4.2815 -1.7695 -3.644 -1.4985 -4.96 
-14.8362 -14.5085 -4.488 -6.7095 -3.1495 -6.411 -11.6263 -4.4915 -5.0855 -6.016001 -6.503 
-18.9532 -15.9835 -9.7275 -6.7095 -10.8557 -11.6263 -11.8363 -7.7875 -7.811501 -11.2627 
-20.4282 -21.223 -9.7275 -14.5003 -16.071 -11.8363 -15.1323 -10.6465 -13.2404 
-25.6677 -21.223 -17.5753 -19.7156 -16.281 -15.1323 -17.9913 -16.6482 
-3.6705 0 -1.4985 -4.4705 -3.251 -3.098 -5.084 -4.6195 -3.034 -4.2815 -1.7695 -5.2035 
-3.6705 -1.4985 -5.882501 -7.275 -5.6965 -8.632 -8.466001 -7.2495 -5.568 -4.4915 -7.376 
-4.5585 -5.882501 -8.077001 -9.5555 -12.2065 -12.1384 -11.228 -10.107 -5.7335 -9.892 
-9.232501 -8.077001 -10.238 -16.2713 -15.7129 -14.9004 -14.0855 -10.196 -11.336 
-11.5416 -10.238 -17.0416 -19.7777 -18.4749 -17.7579 -14.1745 -15.8083 
-3.6705 -5.054 -3.222 -2.985 -4.0745 -1.7695 -12.16972 -2.229 -8.799001 -4.367 -3.644 -3.519 0 
-8.5905 -7.489 -5.116 -8.876 -5.6095 -14.92142 -14.39872 -11.623 -13.6624 -7.6835 -5.5295 -3.519 
-11.2893 -10.396 -11.4996 -10.348 -19.36162 -17.15042 -23.79272 -16.4864 -16.9789 -10.6335 -5.5295 
-14.1963 -16.7796 -12.9716 -24.40392 -21.59062 -26.54442 -28.65612 -19.8029 -19.9289 -10.6335 
-20.5799 -18.2516 -27.02752 -26.63292 -30.98462 -31.40782 -31.97262 -22.7529 -19.9289 
-2.5045 -1.4985 -3.486 -2.95 0 -2.8965 -4.6195 -3.251 -3.1125 -6.460001 -4.8745 -6.4275 -3.9115 0 
-3.1915 -3.5655 -4.563 -2.95 -2.8965 -6.609 -7.4935 -4.28 -8.2095 -11.0145 -9.677501 -7.9445 -3.9115 
-4.538 -4.577 -4.563 -6.4095 -6.609 -9.391001 -8.243501 -8.963 -13.0956 -15.8175 -11.2509 -7.9445 
-4.615 -4.577 -7.4535 -10.6215 -9.391001 -10.3105 -13.1127 -13.9313 -17.8986 -17.3909 -11.2509 
-4.615 -7.462501 -11.7505 -13.4035 -10.3105 -15.1797 -18.081 -18.7343 -19.472 -17.3909 
