-4.759 
n/a 
n/a 
n/a 
n/a 
-4.759 
n/a 
n/a 
n/a 
n/a 
-4.759 
n/a 
n/a 
n/a 
n/a 
-4.759 
n/a 
n/a 
n/a 
n/a 
-3.38 -12.16972 -2.7455 -4.1145 -2.186 -4.3305 -1.7565 -4.1145 -4.2665 -1.756 -3.8225 -3.58 0 
-16.93312 -14.91522 -7.272 -6.3365 -5.2645 -8.089001 -6.695001 -8.258 -5.3725 -5.6485 -7.6435 -3.58 
-19.67862 -19.44172 -9.504001 -8.1635 -9.6195 -13.2305 -11.8003 -10.4115 -8.009501 -9.023001 -7.6435 
-24.20512 -21.67372 -11.9762 -13.6733 -14.8696 -18.3358 -13.9538 -13.4821 -12.722 -9.023001 
-26.43712 -24.14592 -17.486 -18.9234 -19.9749 -20.4893 -17.0244 -18.1946 -12.722 
-1.4985 -3.711 -2.9705 -2.186 -4.3305 -2.0935 -3.326 -1.756 -3.3785 -3.58 -1.934 -4.278 -2.186 -1.4985 -3.38 -9.344501 0 
-4.8355 -6.2875 -3.89 -5.2645 -6.745501 -5.0985 -4.4115 -5.0435 -6.889501 -5.135 -6.2645 -5.364 -3.339 -4.4895 -10.634 -9.344501 
-6.7755 -7.22 -6.9525 -7.5415 -9.341001 -5.773 -7.559 -8.264 -8.308001 -10.1367 -8.099501 -7.637001 -6.4645 -12.6253 -10.634 
-7.8885 -9.718 -8.870001 -10.1105 -9.901501 -9.253 -11.5219 -9.375 -13.5019 -11.9717 -9.605 -11.3981 -15.0715 -12.6253 
-10.6085 -11.7679 -11.5272 -10.57 -13.6387 -13.4363 -12.6329 -14.7433 -15.3369 -13.4772 -13.5291 -20.0051 -15.0715 
-3.38 -4.747 -3.4635 -1.7695 -4.1145 0 -7.2715 0 0 -2.186 -1.8085 -4.49 -4.3305 -1.7695 -1.4985 -3.326 -2.264 -4.1145 -1.756 -2.0935 -3.3785 -4.182 0 
-5.523 -8.591001 -4.2045 -6.501 -4.1145 -7.2715 -7.2715 0 -2.186 -3.164 -6.465 -7.9195 -4.7 -2.7955 -4.841001 -5.025001 -6.7355 -6.368 -4.3175 -5.2445 -6.8125 -4.182 
-9.901001 -9.172501 -8.684001 -6.501 -9.586 -7.2715 -7.2715 -2.186 -3.164 -7.952 -9.337001 -7.929 -5.389 -6.2165 -6.559 -9.887501 -8.257501 -9.059501 -7.0515 -8.205001 -6.8125 
-10.2625 -13.9078 -8.684001 -12.6375 -9.586 -7.2715 -9.160501 -3.164 -7.952 -11.4302 -9.345501 -9.606 -7.775 -8.035501 -11.5257 -11.5225 -11.2956 -11.9585 -10.3486 -8.205001 
-15.3876 -13.9078 -15.5581 -12.6375 -9.586 -9.160501 -10.219 -7.952 -11.4302 -11.4387 -10.6235 -12.0606 -9.738501 -13.1116 -13.1607 -14.5606 -14.1946 -15.2556 -10.3486 
-7.2715 -2.186 -4.3305 -2.0935 -3.326 -1.756 -3.58 -4.49 
-9.160501 -5.2645 -6.745501 -5.0985 -4.4115 -4.769 -8.023001 
-12.9538 -7.5415 -9.341001 -5.773 -6.287 -9.3395 
-15.2308 -10.1105 -9.901501 -7.4505 -11.5797 
-17.7998 -10.57 -11.8362 -13.377 
