-4.759 
n/a 
n/a 
n/a 
n/a 
-4.759 
n/a 
n/a 
n/a 
n/a 
-4.759 
n/a 
n/a 
n/a 
n/a 
-4.759 
n/a 
n/a 
n/a 
n/a 
-7.699501 -1.934 -3.091 -9.323001 -3.193 -2.229 -4.3285 0 
-9.7005 -4.2105 -10.8415 -9.878501 -5.1755 -5.7115 -4.3285 
-10.7595 -12.3068 -11.397 -11.9984 -9.509001 -5.7115 
-18.8558 -12.8623 -13.5169 -16.3319 -9.509001 
-19.4113 -14.9822 -17.8504 -16.3319 
-7.009 -3.5455 -3.091 -5.965 -2.229 -3.193 -3.423 0 
-10.0545 -5.242001 -8.748501 -7.2065 -4.5325 -7.2035 -3.423 
-10.755 -12.0661 -9.1835 -8.455 -8.366501 -7.2035 
-17.5791 -12.5011 -10.8534 -12.5658 -8.366501 
-18.0141 -14.171 -14.9642 -12.5658 
-7.009 -1.934 -3.091 -4.3285 -2.264 -3.4155 -4.983 -2.229 -3.193 0 
-8.9655 -4.2105 -6.0005 -6.0995 -6.2035 -7.4395 -6.5125 -4.5325 -3.193 
-9.931001 -6.509 -7.355 -10.6465 -10.7677 -9.3915 -9.190001 -4.5325 
-12.3331 -7.745 -12.2382 -15.2107 -12.7197 -12.1134 -9.190001 
-13.5691 -12.912 -16.8024 -17.1627 -15.4416 -12.1134 
-7.699501 -4.1585 -2.264 -4.231 -3.193 -4.3285 
-11.08 -6.9275 -7.317 -8.052 -7.224501 
-13.849 -12.6113 -11.6058 -12.5559 
-19.5328 -16.9001 -16.1097 
-23.8216 -21.404 
