-4.759 
n/a 
n/a 
n/a 
n/a 
-4.759 
n/a 
n/a 
n/a 
n/a 
-4.759 
n/a 
n/a 
n/a 
n/a 
-4.759 
n/a 
n/a 
n/a 
n/a 
-4.235 0 0 -3.043 -3.3715 -4.5145 -2.4945 -4.384 0 0 
-4.235 0 -3.043 -4.5235 -7.694 -6.1875 -7.9205 -4.384 0 
-4.235 -3.043 -4.5235 -8.5725 -8.882501 -12.3099 -7.9205 -4.384 
-7.3295 -4.5235 -8.5725 -9.3465 -15.3575 -12.3099 -7.9205 
-8.859 -8.5725 -9.3465 -16.1549 -15.3575 -12.3099 
-4.235 0 0 -3.834 -3.1015 -3.043 -3.4915 -8.676001 -2.3585 -2.674 -5.073 0 0 
-4.235 0 -3.834 -5.57 -5.7935 -4.4045 -13.4483 -11.3851 -3.6565 -8.334001 -5.073 0 
-4.235 -3.834 -5.57 -8.233 -7.1685 -14.8983 -16.1574 -12.6831 -9.933001 -8.334001 -5.073 
-7.7145 -5.57 -8.233 -9.3505 -18.0099 -17.6074 -17.4554 -18.9596 -9.933001 -8.334001 
-9.703 -8.233 -9.3505 -20.3073 -20.719 -18.9054 -23.7319 -18.9596 -9.933001 
-4.235 0 0 -3.043 -3.3715 -3.5215 -8.184 -1.4985 -10.914 0 0 
-4.235 0 -3.043 -4.5235 -5.047 -12.6679 -9.901 -13.5063 -10.914 0 
-4.235 -3.043 -4.5235 -5.6355 -15.0464 -14.3849 -22.1604 -13.5063 -10.914 
-7.3295 -4.5235 -5.6355 -16.1713 -16.7634 -26.6443 -22.1604 -13.5063 
-8.859 -5.6355 -16.1713 -17.8883 -29.0228 -26.6443 -22.1604 
-4.235 0 0 
-4.235 0 
-4.235 
n/a 
n/a 
