-4.759 
n/a 
n/a 
n/a 
n/a 
-4.759 
n/a 
n/a 
n/a 
n/a 
-4.759 
n/a 
n/a 
n/a 
n/a 
-4.759 
n/a 
n/a 
n/a 
n/a 
-3.0365 -2.4945 -3.2495 -3.699 -5.204 -5.091 -4.142 -4.5685 -1.756 -4.3105 -3.9515 -4.5685 0 
-3.688 -4.891 -6.0885 -8.835 -8.458 -9.0305 -6.889501 -6.1065 -6.2255 -6.0435 -8.7805 -4.5685 
-5.0435 -6.9895 -10.31 -12.4058 -10.634 -11.9388 -8.4125 -11.2768 -8.021501 -13.1201 -8.7805 
-7.16 -11.5114 -14.0242 -14.5818 -13.5423 -13.4618 -13.8538 -13.0728 -15.6933 -13.1201 
-11.8555 -15.2256 -16.2002 -17.4901 -15.0653 -18.9031 -15.6498 -20.7446 -15.6933 
-3.994 -2.186 -1.4985 -3.188 -2.229 -4.1735 -1.756 -3.17 -6.0855 -5.213 0 -4.06 -4.569 -1.934 -1.4985 -4.2775 -1.756 -4.142 -6.423 0 
-6.399 -3.339 -3.619 -4.279 -4.7675 -5.5705 -4.684 -6.2675 -8.4855 -5.213 -4.06 -7.255501 -5.759501 -2.6125 -5.1745 -5.97 -5.544 -8.333 -6.423 
-7.467 -4.9385 -4.3695 -5.0625 -6.028 -5.733 -7.703501 -8.506001 -8.4855 -8.783001 -7.255501 -7.376501 -6.2015 -5.7755 -6.678 -7.442 -8.494 -8.333 
-8.714001 -4.97 -5.124 -6.442501 -6.1255 -7.968 -8.852 -8.506001 -9.592501 -10.419 -7.376501 -7.716501 -8.3785 -7.335001 -7.9465 -9.418 -8.494 
-8.73 -5.6545 -6.4605 -6.522 -8.606001 -8.861 -8.852 -9.592 -10.4445 -10.481 -7.716501 -9.3465 -9.1745 -8.526001 -9.4265 -9.418 
-4.426 -1.7565 -1.4985 -3.0835 -4.7285 -4.1555 -3.147 0 
-5.47 -2.4195 -3.535 -6.042 -8.4455 -5.77 -3.147 
-5.9535 -4.6785 -6.335501 -9.523001 -9.541501 -5.77 
-8.021 -7.476501 -10.0095 -10.7035 -9.541501 
-9.983001 -11.3061 -11.3 -10.7035 
-3.5455 -3.892 -1.756 -3.8655 -3.9515 -3.892 -2.4945 -3.2495 -3.699 -4.418 0 
-6.956 -5.337 -5.7795 -7.344501 -6.1575 -6.212501 -4.891 -6.0885 -7.7815 -4.418 
-8.700001 -8.920501 -9.2555 -9.3745 -8.475 -9.112 -6.9895 -9.3855 -7.7815 
-12.3463 -12.5435 -12.2075 -12.0248 -11.6841 -11.3107 -10.6875 -9.3855 
-15.9693 -15.4955 -14.8578 -15.2339 -13.8828 -15.0087 -10.6875 
