-4.759 
n/a 
n/a 
n/a 
n/a 
-4.759 
n/a 
n/a 
n/a 
n/a 
-4.759 
n/a 
n/a 
n/a 
n/a 
-4.759 
n/a 
n/a 
n/a 
n/a 
-2.9805 -4.657 -3.135 -2.645 -3.277 -1.934 -4.051 -1.756 -4.4895 -5.447 -1.7565 -8.355 -3.3255 -3.091 -4.909 0 
-5.941 -7.6555 -5.188001 -5.7085 -4.8125 -5.608 -5.867 -6.191 -10.2865 -5.9605 -9.555 -12.2137 -5.462501 -6.972 -4.909 
-8.913 -10.316 -8.385501 -7.172501 -8.812 -7.6225 -10.5975 -12.1274 -10.8 -14.769 -13.4113 -14.3507 -8.793 -6.972 
-11.7093 -13.5135 -9.732501 -10.76 -11.0659 -12.656 -16.5339 -12.6409 -19.6085 -18.6253 -15.5483 -17.6812 -8.793 
-14.9068 -14.8605 -13.4436 -13.0139 -16.0994 -18.5924 -17.0474 -21.4494 -23.4648 -20.7623 -18.8788 -17.6812 
-4.8315 0 -2.9805 -5.015 -1.934 -3.849 -4.051 -4.39 -1.756 -4.3775 -6.063 0 
-4.8315 -2.9805 -6.3995 -5.7995 -5.1105 -7.1945 -6.681 -5.675 -5.7535 -9.745501 -6.063 
-6.749 -6.3995 -7.141 -8.458501 -8.053 -9.031 -7.543 -10.0815 -10.6215 -9.745501 
-10.5148 -7.141 -10.411 -11.8602 -10.0505 -10.5975 -12.5099 -15.1043 -10.6215 
-11.2563 -10.411 -13.8127 -13.8577 -11.617 -15.5644 -17.5327 -15.1043 
-4.9045 -1.934 -4.051 -3.959 0 -2.9805 -3.43 -4.3285 -2.356 -4.6495 -1.7695 -4.903 -1.756 -4.4755 -1.934 -3.45 -3.5015 
-5.681 -5.608 -5.893 -3.959 -2.9805 -5.2875 -8.519501 -6.767 -5.0705 -4.846 -7.314001 -6.1625 -5.784 -6.256 -5.009 -8.361 
-9.7275 -6.5045 -5.893 -6.7155 -5.2875 -10.159 -10.76 -9.105 -5.0755 -9.663501 -7.9975 -10.533 -7.615001 -9.1945 -9.5485 
-9.892 -6.5045 -8.296 -9.298 -10.159 -12.5873 -13.098 -9.1075 -9.8585 -10.1445 -12.6122 -12.364 -10.8065 -13.883 
-9.892 -8.948001 -10.9503 -14.2623 -12.5873 -14.9253 -13.1005 -13.9661 -10.2955 -14.7592 -14.4432 -15.5555 -15.495 
-2.9805 -4.657 -4.6835 -2.0935 -3.3715 -3.277 0 -2.9805 -4.4895 -4.4975 -2.3345 -2.3345 -3.595 -2.229 -4.3285 0 
-5.941 -7.5515 -6.378 -4.713 -4.9255 -3.277 -2.9805 -6.522 -9.7405 -6.811501 -5.895 -5.597 -7.2165 -5.7115 -4.3285 
-9.002501 -8.184501 -8.423 -5.244 -4.9255 -5.421 -6.522 -11.9574 -12.3675 -10.9766 -10.0885 -9.226501 -11.258 -5.7115 
-9.662001 -9.168 -8.6155 -5.244 -6.741 -9.018001 -11.9574 -14.5844 -16.5326 -15.1701 -13.718 -13.514 -11.258 
-10.515 -9.18 -8.6155 -6.843 -10.328 -14.5006 -14.5844 -18.7495 -20.7261 -18.7996 -18.0055 -13.514 
