-4.759 
n/a 
n/a 
n/a 
n/a 
-4.759 
n/a 
n/a 
n/a 
n/a 
-4.759 
n/a 
n/a 
n/a 
n/a 
-4.759 
n/a 
n/a 
n/a 
n/a 
-9.443501 -3.6395 -1.7565 -2.3615 -3.1385 -2.186 -2.645 -3.1575 -3.788 0 
-13.3328 -4.6145 -3.523 -6.399 -5.6995 -4.528 -3.72 -5.7335 -3.788 
-14.3078 -7.35 -7.229 -8.168501 -7.8015 -5.2425 -5.934 -5.7335 
-17.0433 -11.356 -8.655001 -10.5177 -8.6055 -7.6745 -5.934 
-21.0493 -12.782 -11.2396 -11.3217 -11.1553 -7.6745 
-2.5195 -3.45 -2.645 -3.1575 -3.788 0 -2.4945 -4.91 -4.9225 0 
-5.1315 -6.6335 -3.72 -5.7335 -3.788 -2.4945 -6.7035 -9.1175 -4.9225 
-8.295 -7.2705 -5.934 -5.7335 -7.0855 -6.7035 -11.8262 -9.1175 
-10.071 -9.6475 -5.934 -8.509501 -11.4727 -11.8262 -11.8262 
-12.5438 -9.6475 -8.673 -12.9841 -16.5954 -11.8262 
-2.985 -4.692 -4.4345 -2.186 -2.645 -3.1575 -3.788 0 
-7.174 -8.880001 -6.2505 -4.528 -3.72 -5.7335 -3.788 
-12.2156 -10.2545 -8.553 -5.2425 -5.934 -5.7335 
-13.5901 -12.557 -8.8695 -7.6745 -5.934 
-15.8926 -12.8735 -10.597 -7.6745 
-2.985 -4.692 -3.6395 -2.186 -2.645 -3.1575 -3.788 0 
-7.174 -6.5625 -5.2645 -4.528 -3.72 -5.7335 -3.788 
-9.2335 -7.785501 -7.5865 -5.2425 -5.934 -5.7335 
-9.580501 -10.078 -7.8315 -7.6745 -5.934 
-11.9828 -10.1485 -9.380501 -7.6745 
