-4.759 
n/a 
n/a 
n/a 
n/a 
-4.759 
n/a 
n/a 
n/a 
n/a 
-4.759 
n/a 
n/a 
n/a 
n/a 
-4.759 
n/a 
n/a 
n/a 
n/a 
-2.5685 -4.3375 -3.724 -2.4945 -3.951 -1.934 -1.4985 -3.098 -5.345 -4.455 0 
-6.869 -8.091001 -5.400001 -6.1485 -5.6445 -2.6125 -4.3095 -9.288 -10.151 -4.455 
-9.8505 -9.658 -10.2174 -7.645 -6.201 -5.285501 -10.634 -14.2228 -10.151 
-11.7151 -14.4898 -11.7139 -8.687 -8.735001 -12.5548 -15.5688 -14.2228 
-16.5469 -15.9863 -12.7559 -11.3472 -16.3513 -17.4896 -15.5688 
-2.5685 -4.1975 -3.913 -2.264 -4.281 -1.934 -5.0335 -3.098 
-7.243 -9.209001 -5.6765 -7.646001 -5.709 -6.2955 -9.1425 
-12.8691 -11.2691 -12.5843 -9.874001 -10.7495 -10.389 
-14.9292 -18.1769 -14.8123 -15.2273 -14.843 
-21.837 -20.4049 -20.1656 -19.3208 
-2.5685 -7.7295 -1.934 -2.3615 -3.098 -1.7565 -1.4985 -3.881 0 
-11.2536 -9.767 -3.539 -5.7775 -4.3615 -2.4195 -5.318501 -3.881 
-13.2911 -11.5524 -7.7865 -8.0185 -4.731 -6.3355 -5.318501 
-15.0765 -15.7999 -9.510501 -8.777 -9.8695 -6.3355 
-19.324 -17.5239 -10.376 -14.0453 -9.8695 
-2.5685 -4.1495 -4.254 -2.4945 -3.881 -1.934 -1.4985 -3.098 -1.7565 -4.455 
-7.6785 -7.353001 -6.9725 -5.6575 -5.05 -2.6125 -4.3095 -4.3615 -6.1315 
-11.1508 -9.915501 -10.2035 -6.3555 -5.829 -5.285501 -4.5915 -8.659 
-13.7133 -13.1465 -10.9015 -7.09 -8.3915 -5.3625 -8.766 
-16.9443 -13.8445 -11.636 -9.765 -8.4265 -9.1625 
