-4.759 
n/a 
n/a 
n/a 
n/a 
-4.759 
n/a 
n/a 
n/a 
n/a 
-4.759 
n/a 
n/a 
n/a 
n/a 
-4.759 
n/a 
n/a 
n/a 
n/a 
-2.925 -3.7085 -4.1655 -5.1585 -2.264 -1.4985 -3.995 -2.229 -4.7885 -4.35 -2.0935 -1.4985 -3.814 -3.849 -3.748 -3.277 
-5.836 -6.437 -8.3205 -8.01 -2.9195 -4.712 -5.324 -6.6485 -6.498 -6.2755 -2.9725 -4.198 -5.899 -6.5695 -5.8405 
-8.225 -11.2788 -10.382 -8.452001 -6.008 -5.586 -8.214001 -8.272 -8.479501 -7.223001 -5.1435 -5.9125 -8.945001 -7.831501 
-13.33 -13.3403 -11.3668 -11.7545 -6.8855 -8.4235 -9.222501 -10.368 -9.644001 -10.2925 -6.5545 -8.9665 -8.979 
-15.3915 -14.3251 -14.6693 -12.632 -10.1295 -9.398001 -11.5275 -11.5325 -12.7599 -10.7675 -9.699 -8.984 
-2.925 -4.1655 -2.264 -1.4985 -4.7885 -4.35 -1.7565 -1.4985 -3.995 -3.383 -4.846 -3.2295 -3.849 -4.5445 -1.7565 -3.277 
-8.102 -5.758 -2.9195 -5.282001 -6.498 -5.3865 -2.4195 -4.712 -7.924 -6.2375 -6.7955 -6.044 -7.492001 -4.771 -5.0515 
-9.676001 -7.009 -6.3535 -6.845 -6.939001 -6.2025 -5.2205 -8.543501 -9.964001 -8.054501 -8.195001 -9.5775 -7.715 -6.377 
-10.705 -10.485 -8.335501 -7.153 -7.335001 -8.074501 -9.083 -10.159 -11.894 -9.618501 -12.7747 -9.8415 -8.929001 
-14.181 -12.467 -8.621501 -7.454 -9.022 -12.4494 -10.7639 -12.168 -13.458 -14.6062 -13.0387 -10.049 
-3.1575 -3.995 -5.408 -3.535 -3.135 -4.277 -3.277 -4.339 
-7.283501 -9.892 -9.203001 -7.442 -8.613001 -6.336 -7.695001 
-13.6699 -13.9836 -13.268 -13.185 -9.5555 -11.3864 
-17.7615 -18.0486 -19.011 -14.1275 -14.6281 
-21.8265 -23.7916 -19.9535 -19.2001 
-3.45 -2.4945 -4.1655 -2.5195 -3.3715 -3.748 -3.277 0 
-5.354 -5.726 -5.729 -5.5385 -7.7165 -5.8405 -3.277 
-9.344501 -7.085001 -9.696 -10.7335 -8.876501 -5.8405 
-10.8569 -10.7025 -14.9956 -11.8935 -8.876501 
-14.4744 -16.0021 -16.1556 -11.8935 
