-4.759 
n/a 
n/a 
n/a 
n/a 
-4.759 
n/a 
n/a 
n/a 
n/a 
-4.759 
n/a 
n/a 
n/a 
n/a 
-4.759 
n/a 
n/a 
n/a 
n/a 
-4.8315 -3.0365 -2.4945 -3.3715 -8.1485 -3.9485 -2.8965 -3.9035 -1.7565 -3.8735 
-6.4645 -3.688 -4.846 -12.81 -12.4576 -7.5035 -5.4185 -4.616 -5.112 
-7.062 -4.8765 -14.6609 -17.1191 -16.0126 -9.0705 -5.5165 -7.109 
-8.2345 -14.7408 -18.97 -20.6741 -17.5796 -9.084001 -7.829 
-18.1122 -19.0499 -22.525 -22.2411 -17.5931 -11.8199 
-1.756 -3.074 -6.4735 -3.511 -3.948 -4.088 -1.7565 -3.8735 0 
-4.566 -9.887501 -8.8405 -7.7245 -6.41 -5.4975 -5.112 -3.8735 
-11.5655 -12.2545 -13.5776 -11.1153 -7.8545 -8.538 -5.112 
-13.9325 -16.9916 -16.9684 -12.5598 -10.054 -8.538 
-18.6696 -20.3824 -18.4129 -14.7593 -10.054 
-5.1845 -3.1385 -3.074 -3.511 -1.934 -2.8965 -3.9035 -1.7565 -3.8735 
-7.4095 -6.103001 -6.7665 -4.582 -4.391 -5.4185 -4.616 -5.112 
-10.204 -8.803 -7.211 -7.512 -6.018 -5.5165 -7.109 
-12.904 -9.138 -9.5885 -8.4235 -6.0515 -7.829 
-13.239 -11.5331 -10.3905 -8.427501 -8.318501 
-3.0365 -2.4945 -2.8965 -3.9035 -1.7565 -3.8735 -2.5045 -3.3235 -3.3155 -8.27 -3.511 0 
-3.688 -5.387 -5.4185 -4.616 -5.112 -6.3415 -3.7105 -6.6555 -11.1415 -11.1355 -3.511 
-5.479001 -7.985001 -5.5165 -7.109 -7.237 -7.1975 -7.1165 -14.8333 -14.007 -11.1355 
-8.056001 -8.1525 -7.829 -8.747001 -8.1455 -9.929501 -15.2187 -17.6988 -14.007 
-8.237 -10.5162 -9.3015 -9.1095 -11.0073 -18.0791 -18.0842 -17.6988 
