-4.759 
n/a 
n/a 
n/a 
n/a 
-4.759 
n/a 
n/a 
n/a 
n/a 
-4.759 
n/a 
n/a 
n/a 
n/a 
-4.759 
n/a 
n/a 
n/a 
n/a 
-3.1495 -4.079 -1.7695 -4.737 -1.4985 -4.052 -1.756 -12.16972 -4.267 -1.7565 -4.079 -1.7695 -2.871 -2.3345 -2.871 -5.1695 -2.0935 -2.5685 0 -2.3615 -2.915 -3.098 -1.7565 -3.849 -3.432 0 
-7.225 -5.261 -5.0625 -6.029 -7.289001 -5.8645 -14.93432 -16.43672 -6.9535 -5.819 -5.261 -4.5615 -5.35 -4.9425 -8.185 -7.170501 -3.987 -2.5685 -2.3615 -4.5725 -5.602 -4.3615 -7.3605 -7.6025 -3.432 
-9.484 -8.6115 -6.3665 -12.5445 -8.8785 -20.31782 -19.20132 -19.12322 -11.6784 -8.952001 -8.676001 -7.6215 -5.8075 -10.503 -10.2985 -9.245001 -3.987 -4.833 -4.5725 -7.77 -6.886 -9.5915 -11.393 -7.6025 
-12.8553 -9.676001 -12.921 -14.134 -23.63762 -24.58482 -21.88782 -23.84812 -14.8114 -12.497 -11.9976 -8.570001 -11.7714 -12.6165 -12.373 -9.245001 -6.4655 -6.693501 -7.77 -9.2395 -12.6842 -13.9926 -11.393 
-13.9198 -16.3585 -14.5105 -28.89312 -27.90462 -27.27132 -26.61272 -26.98112 -18.3564 -15.8186 -12.9461 -14.6779 -13.8849 -14.691 -12.373 -11.8005 -8.374001 -10.7175 -9.2395 -15.1953 -17.0853 -13.9926 
-1.4985 -5 -1.7565 -1.4985 -3.64 -4.7615 -3.277 -3.222 -1.8085 -5.0155 0 -4.013 -6.9375 -3.458 -3.277 -5.953 -1.4985 -4.0615 -2.229 -5.0575 -2.9825 -4.0395 -1.756 -4.0945 -1.4985 -4.0615 -2.229 -3.8755 -1.7565 -1.4985 -2.9825 0 
-6.210501 -6.7685 -2.4195 -5.3715 -8.712501 -6.9115 -5.219501 -4.144 -6.205 -5.0155 -4.013 -9.3895 -8.1675 -5.3735 -9.1175 -6.5305 -5.094501 -5.33 -6.907001 -9.054501 -6.876 -5.047 -5.749001 -6.0785 -5.094501 -5.33 -6.7015 -6.455 -2.4195 -4.039001 -2.9825 
-6.9915 -7.3565 -6.195001 -9.322001 -9.284 -7.403 -6.058001 -7.559 -6.205 -8.3545 -9.3895 -9.422 -9.4145 -9.408501 -9.337501 -9.355 -6.1515 -9.373501 -9.417001 -9.421 -7.781 -9.297 -7.056 -7.602 -6.1515 -9.143001 -8.804501 -6.941501 -5.042 -4.039001 
-7.700001 -8.625 -9.3395 -9.340501 -9.315001 -7.717 -8.8555 -7.559 -9.178 -9.4215 -9.422 -9.423 -9.4215 -9.418501 -9.423501 -9.419001 -9.3865 -9.422001 -9.422501 -9.422001 -9.42 -9.3745 -8.533501 -9.2745 -9.3365 -9.400001 -9.0185 -8.012 -5.042 
-8.649 -9.3405 -9.342501 -9.3415 -9.3435 -9.251 -8.8555 -9.3275 -9.422 -9.422501 -9.423 -9.424 -9.422501 -9.423501 -9.4245 -9.423 -9.422001 -9.423 -9.423501 -9.423 -9.421 -9.422501 -9.399 -9.4215 -9.408001 -9.4075 -9.322001 -8.012 
-3.115 -2.3615 -3.17 -4.079 -3.681 -1.756 -3.4095 -2.4945 -4.26 -2.3345 -8.496 -3.1435 -3.849 -2.5045 -1.8085 -3.16 
-4.312 -5.9985 -5.7145 -6.71 -5.349 -5.155 -5.167 -6.127501 -5.5915 -11.1611 -12.0639 -6.4005 -6.305 -3.3625 -4.6915 
-7.464001 -8.453 -8.081 -8.3665 -8.723001 -6.88 -8.443501 -6.809 -15.1459 -14.729 -15.3209 -9.267 -6.9375 -6.283 
-10.6053 -11.0459 -10.396 -11.8973 -11.2076 -10.0505 -8.5765 -16.83 -18.7138 -17.986 -18.1874 -10.335 -9.2335 
-13.1982 -13.3609 -13.9268 -14.3819 -14.3781 -10.387 -19.9715 -20.3979 -21.9708 -20.8525 -19.2554 -12.631 
-3.1495 -4.079 -3.47 0 -2.186 -4.4475 -2.871 -2.3345 -2.871 -3.3425 -3.44 -4.4 0 -2.3615 -3.849 -3.16 -1.7565 -6.753 0 
-7.225 -6.172 -3.47 -2.186 -5.259501 -7.9045 -5.35 -4.9425 -6.5385 -6.538 -8.177 -4.4 -2.3615 -7.2445 -7.150001 -5.266 -8.335501 -6.753 
-8.977 -6.172 -6.0165 -5.259501 -9.6805 -10.051 -5.8075 -8.0915 -9.672001 -12.2302 -8.177 -6.7585 -7.2445 -10.733 -9.0865 -13.1068 -8.335501 
-8.977 -9.325001 -9.266001 -9.6805 -12.0662 -10.1055 -8.139 -11.4484 -15.6046 -12.2302 -11.0085 -12.1897 -10.733 -12.6695 -16.7937 -13.1068 
-12.3266 -12.8357 -13.5882 -12.0662 -12.1207 -12.638 -11.5231 -17.381 -15.6046 -15.0617 -16.4397 -15.6782 -12.6695 -20.3767 -16.7937 
