-4.759 
n/a 
n/a 
n/a 
n/a 
-4.759 
n/a 
n/a 
n/a 
n/a 
-4.759 
n/a 
n/a 
n/a 
n/a 
-4.759 
n/a 
n/a 
n/a 
n/a 
-5.227 -3.8195 -2.5195 -4.522 -2.3345 -7.395 0 
-8.335501 -6.264 -8.009501 -5.076 -9.160501 -7.395 
-10.504 -12.277 -9.526501 -12.9168 -9.160501 
-16.517 -13.794 -17.4771 -12.9168 
-18.034 -21.7446 -17.4771 
-5.227 -1.934 -1.4985 -4.3225 -1.7565 -7.395 0 -5.7715 -2.229 -4.235 0 0 
-6.109 -2.6125 -5.8325 -5.9185 -10.2135 -7.395 -5.7715 -7.3715 -5.509 -4.235 0 
-7.1155 -6.9915 -6.6515 -15.3165 -10.2135 -10.841 -7.3715 -9.83 -5.509 -4.235 
-9.4735 -7.894001 -16.4781 -15.3165 -13.6595 -12.441 -9.83 -9.83 -5.509 
-10.5045 -17.8626 -16.4781 -18.7625 -15.2595 -14.8995 -9.83 -9.83 
-4.609 -1.4985 -4.3225 -3.926 -2.3345 -7.395 
-6.792 -5.8325 -8.269001 -6.803 -9.160501 
-10.3815 -10.494 -11.9362 -14.4242 
-15.043 -14.1612 -19.5574 
-18.7102 -21.7824 
-10.7545 -4.295 -1.7565 -4.3225 -3.685 0 
-15.0495 -5.0085 -6.105 -8.224001 -3.685 
-15.763 -9.865 -9.0865 -8.224001 
-20.6195 -12.9385 -9.0865 
-23.693 -12.9385 
