-4.759 
n/a 
n/a 
n/a 
n/a 
-4.759 
n/a 
n/a 
n/a 
n/a 
-4.759 
n/a 
n/a 
n/a 
n/a 
-4.759 
n/a 
n/a 
n/a 
n/a 
-2.985 -4.868 -2.742 -4.7425 -3.595 -1.934 -3.2775 -3.3755 0 
-6.322001 -7.227 -8.6125 -9.132501 -4.9735 -4.6915 -7.144 -3.3755 
-8.6705 -13.4407 -13.2679 -10.5726 -7.429501 -7.382501 -7.144 
-14.9724 -18.0961 -14.708 -13.0286 -9.953001 -7.382501 
-19.6278 -19.5362 -17.164 -15.5521 -9.953001 
-3.1385 -3.639 -1.7695 -3.595 -3.2955 -1.7695 -3.5395 -3.595 -3.115 -2.3335 -3.098 0 
-6.8695 -4.539 -4.741 -7.711 -3.9425 -4.7845 -5.861 -6.206 -4.7415 -5.0465 -3.098 
-6.974 -6.7255 -9.172501 -7.8485 -6.5305 -6.5245 -9.159 -7.445001 -7.584001 -5.0465 
-8.1055 -11.261 -9.557001 -10.1675 -7.7975 -9.8255 -9.9515 -10.341 -7.584001 
-12.7694 -11.6455 -12.0514 -11.5135 -11.0665 -10.7205 -12.8475 -10.341 
-3.091 -3.639 -3.6455 -3.152 -1.934 -1.4985 -5.1735 -1.7565 -4.379 -3.595 -3.0415 
-6.6365 -6.107 -6.3085 -4.9115 -2.6125 -5.9065 -5.7375 -6.174 -6.381001 -5.752501 
-7.604001 -8.282001 -7.790501 -5.513 -6.499001 -6.0965 -8.018001 -8.029 -9.087 
-9.182501 -9.7075 -8.351501 -7.705501 -6.539001 -8.3245 -9.398001 -10.4585 
-10.6974 -10.206 -10.2085 -7.7145 -8.5845 -9.612 -11.7369 
-3.091 -3.639 -3.6455 -3.849 -3.595 -3.115 -2.3335 -3.098 
-6.6365 -6.107 -7.5065 -6.047501 -6.206 -4.7415 -5.0465 
-7.604001 -9.412001 -8.261001 -9.396001 -7.445001 -7.584001 
-10.1715 -9.817 -11.5597 -10.3555 -10.341 
-10.23 -13.2273 -12.5192 -13.2515 
