-4.759 
n/a 
n/a 
n/a 
n/a 
-4.759 
n/a 
n/a 
n/a 
n/a 
-4.759 
n/a 
n/a 
n/a 
n/a 
-4.759 
n/a 
n/a 
n/a 
n/a 
-1.934 -3.506 -3.0575 0 -5.6145 -1.4985 -2.688 -3.59 -2.7415 -3.8755 -2.3345 -8.630501 -7.6785 0 
-4.961 -5.5015 -3.0575 -5.6145 -7.325 -3.702 -6.3395 -6.039001 -5.065001 -4.4955 -10.884 -16.6544 -7.6785 
-7.880001 -5.5015 -8.267 -7.325 -9.72 -7.194 -8.542001 -8.512 -5.7145 -13.5894 -18.9079 -16.6544 
-7.880001 -8.932501 -9.382 -9.72 -13.3892 -8.902 -10.66 -9.275001 -15.4076 -21.6133 -18.9079 
-11.7678 -9.523001 -12.0604 -13.3892 -15.0972 -11.0526 -11.423 -19.1627 -23.4315 -21.6133 
-3.5455 -1.4985 -3.4975 -4.6225 0 -1.4985 -3.683 -4.87 -1.7565 -1.4985 -5.376 -5.4435 -2.5195 -3.4155 -4.559 -4.548 -2.264 -3.506 -2.543 0 -5.566 0 -3.034 -1.4985 -3.6115 -4.8415 -4.203 -4.758 -1.7695 -4.928 -1.8085 -4.1285 -1.7565 -4.712 -2.3335 -3.251 -3.1125 -4.0855 -1.934 -3.506 -2.3345 -4.1195 -4.3595 -4.156 -1.7565 -4.018 
-3.91 -4.3125 -5.928 -4.6225 -1.4985 -4.9055 -6.804 -5.507 -2.4195 -6.537001 -7.342501 -7.388 -6.1955 -5.0845 -9.222 -6.009 -4.855 -5.4805 -2.543 -5.566 -5.566 -3.034 -3.947 -4.081 -7.614501 -6.6185 -7.278 -5.857 -5.3835 -6.180501 -5.432 -5.1975 -5.672 -7.066 -4.9145 -4.28 -5.834001 -5.732 -4.961 -6.894501 -5.316 -6.8985 -6.803 -6.6875 -5.174 
-6.7935 -6.0635 -5.928 -6.061 -4.9055 -8.3365 -8.1085 -6.308001 -7.032501 -7.5885 -9.2925 -9.208 -6.9455 -9.7995 -10.1235 -7.795001 -6.4935 -5.4805 -7.347001 -5.566 -8.004001 -3.947 -6.6305 -7.75 -7.669001 -9.157001 -7.6635 -7.092501 -6.467 -7.718 -6.0755 -9.178 -7.620501 -9.271501 -5.5255 -7.3465 -6.856 -8.580501 -7.324501 -9.7635 -7.946 -7.609 -8.726501 -8.637 
-7.29 -6.0635 -7.2255 -9.599001 -8.3365 -8.689 -8.3805 -10.1805 -7.990001 -9.397501 -10.3895 -9.219 -10.3415 -10.273 -12.3245 -9.479001 -6.4935 -9.865001 -7.347001 -8.004001 -8.528001 -6.6305 -9.150001 -7.768001 -9.715 -9.330001 -9.3195 -7.943501 -7.992001 -8.984 -9.8455 -10.397 -9.727 -9.604501 -8.073 -8.346001 -10.0575 -9.97 -10.0215 -10.453 -9.109501 -8.924001 -8.9525 
-7.29 -7.281 -10.264 -10.336 -8.689 -9.120001 -12.9518 -10.2825 -9.701501 -10.443 -10.409 -10.3825 -10.372 -12.7632 -14.0085 -9.479001 -10.586 -9.865001 -9.345001 -8.528001 -9.964001 -9.150001 -9.164001 -9.729 -9.871501 -10.049 -9.944 -9.208 -9.103001 -10.3345 -10.5775 -10.4555 -9.974001 -10.612 -8.963 -10.328 -10.627 -10.6145 -10.5795 -10.467 -9.6715 -8.990001 
-3.506 -8.672 0 -12.16972 -1.934 -1.4985 -4.132 -1.7565 -4.042 -8.286 -1.8085 -4.0415 -3.2795 0 -2.925 -3.644 -2.3335 -2.5685 -7.909 -2.4945 -6.5825 -2.7415 -8.6175 -1.934 -3.5315 -2.543 -5.566 
-10.711 -8.267 -12.16972 -14.10372 -2.6125 -5.351501 -5.653 -5.6925 -10.4625 -9.966001 -5.514 -7.584001 -3.2795 -2.925 -7.912001 -4.989501 -4.5535 -10.276 -10.01 -8.712 -9.228001 -10.4345 -9.984 -5.027 -5.572001 -7.347001 
-8.932501 -21.31432 -14.10372 -14.78222 -6.855 -5.876 -8.371 -11.518 -11.248 -12.8385 -8.521501 -7.584001 -6.318 -7.912001 -9.082001 -7.122001 -12.644 -12.377 -15.331 -9.705001 -17.357 -11.801 -13.0942 -8.174001 -7.5295 
-22.28882 -23.24832 -14.78222 -19.02472 -7.350501 -8.537001 -14.1833 -12.9531 -14.4538 -14.6745 -8.521501 -10.1905 -11.5988 -9.082001 -11.3835 -15.4199 -14.745 -17.698 -17.7535 -18.6548 -18.8073 -14.9112 -16.2412 -10.5035 
-24.22282 -23.92682 -19.02472 -19.52022 -10.4169 -15.1633 -15.7706 -16.0361 -16.2898 -14.6745 -10.5745 -15.5759 -12.7688 -11.3835 -19.6814 -17.5209 -20.066 -20.1205 -26.1703 -20.0213 -21.9175 -18.0582 -18.5707 
-2.264 -12.178 0 -1.8085 -4.8415 -3.518 -4.0415 -2.7415 -3.8755 -3.325 -1.4985 -4.2325 -1.7565 -4.042 -3.7375 -3.0695 -4.9385 -4.8415 -3.774 -2.5045 -4.3685 -2.3615 -4.248 -12.16972 -3.774 -2.7415 -4.662 -2.356 -1.4985 -12.16972 0 -2.5685 -4.7855 -3.152 -3.8755 -4.8735 0 -2.5045 -3.3235 -2.5045 0 -4.015 -5.61 -3.2895 0 -2.3615 -12.16972 -4.205 -2.7415 -3.8755 -2.356 -1.4985 -3.0785 -1.7565 -4.033 -4.7175 -2.5045 -11.6405 0 
-12.06 -10.711 -1.8085 -6.5435 -7.8725 -7.655 -6.933001 -5.065001 -6.4125 -3.898 -5.147 -5.158 -5.6925 -5.454 -6.871 -7.298 -10.4425 -9.414001 -6.1925 -6.474501 -7.2865 -6.7955 -17.65632 -15.94372 -6.022 -6.051001 -6.0885 -3.1615 -14.76202 -12.16972 -2.5685 -6.5705 -6.9435 -5.6875 -7.494 -4.8735 -2.5045 -3.7105 -3.8485 -2.5045 -4.015 -9.039501 -9.89 -3.2895 -2.3615 -15.81942 -16.37472 -6.927501 -5.065001 -5.4375 -3.1615 -4.779 -5.1815 -5.7755 -5.685 -7.478001 -12.9535 -10.376 
-9.912001 -10.9195 -6.5435 -8.6675 -12.2471 -11.1247 -9.597 -7.4465 -6.8485 -6.968 -5.3365 -9.84 -6.7335 -8.0155 -11.4301 -13.4454 -15.015 -11.8577 -10.1855 -8.7325 -12.1753 -20.73022 -21.43032 -18.19172 -10.389 -7.238501 -6.7805 -16.59562 -14.76202 -14.73822 -6.5705 -8.615001 -8.2465 -9.1365 -7.494 -6.371 -3.7105 -3.8545 -3.8485 -7.322001 -9.039501 -13.4551 -9.89 -6.1285 -15.81942 -20.02442 -19.09722 -8.908501 -6.4715 -6.221 -5.297501 -5.2205 -8.9055 -6.885 -8.314 -15.0862 -9.748501 
-11.4035 -14.1212 -8.6675 -13.1579 -15.7168 -13.7887 -11.9849 -7.73 -9.830001 -7.0325 -10.0005 -11.0988 -8.8885 -12.772 -17.5775 -18.0179 -17.4587 -15.8507 -12.4435 -14.1411 -26.11002 -24.50422 -23.67832 -22.55872 -11.5765 -7.83 -20.50882 -16.59562 -17.33052 -18.74022 -8.615001 -9.753501 -12.0359 -9.1365 -8.981001 -7.554 -3.8545 -3.8545 -8.161 -12.6493 -13.4551 -13.4551 -12.8232 -20.42122 -20.02442 -22.74692 -21.07822 -10.3615 -7.0265 -7.648 -5.3145 -8.935 -10.564 -8.9855 -17.774 -16.4406 
-14.4436 -16.2452 -13.1579 -16.6276 -18.3808 -16.1766 -12.2684 -10.7335 -9.8535 -12.0947 -11.3015 -13.2538 -13.7184 -18.9194 -22.15 -20.4616 -21.4517 -18.1087 -17.8521 -28.07582 -29.88402 -26.75222 -28.04532 -23.74622 -12.168 -21.63052 -20.50882 -19.16412 -21.33252 -20.78472 -9.753501 -13.8797 -12.0359 -10.7179 -10.793 -8.128 -3.8545 -8.1615 -13.5675 -17.0649 -13.4551 -16.3883 -27.11592 -24.62622 -22.74692 -24.72792 -22.53122 -10.9165 -8.344501 -7.662 -9.0205 -10.575 -12.6645 -18.8329 -17.774 
