-4.759 
n/a 
n/a 
n/a 
n/a 
-4.759 
n/a 
n/a 
n/a 
n/a 
-4.759 
n/a 
n/a 
n/a 
n/a 
-4.759 
n/a 
n/a 
n/a 
n/a 
-3.506 -2.461 0 -3.0415 -3.3715 -3.1385 -4.19 -1.756 -5.173 -5.7475 -1.7565 -8.783501 -1.7565 -5.2465 -2.264 -5.622 -1.934 -3.502 -3.8005 
-5.4925 -2.461 -3.0415 -4.5985 -4.712501 -6.5645 -5.6195 -6.613 -9.981001 -9.290001 -10.8215 -10.9072 -6.7075 -7.5265 -8.248 -7.889 -4.8155 -6.1245 
-5.4925 -6.1155 -4.5985 -5.636 -8.885501 -7.1375 -11.4163 -11.8054 -13.8349 -18.5576 -12.9452 -15.9482 -9.736501 -11.6075 -10.7025 -11.0177 -7.173501 
-9.095 -8.347501 -5.636 -9.478001 -9.496501 -13.7437 -16.6087 -15.6593 -23.1025 -20.6813 -17.9862 -18.3342 -12.253 -13.3128 -13.8312 -13.3757 
-11.6042 -9.606001 -9.478001 -10.086 -16.2523 -18.9361 -20.4626 -24.9269 -25.2262 -25.7223 -20.3722 -21.7055 -15.4689 -16.5753 -16.1892 
-3.506 -2.461 0 -3.3715 -3.1385 -4.424 -1.756 -4.9345 -6.128 -2.3345 -2.664 -4.8345 -4.617 -2.5045 -5.2465 -1.934 -3.502 -3.8005 -6.0855 -3.892 0 
-5.4925 -2.461 -3.3715 -4.712501 -6.278501 -5.9015 -6.2485 -10.575 -8.460501 -4.532 -6.086 -8.506001 -5.847 -6.496 -6.9755 -4.8155 -6.1245 -7.479 -9.1415 -3.892 
-5.4925 -6.869 -4.712501 -7.4775 -7.2765 -10.4035 -12.1278 -12.9075 -10.888 -7.2165 -9.451 -9.247001 -10.6595 -9.5595 -9.9945 -7.173501 -9.459001 -10.9826 -9.1415 
-9.789501 -8.234 -7.4775 -8.7475 -12.3313 -16.2828 -14.4603 -15.335 -13.5725 -10.597 -9.77 -11.799 -11.9645 -12.5195 -13.2077 -10.4765 -13.5152 -10.9826 
-11.3505 -10.3605 -8.7475 -14.1173 -18.2106 -18.6153 -16.8878 -18.0195 -16.953 -10.916 -12.8837 -14.1403 -15.6265 -15.4541 -16.5107 -14.8971 -13.5152 
-2.264 -3.506 -4.3365 0 -4.318 -6.199 -4.0875 -3.5015 -3.034 -4.8345 -4.548 -2.5045 -5.2465 -5.622 -4.197 -2.5045 -1.4985 -4.088 -1.7565 -7.5425 -1.934 -3.502 -3.8005 0 
-4.855 -6.3555 -4.3365 -4.318 -11.7204 -9.079 -5.143 -6.0725 -8.719001 -6.981 -5.9845 -6.496 -10.61 -6.846 -6.701 -3.1915 -5.6785 -5.4975 -9.649 -9.687 -4.8155 -6.1245 -3.8005 
-7.225 -6.3555 -8.095 -11.7204 -14.6004 -9.132001 -7.269 -11.9351 -10.6475 -8.2665 -10.8605 -12.438 -10.5645 -8.9875 -7.313 -7.252 -6.936501 -14.5052 -11.8551 -12.8645 -7.173501 -6.1245 
-7.225 -11.0168 -16.7706 -14.6004 -14.6534 -10.059 -13.1864 -13.8636 -11.933 -12.5565 -17.0025 -13.2275 -12.5736 -9.782001 -11.7633 -8.3935 -15.9306 -16.7113 -15.0326 -15.2225 -7.173501 
-12.1621 -19.6924 -19.6506 -14.6534 -15.5804 -16.1802 -15.1149 -15.1491 -16.223 -18.4065 -17.258 -15.7534 -13.4159 -14.3173 -12.9048 -17.5222 -18.1367 -19.8888 -17.3906 -15.2225 
-3.506 -2.461 -3.3715 -4.9225 -3.152 -4.424 -1.934 -1.8085 -4.8345 -7.5915 -1.934 -3.5455 -3.8005 -2.4265 -4.617 -5.2465 -1.934 -5.6615 -4.653 0 
-5.4925 -6.869 -7.0565 -7.4025 -8.638 -5.195 -3.2685 -7.795 -13.675 -9.790001 -4.8495 -6.788 -6.3905 -7.063001 -9.537001 -6.9755 -8.5345 -11.1415 -4.653 
-9.789501 -9.6595 -9.636001 -13.1389 -9.485001 -6.338 -9.0485 -16.9573 -15.8735 -12.8725 -7.423501 -9.181001 -12.032 -10.8225 -11.667 -13.9692 -14.0743 -11.1415 
-12.776 -13.4328 -15.4046 -13.9859 -10.8298 -13.0558 -18.5306 -19.1558 -18.956 -15.4465 -9.382001 -14.9365 -15.6165 -13.2782 -19.2363 -19.8774 -14.0743 
-16.5493 -19.2014 -16.2516 -15.3307 -17.5476 -22.5379 -20.7291 -22.2383 -21.53 -17.405 -15.1129 -18.521 -18.2472 -20.6543 -24.7761 -19.8774 
