-4.759 
n/a 
n/a 
n/a 
n/a 
-4.759 
n/a 
n/a 
n/a 
n/a 
-4.759 
n/a 
n/a 
n/a 
n/a 
-4.759 
n/a 
n/a 
n/a 
n/a 
-3.3715 -3.959 -3.9785 -3.4625 -1.7565 -3.5765 -6.704 -3.1435 -3.383 -4.4525 -1.7695 -3.5035 0 
-5.699 -7.652 -8.9245 -4.9855 -5.361 -11.4583 -11.0805 -5.807 -8.5185 -5.610001 -5.7555 -3.5035 
-10.485 -13.9254 -10.3825 -9.715 -13.586 -15.8348 -13.744 -10.022 -9.4975 -9.150001 -5.7555 
-16.7584 -15.3834 -15.112 -18.0684 -17.9625 -18.4983 -17.959 -11.0612 -13.0281 -9.150001 
-18.2164 -20.1129 -23.4654 -22.4449 -20.626 -22.7133 -18.9982 -14.5918 -13.0281 
-2.4265 -2.186 -2.871 -3.355 -3.3155 -3.6065 -8.457001 -2.674 -3.6065 -3.2895 -2.264 -7.762001 
-3.292 -4.247 -5.7015 -6.342 -6.7565 -10.575 -10.5135 -5.433 -7.5085 -6.1425 -11.1355 
-5.5545 -7.059 -8.300501 -10.085 -14.0248 -12.6315 -13.2725 -8.408501 -9.300501 -15.635 
-8.436001 -9.271 -12.2119 -17.5201 -16.0813 -15.3905 -16.248 -9.660501 -19.169 
-10.7512 -13.2856 -19.647 -19.5766 -18.8403 -18.366 -17.5 -20.1496 
-3.851 -1.7695 -1.4985 -4.461 -1.934 -1.4985 -4.179 -4.154 -3.2895 -1.7565 -4.2185 -3.9225 -3.948 -4.39 0 -2.3615 -4.461 -1.8085 -3.355 0 
-4.0015 -2.7955 -5.2755 -5.015501 -2.6125 -5.087 -6.4645 -7.339001 -4.9075 -6.0295 -8.5805 -6.496 -7.2745 -4.39 -2.3615 -6.695001 -5.5695 -4.6195 -3.355 
-4.5775 -6.855501 -5.943501 -5.630001 -6.9045 -7.3085 -9.691501 -8.653001 -9.810501 -10.159 -11.6578 -9.228001 -7.2745 -6.941501 -6.695001 -7.351 -7.955001 -4.6195 
-7.352 -7.170501 -6.53 -8.612 -9.120501 -10.1715 -10.453 -13.7468 -14.111 -13.2363 -14.3898 -9.228001 -9.491 -10.76 -7.351 -9.7335 -7.955001 
-7.459 -7.722501 -9.609501 -11.1804 -12.0145 -11.5764 -15.5468 -18.0473 -17.1883 -15.9683 -14.3898 -11.4991 -13.5575 -11.416 -9.7335 -9.7335 
-2.925 -4.1425 -2.4285 -4.116 -3.937 -4.025 -2.0935 -3.668 0 -1.934 -3.135 -5.9695 
-7.258501 -6.0895 -6.176001 -8.22 -6.033 -5.959 -3.995 -3.668 -1.934 -4.4015 -8.7075 
-9.2945 -7.840001 -10.7606 -10.7248 -7.5895 -8.2605 -3.995 -5.226501 -4.4015 -9.272501 
-9.957001 -12.9448 -13.2654 -12.2813 -9.649501 -8.2605 -5.3545 -7.0605 -9.272501 
-15.6648 -15.4496 -14.8219 -14.3413 -9.649501 -9.4475 -7.091001 -12.2875 
