-4.759 
n/a 
n/a 
n/a 
n/a 
-4.759 
n/a 
n/a 
n/a 
n/a 
-4.759 
n/a 
n/a 
n/a 
n/a 
-4.759 
n/a 
n/a 
n/a 
n/a 
-1.756 -4.68 -8.377001 -2.186 -4.424 -3.5195 -3.0575 0 
-5.796 -14.0076 -10.7495 -8.173 -7.009501 -5.507 -3.0575 
-15.512 -16.3801 -16.7365 -10.9371 -8.539001 -5.507 
-17.8845 -22.3671 -19.5006 -12.4666 -8.539001 
-23.8715 -25.1312 -21.0301 -12.4666 
-3.5195 -8.331 -7.8585 -4.349 -3.8515 
-10.9555 -11.6735 -12.7711 -5.556 
-15.509 -17.0435 -13.9781 
-20.6184 -18.2505 
-21.8254 
-3.5195 -3.0575 0 -3.956 -1.7565 -5.2735 -7.8585 
-5.507 -3.0575 -3.956 -4.932 -7.244 -8.441001 
-5.507 -7.5885 -4.932 -9.4445 -9.908501 
-10.7335 -8.469501 -9.4445 -12.0988 
-11.6145 -13.287 -12.0988 
-9.7395 -6.022501 -7.778 -4.424 -2.5045 -3.67 -3.0575 
-16.0462 -10.2435 -12.831 -5.791 -6.7215 -5.4465 
-20.2672 -15.2965 -14.198 -10.614 -8.432 
-25.3202 -16.6635 -19.021 -12.3245 
-26.6872 -21.4865 -20.7315 
