-4.759 
n/a 
n/a 
n/a 
n/a 
-4.759 
n/a 
n/a 
n/a 
n/a 
-4.759 
n/a 
n/a 
n/a 
n/a 
-4.759 
n/a 
n/a 
n/a 
n/a 
-3.995 -1.934 -3.898 -2.9995 -3.6765 -1.7565 -4.4785 0 
-5.975 -6.2245 -7.913001 -4.992 -5.5875 -6.768001 -4.4785 
-10.9541 -10.3675 -10.5035 -6.9515 -11.582 -6.768001 
-15.0971 -12.958 -12.463 -13.6238 -11.582 
-17.6876 -14.9175 -19.1353 -13.6238 
-3.8745 -3.098 -3.995 -1.934 -4.712 -2.7295 -4.4895 0 
-7.63 -7.054501 -5.975 -7.313 -8.4375 -8.019 -4.4895 
-11.9261 -10.022 -12.0426 -11.5723 -13.9904 -8.019 
-14.8936 -16.1224 -16.3019 -17.1252 -13.9904 
-20.994 -20.3817 -21.8548 -17.1252 
-1.4985 -4.352 -2.7295 -3.3785 -3.788 -2.186 0 -2.264 -1.4985 -3.962 -4.5285 -1.4985 -3.995 -3.098 -3.7875 -1.4985 -3.8245 -3.681 0 
-4.71 -6.566501 -4.7195 -6.909 -6.2395 -2.186 -2.264 -2.9195 -4.324 -6.8915 -6.126 -4.712 -7.395 -6.7025 -5.007 -5.1915 -6.1385 -3.681 
-6.935 -8.243 -7.7585 -8.8295 -6.2395 -4.293 -2.9195 -5.726 -6.956 -8.417 -7.934 -7.8915 -11.4829 -7.9075 -9.190001 -7.7345 -6.1385 
-8.495001 -11.4418 -9.512 -8.8295 -8.2755 -4.966 -5.726 -9.225 -8.439501 -9.995001 -12.0119 -12.1964 -12.6879 -12.1693 -11.8802 -7.7345 
-11.817 -13.1953 -9.512 -11.1867 -8.6715 -7.496 -9.225 -10.8435 -10.0005 -14.5235 -16.3168 -13.4014 -16.9497 -14.8595 -11.8802 
-2.5045 -2.4265 -2.186 0 -2.7295 -3.3785 -2.3335 -3.3435 -2.186 -3.6515 -2.264 -3.098 -2.264 -3.995 
-4.228 -3.292 -2.186 -2.7295 -4.7195 -4.4185 -5.892 -4.9685 -4.575 -4.7115 -6.005 -5.162 -4.972 
-4.900001 -3.292 -5.549 -4.7195 -5.41 -7.535 -6.4805 -7.113501 -5.476 -8.1995 -8.1415 -8.434 
-4.900001 -6.371 -7.4465 -5.41 -8.33 -7.965001 -8.606001 -8.508501 -8.9025 -10.354 -11.8761 
-7.330501 -8.226001 -8.144 -8.33 -8.8815 -10.0005 -9.592001 -11.9984 -10.66 -14.297 
