-4.759 
n/a 
n/a 
n/a 
n/a 
-4.759 
n/a 
n/a 
n/a 
n/a 
-4.759 
n/a 
n/a 
n/a 
n/a 
-4.759 
n/a 
n/a 
n/a 
n/a 
-3.757 -2.186 -3.917 -2.3345 -3.926 -8.562 -4.645 -4.918 -5.1495 -3.5865 -1.7565 -5.17 -4.1855 -2.5195 -1.4985 -4.502 -1.7565 -3.468 0 
-5.8005 -5.384 -5.3355 -5.988 -12.054 -13.0615 -10.287 -9.513 -6.302001 -4.5285 -6.5515 -8.493 -6.2825 -3.1695 -5.415501 -5.475 -5.649 -3.468 
-8.7995 -6.6025 -9.404 -14.0968 -17.4335 -19.5453 -15.4358 -9.960501 -8.530001 -11.2621 -10.7175 -11.0762 -7 -7.7545 -5.821001 -9.404501 -5.649 
-9.4615 -10.543 -17.7572 -19.0211 -23.6351 -24.6941 -15.8833 -12.7313 -15.676 -15.4281 -13.3007 -11.7937 -12.2362 -8.085 -9.755001 -9.404501 
-13.6358 -18.8962 -22.5739 -25.2227 -28.7839 -25.1416 -18.6541 -19.8773 -19.842 -18.0113 -14.0182 -17.0299 -12.5667 -12.1664 -9.755001 
-3.757 -2.186 -2.6165 -4.645 -4.0675 0 -2.264 -1.4985 -2.8965 -3.8805 -1.4985 -4.1855 -1.7565 -1.4985 -3.237 -2.4945 -4.273 -5.217 -3.3255 -1.4985 -4.0735 -1.7565 -1.4985 -3.468 0 
-5.8005 -3.5105 -6.8625 -7.757501 -4.0675 -2.264 -2.9195 -3.928 -4.808 -5.3665 -5.781 -6.1025 -2.4195 -4.1875 -6.3805 -6.762001 -10.598 -6.457001 -3.8945 -4.947001 -5.2645 -2.4195 -5.0815 -3.468 
-7.165 -7.737 -9.2355 -7.757501 -5.615 -2.9195 -4.648 -4.8165 -5.716 -10.016 -6.6295 -6.882 -5.078001 -6.563001 -11.155 -13.9218 -11.838 -7.251501 -7.9655 -5.653 -5.6325 -5.881001 -5.0815 
-9.1175 -9.709001 -9.2355 -9.989 -5.9485 -4.648 -4.824 -5.718 -10.3745 -10.7385 -7.122 -9.415001 -7.0125 -11.4747 -18.3148 -15.1618 -12.6325 -10.688 -8.4835 -5.943501 -8.095 -5.881001 
-10.1905 -9.709001 -11.7326 -10.3205 -8.3405 -4.824 -5.723001 -10.374 -11.097 -11.231 -9.547001 -11.3813 -12.311 -18.6345 -19.5548 -15.9563 -16.069 -11.206 -8.771501 -8.2845 -8.095 
-5.1495 -3.5865 -1.7565 -1.4985 -3.757 -4.6805 -1.7565 -1.4985 -3.499 -2.5195 -1.4985 -3.468 -3.3255 -4.341 -5.1115 -1.756 -3.1385 -2.4945 -2.6165 -4.0675 -5.9735 -1.4985 -3.757 0 
-6.302001 -4.5285 -2.4195 -4.5435 -9.31 -4.722 -2.4195 -4.967 -5.7205 -3.1695 -5.0815 -6.5155 -7.815001 -9.319 -6.504 -5.0125 -4.588 -3.8065 -5.419001 -8.892 -7.0065 -4.5435 -3.757 
-8.530001 -5.9825 -5.456501 -9.585501 -9.378 -5.7 -5.6355 -7.4925 -6.361 -6.581 -7.4505 -11.4644 -13.2052 -10.734 -10.3225 -6.2835 -6.055501 -5.7155 -10.8829 -9.488 -7.9715 -4.5435 
-8.944 -10.6105 -9.978001 -9.683001 -10.0765 -8.409 -7.985001 -7.972 -9.1745 -9.488501 -13.0062 -16.8546 -14.6202 -14.5525 -11.7823 -7.786 -9.3605 -12.5288 -11.4789 -10.043 -7.9715 
-13.9758 -15.132 -10.218 -10.2525 -12.7855 -10.4845 -8.4355 -10.759 -12.4338 -14.9062 -18.3964 -18.2696 -18.4387 -16.0123 -13.2848 -11.2706 -16.3908 -13.1248 -12.0339 -10.043 
-3.757 -2.186 -2.6165 -3.917 -4.0675 -2.3345 -4.498 -2.872 -1.4985 -5.17 -4.1855 -2.742 -2.489 -3.7875 -2.985 -3.4465 -2.5045 -3.543 -1.4985 -3.1715 -1.934 -2.3615 -3.3755 -2.9805 -2.186 -3.917 -3.3255 -1.8085 -4.3355 -4.219 0 
-5.8005 -3.5105 -6.143001 -8.094 -5.7905 -6.455501 -7.3415 -4.035 -6.5345 -8.493 -6.738501 -3.301 -5.8595 -6.002 -6.17 -6.312 -5.323 -5.62 -3.994 -5.1815 -3.539 -4.8525 -5.502501 -4.1635 -5.384 -6.887 -4.441 -5.7965 -9.477001 -4.219 
-7.165 -6.8225 -9.967001 -8.8435 -9.745001 -8.955 -8.488501 -8.741501 -8.73 -10.2645 -7.052001 -6.4455 -7.796 -8.931001 -8.509501 -8.828 -5.8685 -8.184501 -5.7705 -6.844 -5.301 -6.8695 -6.8065 -8.156 -8.168 -7.2895 -8.197001 -11.6416 -9.477001 
-10.6095 -10.494 -10.558 -13.1948 -12.4535 -10.586 -13.301 -11.3032 -10.3885 -10.398 -10.9643 -7.956501 -10.2695 -11.7331 -11.2963 -9.253 -8.623501 -10.1972 -7.54 -8.3725 -7.181 -8.175 -10.955 -11.453 -8.7185 -11.9121 -14.3885 -11.6416 
-14.281 -11.085 -14.9093 -15.9033 -14.0845 -15.3985 -15.8627 -12.9617 -10.506 -14.7275 -12.4753 -10.5176 -14.0474 -14.5199 -11.7213 -12.121 -10.6856 -11.9667 -9.057501 -10.485 -8.436501 -12.4825 -14.252 -12.0035 -13.4163 -18.1036 -14.3885 
