-4.759 
n/a 
n/a 
n/a 
n/a 
-4.759 
n/a 
n/a 
n/a 
n/a 
-4.759 
n/a 
n/a 
n/a 
n/a 
-4.759 
n/a 
n/a 
n/a 
n/a 
-3.321 0 -2.9805 -3.918 -1.934 -12.16972 -3.9655 -3.6825 
-3.321 -2.9805 -5.773 -6.013 -15.11012 -16.13522 -5.6945 
-5.175 -5.773 -7.337 -19.93332 -19.07562 -17.86422 
-8.176001 -7.337 -21.73152 -23.89882 -20.80462 
-9.7535 -21.73152 -25.69702 -25.62782 
-3.321 -2.9805 -5.057 -9.609501 -3.0415 -2.9805 -4.267 -7.7735 
-5.175 -7.492001 -15.9205 -12.8906 -5.0885 -8.381001 -13.2381 
-10.1385 -18.5263 -19.2016 -14.9376 -11.0824 -17.4563 
-21.3398 -21.8074 -21.2486 -20.9315 -20.1577 
-24.6209 -23.8544 -27.2425 -30.0068 
-3.091 -3.7895 -1.934 -3.97 -3.43 -3.595 -3.613 -1.4985 -4.1585 -3.6825 
-6.2 -4.5695 -5.607 -8.230501 -5.679 -7.389 -4.5455 -5.6005 -7.5125 
-6.383 -7.208001 -9.6005 -9.358001 -9.085 -7.9965 -8.84 -8.5185 
-8.4635 -10.6095 -10.487 -12.9976 -9.415 -12.6192 -12.1994 
-12.1828 -11.496 -14.1266 -13.3276 -14.1109 -15.9786 
-2.9805 -2.7415 -4.723 -5.2025 -2.3345 -1.4985 -6.946 -4.385 -1.756 -3.918 -8.22 -3.6825 0 
-4.004 -6.1175 -9.474501 -7.243001 -3.233 -8.0795 -12.3686 -5.293 -6.079 -13.5844 -12.5529 -3.6825 
-7.52 -10.468 -10.5445 -7.949501 -9.837501 -14.1667 -13.2766 -10.0995 -16.4588 -17.9173 -12.5529 
-12.3511 -11.938 -11.251 -14.6872 -16.1701 -15.0747 -18.0831 -20.6089 -20.7917 -17.9173 
-13.8211 -12.6445 -17.9887 -21.0198 -17.0781 -19.8812 -28.5925 -24.9418 -20.7917 
