-4.759 
n/a 
n/a 
n/a 
n/a 
-4.759 
n/a 
n/a 
n/a 
n/a 
-4.759 
n/a 
n/a 
n/a 
n/a 
-4.759 
n/a 
n/a 
n/a 
n/a 
-3.0365 -2.4945 -3.2495 -3.38 -7.442501 -3.958 0 -1.4985 -3.6605 -1.756 -3.4155 0 -3.4075 -3.275 -2.872 -1.4985 -4.3705 -3.757 -3.17 -4.31 -3.7875 -4.179 
-3.688 -4.891 -6.7935 -12.2059 -11.9295 -3.958 -1.4985 -4.6365 -5.8525 -5.4615 -3.4155 -3.4075 -5.757 -6.054 -4.035 -5.729501 -6.072 -7.798 -6.8165 -8.039501 -8.633 
-5.0435 -8.552 -16.1604 -16.6929 -11.9295 -5.194 -4.6365 -6.791 -9.323001 -5.4615 -7.181 -5.757 -9.373001 -7.3875 -8.5975 -6.5845 -9.978001 -11.8703 -10.2385 -13.1972 
-8.649501 -18.1949 -20.6474 -16.6929 -13.1655 -8.736 -6.791 -9.552501 -9.323001 -8.333 -8.395 -9.373001 -10.336 -12.1966 -9.7305 -10.2745 -14.0503 -15.2923 -15.5474 
-18.3572 -22.6819 -20.6474 -17.9289 -16.7075 -11.0881 -9.552501 -9.552501 -12.2793 -8.464001 -12.6636 -10.336 -15.1451 -13.3296 -13.5277 -14.3468 -17.4723 -20.6012 
-1.4985 -4.5905 -1.756 -3.4155 0 -3.4075 -3.275 -2.4945 -1.4985 -3.2495 -3.4155 -4.578 -2.872 -1.4985 -4.3705 -3.757 -2.8645 -2.645 -3.264 -1.7565 -3.895 
-5.0525 -5.674 -5.4615 -3.4155 -3.4075 -5.757 -6.366 -3.9315 -4.1915 -6.0475 -8.330501 -7.2145 -4.035 -5.729501 -6.072 -6.51 -5.2085 -6.818001 -3.6125 -5.5795 
-5.958 -5.838 -5.4615 -7.181 -5.757 -9.545501 -7.997 -6.1025 -6.9775 -10.111 -10.335 -8.3265 -8.5975 -6.5845 -8.5505 -9.0105 -9.127501 -6.996001 -6.493 
-6.181 -5.838 -8.333 -8.395 -9.545501 -11.2139 -9.861 -8.4275 -11.3208 -12.1155 -11.447 -12.9934 -9.7305 -8.588 -10.228 -12.9325 -9.295501 -9.542001 
-6.181 -8.3415 -8.464001 -12.8361 -11.2139 -13.0779 -12.2442 -12.8838 -13.3253 -13.2275 -16.1139 -14.1264 -11.8412 -10.34 -14.3246 -13.1005 -11.8415 
-1.4985 -4.5905 -1.756 -3.4155 -1.756 -4.1265 -3.275 -2.4945 -3.2495 -3.4075 -4.005 -2.872 0 -1.4985 -4.3705 -3.757 -3.7875 -3.17 -1.7565 -4.31 0 
-5.0525 -5.674 -5.4615 -5.209 -6.3665 -7.779 -6.366 -4.891 -6.5005 -7.699501 -6.9335 -2.872 -1.4985 -5.729501 -6.072 -8.0235 -7.533501 -4.179 -6.098001 -4.31 
-5.958 -5.838 -7.491 -11.0731 -9.498501 -11.6534 -9.281 -8.3275 -9.498501 -9.616001 -6.9335 -4.035 -5.729501 -6.5845 -8.882 -11.9463 -7.891 -9.344501 -6.098001 
-6.181 -7.7215 -13.6349 -14.2051 -14.1821 -14.5684 -12.8081 -11.4463 -11.547 -9.616001 -8.066 -8.5975 -6.5845 -8.885501 -14.3066 -12.3038 -13.4995 -9.344501 
-7.8025 -14.1764 -16.7669 -18.8887 -17.0971 -18.0955 -15.9269 -13.4948 -11.547 -10.6115 -12.7803 -9.7305 -8.885501 -14.4997 -14.6641 -17.9123 -13.4995 
-1.4985 -3.6605 -1.756 -3.4155 -3.4075 -3.275 -3.0365 -2.4945 -3.2495 -5.081 -4.535 0 -4.122 -1.4985 -4.3705 -3.757 -2.4945 -2.674 -2.645 -4.9955 
-4.6365 -5.8525 -5.4615 -7.181 -5.757 -6.444 -3.688 -4.891 -8.662001 -11.046 -4.535 -4.122 -5.0755 -5.729501 -6.072 -6.8535 -6.7615 -4.9565 -7.097 
-6.791 -9.323001 -8.333 -8.395 -9.2925 -6.9405 -5.0435 -10.7507 -14.9046 -11.046 -9.286001 -5.0755 -10.523 -6.5845 -9.3145 -11.7347 -9.001 -9.156 
-9.552501 -12.2793 -8.464001 -12.5831 -9.926001 -8.4845 -11.006 -16.9933 -14.9046 -15.797 -10.205 -10.523 -11.378 -9.418001 -14.4289 -13.9742 -13.2577 
-12.5546 -12.4103 -12.7521 -13.2166 -11.6596 -14.605 -17.2486 -16.9933 -19.6556 -16.716 -15.6525 -11.378 -14.2115 -14.6252 -16.6684 -18.2309 
