-4.759 
n/a 
n/a 
n/a 
n/a 
-4.759 
n/a 
n/a 
n/a 
n/a 
-4.759 
n/a 
n/a 
n/a 
n/a 
-4.759 
n/a 
n/a 
n/a 
n/a 
-4.6535 -3.8695 -4.422 -3.0695 -5.3155 -1.934 -1.4985 -4.2775 -4.675 -1.7565 -3.8655 -1.934 -1.4985 -4.335 -3.6815 -12.16972 -2.8645 -4.7205 -2.4265 -1.7695 -4.559 0 
-6.8505 -6.479 -7.037001 -7.258 -6.1435 -2.6125 -5.1745 -6.0185 -6.019 -5.196 -5.918 -2.6125 -5.249001 -8.7325 -16.83502 -15.03422 -6.325 -6.618 -4.11 -6.2435 -4.559 
-7.41 -8.736501 -10.259 -7.979501 -6.763 -5.7755 -6.6505 -6.9425 -9.113501 -7.0005 -6.697001 -6.824501 -10.243 -22.30742 -19.69952 -18.49472 -8.102 -8.061 -8.717501 -6.2435 
-8.938001 -10.4855 -10.9805 -8.690001 -9.799001 -8.546 -7.034 -10.238 -10.6605 -7.710001 -10.2755 -12.0939 -23.96752 -25.17192 -23.16002 -20.27172 -9.721001 -14.0075 -8.717501 
-10.5975 -11.207 -11.691 -11.8974 -12.5695 -9.326501 -10.27 -11.785 -11.37 -11.4653 -15.5449 -25.81842 -26.83202 -28.63242 -24.93702 -21.89072 -15.3587 -14.0075 
-1.934 -5.634501 -3.6815 -5.6375 -4.335 -4.0555 -1.7695 -3.8655 -7.679 -4.6535 -3.8695 -4.422 -2.9805 -4.168 -2.0935 -4.559 
-7.1905 -9.595001 -9.321 -9.195001 -7.746 -4.7475 -5.6875 -12.4937 -13.2563 -6.8505 -6.479 -7.443001 -6.6165 -5.994 -6.4575 
-11.6554 -16.0421 -13.4007 -12.79 -8.5015 -7.4965 -14.9629 -18.071 -15.4533 -7.41 -9.552 -11.321 -9.2015 -11.1162 
-18.1025 -20.1218 -16.9957 -13.5455 -11.5547 -17.4119 -20.5402 -20.268 -16.0128 -10.0155 -13.4964 -13.906 -14.5573 
-22.1822 -23.7168 -17.7512 -16.5987 -21.4701 -22.9892 -22.7372 -20.8275 -18.6183 -13.9599 -16.0814 -19.2618 
-8.602001 -1.934 -5.634501 -7.6105 -6.627501 -3.0695 -2.7415 -4.6535 -1.7565 -1.4985 -4.335 0 -3.6815 -3.498 -3.874 0 -3.251 -4.518 -1.4985 -3.8875 -1.7565 -3.8655 -2.229 -3.75 -3.7575 0 -3.9535 -4.5715 -1.4985 -4.503 -1.7565 -1.4985 -3.8375 -2.264 -4.5925 -1.7565 0 -12.16972 0 
-10.8785 -7.1905 -11.834 -13.071 -8.529 -4.6395 -7.062 -6.021 -2.4195 -5.249001 -4.335 -3.6815 -7.513 -8.2235 -3.874 -3.251 -6.1035 -5.2805 -4.938 -6.536 -5.196 -5.1985 -6.0495 -5.4685 -3.7575 -3.9535 -6.955501 -5.698 -5.8455 -5.2715 -2.4195 -5.0225 -6.3635 -4.7155 -4.707 -1.7565 -12.16972 -12.16972 
-16.7904 -12.6444 -19.0831 -15.3187 -9.786501 -8.3765 -7.4375 -6.2535 -6.041501 -5.249001 -8.7325 -7.513 -12.8903 -8.2235 -5.503 -6.1035 -6.6785 -8.415001 -6.9515 -10.1075 -5.952 -8.009001 -7.0975 -5.4685 -8.0915 -6.955501 -8.293501 -10.8886 -6.1625 -5.8075 -5.7285 -7.1045 -8.946 -4.7185 -4.707 -14.87542 -12.16972 
-22.5309 -19.8711 -20.9846 -16.5762 -13.5927 -8.5985 -7.626 -7.597 -6.041501 -10.243 -12.9854 -12.8903 -12.8903 -10.7025 -10.382 -6.6785 -9.72 -10.208 -10.7002 -10.8635 -9.0725 -10.5252 -7.0975 -9.842001 -11.4765 -8.293501 -13.6925 -11.2056 -6.625 -8.811501 -7.6365 -9.4755 -8.9495 -4.7185 -18.55312 -14.87542 
-29.7576 -21.7726 -22.2421 -20.3824 -13.8147 -8.799001 -9.1385 -7.597 -11.1985 -14.6455 -18.3627 -12.8903 -15.3693 -15.5815 -10.957 -9.72 -11.5246 -13.9567 -11.4562 -13.984 -11.5849 -10.5252 -11.832 -13.4168 -12.8145 -13.6925 -14.0095 -11.6681 -9.512 -10.8303 -10.0845 -9.4785 -8.9495 -18.57682 -18.55312 
-1.934 -4.569 -1.4985 -4.6535 -3.8695 -4.422 -3.2615 -4.8525 -4.3105 -3.75 -4.675 -1.934 -1.4985 -3.6815 -5.6375 -4.335 -2.9805 -3.985 -1.4985 -3.2895 -2.0935 -4.2775 -3.1715 0 
-5.777 -6.2165 -5.627501 -6.8505 -6.479 -7.902501 -6.459001 -9.287001 -8.104 -6.597 -6.7635 -2.6125 -4.9615 -9.321 -9.195001 -7.0895 -5.5375 -5.375 -4.862 -5.6595 -6.4785 -7.104 -3.1715 
-6.8435 -10.647 -8.925501 -7.41 -9.786501 -11.4402 -11.5103 -13.6593 -12.297 -9.3205 -7.3875 -5.533501 -11.43 -13.4007 -12.1335 -9.3255 -6.627501 -10.031 -7.1365 -10.4945 -8.8 -7.104 
-11.5108 -13.945 -9.569 -10.0215 -13.4046 -16.4915 -15.8826 -17.8523 -15.0205 -9.8835 -10.5225 -12.0978 -15.5097 -16.3392 -14.3695 -10.495 -11.3875 -12.5139 -12.3023 -12.816 -8.8 
-14.8088 -14.5885 -12.3803 -13.6396 -18.4559 -20.8638 -20.0756 -20.5758 -15.5835 -13.1827 -17.0868 -16.1775 -18.4482 -18.5752 -15.539 -15.255 -13.8704 -17.6797 -14.6238 -12.816 
