-4.759 
n/a 
n/a 
n/a 
n/a 
-4.759 
n/a 
n/a 
n/a 
n/a 
-4.759 
n/a 
n/a 
n/a 
n/a 
-4.759 
n/a 
n/a 
n/a 
n/a 
-1.934 -4.1115 -1.756 -8.7005 -9.601501 0 -3.873 0 -3.0365 -2.4945 -4.9285 -2.0935 -8.1885 -4.4715 
-6.27 -5.537 -11.328 -20.4891 -9.601501 -3.873 -3.873 -3.0365 -3.688 -7.548501 -6.118 -9.3615 -10.445 
-8.109501 -13.9791 -22.7827 -20.5431 -13.5881 -3.873 -6.7505 -3.688 -7.711 -8.663501 -12.747 -10.8775 
-17.1324 -25.42 -22.7827 -24.5297 -13.5881 -6.7505 -7.4265 -7.711 -8.8175 -15.3779 -14.6422 
-27.9735 -25.42 -26.7693 -24.5297 -16.4656 -7.4265 -11.5051 -8.8175 -15.5303 -17.2731 
-8.644 -4.05 -4.7935 -4.638 -1.934 -4.1115 -1.756 -4.1115 -3.4635 -4.418 -4.281 -9.601501 0 
-12.9298 -8.061501 -7.252001 -5.472 -6.27 -5.537 -5.7375 -7.897 -7.725 -8.718 -14.1991 -9.601501 
-16.9413 -9.5755 -7.656001 -9.5245 -8.109501 -7.775001 -9.198 -12.4239 -12.5798 -18.9437 -14.1991 
-18.4553 -9.882501 -11.9213 -11.7262 -10.3285 -11.8353 -13.9285 -17.2787 -22.8055 -18.9437 
-18.7623 -14.177 -14.123 -13.9452 -14.3888 -16.5658 -18.7833 -27.5044 -22.8055 
-4.1115 -1.756 -4.1115 -3.4635 -3.8195 -1.7695 -3.0465 -12.16972 -4.4715 
-5.537 -5.7375 -7.897 -6.097 -5.597 -3.683 -16.52142 -16.64122 
-7.775001 -9.198 -10.598 -8.182 -7.706 -17.80672 -20.99292 
-11.8353 -12.1026 -12.683 -10.328 -22.02112 -22.27822 
-14.7399 -14.1876 -14.829 -24.64312 -26.49262 
-4.1115 -1.756 -4.1115 -3.2015 -3.5015 -1.7565 -10.3565 -3.873 -4.138 -1.7565 -3.1495 -4.05 -2.674 -4.9285 0 
-5.537 -5.7375 -8.284 -7.884501 -4.783 -13.0622 -14.3529 -8.612 -5.1845 -3.914 -7.714001 -6.794001 -7.732 -4.9285 
-7.775001 -9.528501 -13.4174 -9.6945 -16.7861 -17.0586 -19.0919 -10.31 -8.493501 -8.2615 -10.223 -12.3094 -7.732 
-12.1658 -14.8171 -15.2274 -21.8582 -20.7825 -21.7976 -20.7899 -13.619 -13.1038 -10.8625 -15.7916 -12.3094 
-17.4544 -16.6271 -27.3911 -25.8546 -25.5215 -23.4956 -24.0989 -18.2293 -15.7048 -16.4311 -15.7916 
