-4.759 
n/a 
n/a 
n/a 
n/a 
-4.759 
n/a 
n/a 
n/a 
n/a 
-4.759 
n/a 
n/a 
n/a 
n/a 
-4.759 
n/a 
n/a 
n/a 
n/a 
-3.995 -6.477 -3.6215 -3.7075 -4.3625 -2.0935 -10.935 -3.7075 -3.4795 -1.934 -4.1055 -3.748 -6.142 
-8.3325 -6.6035 -7.708501 -8.897 -6.919001 -11.978 -13.356 -8.02 -5.116 -6.664 -6.055 -9.8535 
-8.3915 -10.3815 -13.3932 -11.4939 -18.3911 -17.2109 -18.2897 -9.7325 -10.243 -8.563 -12.585 
-10.76 -16.0662 -15.9901 -22.966 -22.7684 -21.6068 -20.0022 -14.9319 -12.142 -15.4026 
-16.4447 -18.6631 -27.4622 -27.3433 -27.1643 -23.3193 -25.2016 -16.8309 -18.9816 
-3.995 -5.942 -4.07 -1.4985 -3.7075 -1.934 -3.1435 -5.1795 -1.934 -2.664 -3.784 -1.7565 -10.935 -3.7075 -3.4795 -2.356 -4.1055 -3.748 -6.142 0 
-8.952001 -8.377501 -5.3895 -4.6235 -6.0775 -4.335 -6.968 -7.0215 -4.0475 -4.8555 -5.042 -11.478 -13.356 -8.02 -5.6195 -6.629001 -6.055 -9.8535 -5.1775 
-10.5135 -8.783501 -7.5885 -6.389501 -7.9655 -7.52 -8.5605 -8.959001 -6.599 -5.367 -14.3934 -16.3897 -18.2897 -9.8465 -9.758501 -8.184 -12.585 -9.906 
-10.5595 -9.337501 -8.922001 -8.096001 -9.075001 -9.122001 -10.1305 -11.6469 -7.354001 -14.639 -18.8823 -20.7856 -20.1162 -14.5579 -11.3135 -14.9798 -12.585 
-10.668 -10.16 -10.61 -9.088 -10.8228 -10.8458 -13.1154 -12.4019 -16.901 -19.0405 -23.2782 -22.6121 -24.8276 -16.1129 -18.1093 -14.9798 
-3.995 -1.7565 -3.7075 -3.784 -10.935 -4.323 
-6.804 -5.7275 -8.406501 -13.4485 -13.281 
-10.3415 -10.5035 -18.8912 -18.0086 
-15.3629 -20.9882 -23.1935 
-25.8476 -25.2905 
-3.995 -2.186 -4.7285 -4.3305 -4.0325 -1.934 -1.7695 -3.7075 -10.935 -1.756 -3.321 -4.1055 -3.748 -6.116 -4.8565 0 
-5.7465 -6.6125 -10.0855 -9.2025 -5.8335 -4.0395 -6.146501 -13.804 -12.4255 -4.0055 -7.798501 -6.055 -8.894001 -8.436501 -4.8565 
-10.107 -12.7917 -14.9575 -11.3195 -9.05 -8.8085 -17.0612 -17.5396 -14.6533 -8.939 -9.755001 -11.6234 -11.7549 -8.436501 
-16.2862 -17.6637 -17.0745 -14.536 -14.1574 -20.1702 -20.508 -19.2296 -19.5868 -10.2865 -15.4168 -14.4843 -11.7549 
-21.1582 -19.7807 -20.291 -19.6434 -25.5191 -23.617 -22.198 -24.1631 -20.9343 -16.0765 -18.2777 -14.4843 
