-4.759 
n/a 
n/a 
n/a 
n/a 
-4.759 
n/a 
n/a 
n/a 
n/a 
-4.759 
n/a 
n/a 
n/a 
n/a 
-4.759 
n/a 
n/a 
n/a 
n/a 
-3.147 -3.098 -3.8735 -3.8085 -2.985 -3.0835 -3.6035 -4.6335 
-6.278501 -7.8165 -7.7375 -7.194 -5.1065 -6.168 -8.239 
-10.1305 -12.1633 -10.054 -8.649501 -8.0105 -9.0185 
-15.9487 -14.4798 -10.5185 -11.9535 -9.549 
-18.2652 -14.9443 -14.0517 -13.492 
-4.1865 -4.753 -3.515 -3.9955 -3.1435 -3.0835 -4.048 -3.098 -1.934 -2.3615 -4.6715 0 
-6.7505 -6.6815 -6.399 -6.623 -5.1475 -6.488501 -6.717501 -4.746 -3.539 -7.4685 -4.6715 
-7.643 -9.229501 -7.637 -7.253 -8.1695 -9.226501 -8.994501 -6.544 -8.2875 -7.4685 
-10.2805 -10.8627 -8.1825 -8.988501 -11.4477 -11.6711 -11.1597 -11.7431 -8.2875 
-11.7751 -11.4082 -9.795 -12.5757 -13.8923 -13.8363 -16.3588 -11.7431 
-4.1865 -4.753 -3.515 -3.9955 -1.4985 -3.6035 -4.048 -2.5045 -3.0835 -2.95 -1.934 -2.3615 -4.1365 -3.098 0 
-6.7505 -6.6815 -6.399 -5.0175 -4.7865 -6.627501 -6.127 -4.934 -4.3945 -4.54 -3.539 -6.6235 -7.1485 -3.098 
-7.643 -9.229501 -6.892 -8.455501 -7.896 -8.238001 -8.8955 -7.661 -5.361 -6.2905 -7.955 -9.297501 -7.1485 
-10.2805 -9.446 -10.717 -9.669001 -9.358001 -11.6187 -11.7821 -9.4805 -7.1435 -10.9117 -11.1338 -9.297501 
-10.6185 -13.5442 -11.9305 -11.3998 -12.7083 -14.5053 -13.6016 -11.3048 -12.0263 -14.0905 -11.1338 
-4.1865 -4.753 -3.515 -3.9955 -3.1435 -3.0835 -4.6335 -1.934 -3.6035 -4.048 -3.147 0 
-6.7505 -6.6815 -6.399 -6.623 -5.1475 -6.719501 -5.7045 -5.9875 -6.627501 -7.427001 -3.147 
-7.643 -9.229501 -7.637 -7.253 -7.814 -7.393001 -10.025 -8.433001 -9.487 -7.427001 
-10.2805 -10.8627 -8.1825 -9.4445 -8.311001 -12.2343 -12.6731 -12.0513 -9.487 
-11.7751 -11.4082 -10.717 -9.9735 -13.5001 -14.8824 -16.2914 -12.0513 
