-4.759 
n/a 
n/a 
n/a 
n/a 
-4.759 
n/a 
n/a 
n/a 
n/a 
-4.759 
n/a 
n/a 
n/a 
n/a 
-4.759 
n/a 
n/a 
n/a 
n/a 
-3.043 -1.7695 -3.511 -2.3345 -1.4985 -3.9355 -1.7565 -7.0925 
-3.528 -4.633 -5.778501 -3.233 -4.8035 -5.244 -9.0045 
-6.088 -6.269 -6.5705 -6.747 -5.6175 -13.2828 
-8.073501 -7.1815 -8.785001 -7.406 -13.7887 
-9.114 -9.311001 -9.132501 -15.7546 
-3.043 -1.7695 -3.511 -2.5195 -1.4985 -3.778 -1.7565 -6.5 0 
-3.528 -4.633 -5.514 -3.1695 -5.177 -4.848 -9.024 -6.5 
-6.088 -7.462 -6.0425 -7.258 -5.7995 -13.3075 -9.024 
-8.743501 -8.099001 -10.981 -7.784 -14.5878 -13.3075 
-9.174001 -13.3299 -11.507 -16.6577 -14.5878 
-3.043 -1.4985 -6.5 -4.6465 -2.186 -3.8245 0 
-4.41 -9.4805 -10.884 -6.693 -6.0715 -3.8245 
-12.726 -14.1129 -12.9305 -11.2007 -6.0715 
-17.3584 -16.1594 -17.4382 -11.2007 
-19.4049 -20.6671 -17.4382 
-3.043 -1.7695 -3.511 -2.3345 -6.5 -3.9355 0 
-3.528 -4.633 -5.778501 -8.1685 -11.2097 -3.9355 
-6.088 -6.269 -12.2569 -13.3464 -11.2097 
-8.073501 -13.2216 -17.4348 -13.3464 
-15.6211 -18.3995 -17.4348 
