-4.759 
n/a 
n/a 
n/a 
n/a 
-4.759 
n/a 
n/a 
n/a 
n/a 
-4.759 
n/a 
n/a 
n/a 
n/a 
-4.759 
n/a 
n/a 
n/a 
n/a 
-3.433 -1.7565 -4.0005 -3.4425 -1.934 -3.691 -2.4265 -2.8645 -3.6065 -3.9755 -1.7565 -4.033 -3.598 -1.756 -5.819 
-4.1845 -6.336501 -5.811 -5.188 -4.8225 -6.4005 -4.1435 -6.1805 -5.153 -4.312 -5.2525 -6.6315 -4.8655 -7.554 
-8.247 -7.466001 -8.1285 -8.161 -6.876 -7.773 -7.559 -8.250501 -5.1935 -7.409 -7.971 -7.6145 -9.935 
-10.6095 -10.328 -11.3055 -10.078 -8.213501 -11.3379 -9.373 -8.315001 -8.278 -9.964001 -8.4725 -10.151 
-13.4715 -13.505 -13.2225 -11.4449 -11.8274 -13.1519 -9.500001 -11.4977 -11.0398 -10.4655 -11.4918 
-3.691 -2.229 -3.3235 -5.6125 -4.031 -3.0415 0 -2.3335 -3.3715 -3.8665 -3.47 -1.756 -4.4385 -2.4945 -3.301 
-5.0855 -5.717 -9.769501 -10.932 -6.659 -3.0415 -2.3335 -4.9725 -6.843 -4.8725 -4.7915 -6.4365 -5.9635 -5.269 
-8.973001 -12.5382 -15.357 -13.56 -6.659 -4.132 -4.9725 -8.455 -8.0915 -5.8885 -9.7355 -8.026 -8.863001 
-16.2422 -18.1257 -17.985 -13.56 -7.993 -7.1765 -8.455 -9.852 -9.0325 -11.6431 -11.4268 -11.1303 
-21.8297 -20.7537 -17.985 -14.894 -11.1309 -10.8466 -9.852 -10.9382 -14.8133 -13.3344 -14.5311 
-3.433 -1.7565 -3.691 -2.229 -4.845 -3.5085 -3.4425 -2.4265 -2.8645 -5.7415 -4.7005 -1.7565 -3.47 
-4.1845 -4.930501 -5.0855 -6.493001 -9.487 -6.09 -5.8605 -4.1435 -9.5005 -11.1564 -4.764 -5.232 
-8.593 -5.879001 -8.402 -11.3848 -12.2223 -8.8575 -7.2435 -11.1163 -15.0958 -11.2199 -7.536 
-8.6565 -9.022 -13.7764 -14.1201 -14.9898 -9.5935 -14.3579 -16.7116 -15.1593 -13.9919 
-11.9473 -14.5536 -16.5117 -16.8876 -15.7258 -17.4851 -19.9532 -16.7751 -17.9313 
-3.691 -2.229 -2.674 -9.919001 -3.8665 -5.6055 -1.756 -2.95 -4.763 0 
-5.0855 -5.629 -14.1348 -13.8911 -10.8732 -6.637 -4.868 -8.4595 -4.763 
-9.52 -17.3864 -18.1069 -20.8978 -11.9047 -10.5635 -10.5035 -8.4595 
-21.3868 -21.3585 -25.1136 -21.9293 -15.8312 -16.199 -10.5035 
-25.3589 -28.3652 -26.1451 -25.8558 -21.4667 -16.199 
