-4.759 
n/a 
n/a 
n/a 
n/a 
-4.759 
n/a 
n/a 
n/a 
n/a 
-4.759 
n/a 
n/a 
n/a 
n/a 
-4.759 
n/a 
n/a 
n/a 
n/a 
-3.6065 -3.9655 -3.8035 0 -3.5435 -3.4425 -2.186 -4.8085 -1.7695 -3.672 -4.417 0 -4.051 -4.197 -5.113 
-6.8455 -6.882 -3.8035 -3.5435 -6.236 -5.4195 -5.9115 -5.180501 -5.625 -7.758 -4.417 -4.051 -9.229 -9.9615 
-9.9425 -6.882 -8.004 -6.236 -8.642 -9.557 -6.2625 -8.2025 -8.972501 -7.758 -8.356501 -9.229 -15.5313 
-9.9425 -10.5975 -11.0955 -8.642 -12.8451 -9.814 -9.486501 -12.0534 -8.972501 -11.8111 -13.9589 -15.5313 
-13.8638 -13.689 -13.5015 -12.8451 -13.1021 -13.104 -13.3744 -12.0534 -13.1304 -17.4135 -20.2612 
-5.728 -3.849 -3.9655 -3.8035 0 -4.1985 -2.4945 -3.4625 -3.9595 -2.0935 -3.737 -1.4985 -3.5435 -3.3035 -2.5045 -3.672 -1.756 -1.7695 -3.4295 -3.3715 -4.328 -1.7695 -3.429 -3.355 -1.934 -3.672 -2.664 -2.9385 -4.051 -3.355 
-8.768001 -7.45 -6.882 -3.8035 -4.1985 -5.899 -4.7105 -5.749001 -5.712 -5.07 -4.7615 -4.2755 -7.559 -5.6615 -6.0935 -5.303 -3.963 -4.5855 -7.259 -6.783501 -5.7985 -4.032 -5.2945 -4.8475 -5.443501 -7.967501 -5.9915 -7.635 -8.502001 
-12.512 -10.0375 -6.882 -8.5935 -5.899 -7.257 -6.58 -7.1195 -9.269501 -6.017 -7.9065 -8.617001 -9.3245 -9.4715 -7.431001 -8.078501 -7.0845 -7.93 -11.1752 -8.4385 -7.7685 -5.6355 -5.3915 -9.0445 -9.047001 -9.271501 -9.9805 -12.3574 
-15.0995 -10.0375 -12.0566 -10.451 -7.257 -7.3215 -7.9345 -10.6595 -10.0415 -9.442 -12.4576 -10.5855 -13.8571 -10.2655 -10.3745 -11.5942 -10.2275 -12.1534 -12.8302 -10.1805 -9.111501 -5.7185 -9.4705 -12.7216 -10.466 -14.0087 -14.7029 
-15.0995 -15.4141 -13.9141 -10.7635 -7.3215 -9.086 -11.6085 -11.4315 -13.4665 -14.0703 -14.4261 -15.1181 -14.6511 -13.7118 -13.8902 -14.7372 -14.4509 -13.8084 -14.5722 -11.6407 -9.1815 -9.826 -13.211 -14.1406 -15.2032 -18.7311 
-1.934 -3.458 -3.3715 -3.9655 -4.919 0 -5.49 -1.7565 -3.237 -4.1395 -4.139 0 -4.197 -2.0935 -3.672 -1.756 -4.051 -4.401 -1.934 -3.135 -4.651 -2.186 -4.448 0 
-5.207 -6.886001 -6.947001 -7.4425 -4.919 -5.49 -6.3575 -4.57 -4.9685 -7.816501 -4.139 -4.197 -5.9605 -5.3225 -5.303 -5.368 -7.4375 -4.898 -4.4015 -6.8745 -6.8785 -5.962 -4.448 
-8.311001 -10.404 -9.943001 -7.4425 -10.4945 -6.3575 -7.5495 -6.134 -8.1005 -7.816501 -8.762501 -5.9605 -9.6755 -6.768 -8.0165 -8.8 -7.7585 -7.8745 -7.230501 -9.111501 -10.1725 -5.962 
-10.7175 -13.6498 -9.943001 -13.4616 -11.362 -7.5495 -8.922001 -8.8935 -8.1005 -12.7314 -10.76 -9.6755 -11.1412 -9.344001 -9.700001 -9.281501 -10.2865 -10.2285 -9.244501 -12.4115 -10.1725 
-14.6177 -13.6498 -15.9621 -14.3291 -12.554 -8.922001 -10.361 -8.8935 -13.2138 -14.7289 -14.475 -11.1412 -13.7172 -11.2281 -10.1785 -11.9301 -12.6405 -12.3211 -12.5389 -12.4115 
-3.2615 -3.3715 -3.9655 -4.6845 0 -6.048 -1.7565 -3.5435 -4.676 -1.756 -1.756 -4.197 -4.0005 -4.676 -2.0935 -4.051 -8.052 -9.172501 -2.186 -4.448 
-6.0335 -6.947001 -7.5775 -4.6845 -6.048 -6.728 -4.913 -6.6425 -5.715 -5.389 -6.0305 -8.1485 -8.105 -6.6565 -5.553 -13.7856 -17.5309 -11.6361 -5.962 
-9.878 -9.684001 -7.5775 -11.7775 -6.728 -8.6955 -8.492001 -7.576 -10.0095 -9.889501 -9.8655 -12.8838 -9.854501 -10.1505 -15.9114 -23.2645 -19.9945 -15.4121 
-12.615 -9.684001 -15.0199 -12.4575 -8.6955 -12.8887 -9.319501 -12.1487 -14.51 -13.7245 -14.7434 -14.6333 -13.4859 -20.6289 -25.3903 -25.7281 -23.7705 
-12.615 -17.2868 -15.6999 -14.425 -12.8887 -13.7162 -13.9242 -16.6492 -18.345 -18.6024 -16.4929 -18.2647 -23.9643 -30.1078 -27.8539 -29.5041 
