-4.759 
n/a 
n/a 
n/a 
n/a 
-4.759 
n/a 
n/a 
n/a 
n/a 
-4.759 
n/a 
n/a 
n/a 
n/a 
-4.759 
n/a 
n/a 
n/a 
n/a 
-6.6585 -2.229 -3.17 -3.699 -4.167 -9.841001 0 -5.957 0 -6.2335 0 -12.16972 0 -10.678 0 -11.0905 -3.843 
-9.037001 -4.5735 -4.663 -7.2945 -15.2214 -9.841001 -5.957 -5.957 -6.2335 -6.2335 -12.16972 -12.16972 -10.678 -10.678 -11.0905 -14.9335 
-11.6229 -6.0595 -7.713 -19.0599 -15.2214 -15.8628 -5.957 -9.662001 -6.2335 -19.27782 -12.16972 -22.84772 -10.678 -21.9543 -14.9335 
-13.1089 -8.580501 -19.7796 -19.0599 -21.2432 -15.8628 -9.662001 -9.662001 -19.27782 -19.27782 -22.84772 -22.84772 -21.9543 -25.7973 
-15.6299 -20.6751 -19.7796 -25.0817 -21.2432 -19.5678 -9.662001 -24.40592 -19.27782 -29.95582 -22.84772 -34.12402 -25.7973 
-12.16972 0 -7.864501 0 -6.2335 0 -12.16972 0 -10.437 0 -12.16972 -2.4945 -2.8965 -3.699 -4.167 -1.7565 -6.6585 0 
-12.16972 -7.864501 -7.864501 -6.2335 -6.2335 -12.16972 -12.16972 -10.437 -10.437 -12.16972 -14.66422 -5.387 -5.7205 -7.2945 -5.5915 -8.343 -6.6585 
-20.03422 -7.864501 -14.5866 -6.2335 -19.27782 -12.16972 -22.60672 -10.437 -22.71852 -14.66422 -17.55672 -7.4315 -8.252501 -8.064 -10.7595 -8.343 
-20.03422 -14.5866 -14.5866 -19.27782 -19.27782 -22.60672 -22.60672 -22.71852 -25.21302 -17.55672 -19.60122 -10.181 -9.274 -13.6976 -10.7595 
-26.75632 -14.5866 -27.63092 -19.27782 -29.71482 -22.60672 -34.88824 -25.21302 -28.10552 -19.60122 -22.35072 -11.2025 -15.0666 -13.6976 
-1.4985 -2.8965 -3.699 -4.167 -2.4945 -9.841001 0 -5.639 0 -6.285 0 -12.16972 0 -12.16972 0 -12.16972 -3.843 0 
-3.928 -5.7205 -7.2945 -6.1715 -13.7637 -9.841001 -5.639 -5.639 -6.285 -6.285 -12.16972 -12.16972 -12.16972 -12.16972 -12.16972 -16.01272 -3.843 
-7.0295 -8.252501 -8.6675 -17.8167 -13.7637 -15.5448 -5.639 -9.785001 -6.285 -19.23372 -12.16972 -24.33944 -12.16972 -24.33944 -16.01272 -16.01272 
-9.6525 -8.917001 -20.4259 -17.8167 -19.4675 -15.5448 -9.785001 -9.785001 -19.23372 -19.23372 -24.33944 -24.33944 -24.33944 -28.18244 -16.01272 
-10.398 -20.7258 -20.4259 -23.5205 -19.4675 -19.6908 -9.785001 -23.66272 -19.23372 -31.40344 -24.33944 -36.50916 -28.18244 -28.18244 
-2.8965 -3.699 -4.167 -1.7565 -4.628 -4.743 -2.4945 -6.4705 0 -5.957 0 -6.2335 0 -12.16972 0 -12.16972 0 -10.546 0 
-5.7205 -7.2945 -5.5915 -6.107501 -4.7515 -7.639 -10.2595 -6.4705 -5.957 -5.957 -6.2335 -6.2335 -12.16972 -12.16972 -12.16972 -12.16972 -10.546 -10.546 
-8.252501 -8.064 -9.2355 -6.281001 -7.644001 -15.545 -10.2595 -13.4133 -5.957 -9.662001 -6.2335 -19.27782 -12.16972 -24.33944 -12.16972 -22.71572 -10.546 
-9.274 -12.1736 -9.39 -8.502001 -15.5516 -15.545 -17.2023 -13.4133 -9.662001 -9.662001 -19.27782 -19.27782 -24.33944 -24.33944 -22.71572 -22.71572 
-13.5426 -12.3281 -11.7802 -16.5082 -15.5516 -22.4878 -17.2023 -17.1183 -9.662001 -24.40592 -19.27782 -31.44754 -24.33944 -34.88544 -22.71572 
