-4.759 
n/a 
n/a 
n/a 
n/a 
-4.759 
n/a 
n/a 
n/a 
n/a 
-4.759 
n/a 
n/a 
n/a 
n/a 
-4.759 
n/a 
n/a 
n/a 
n/a 
-3.5155 -2.4945 -6.3195 -3.7015 -4.203 -1.756 -3.9955 -3.2015 -2.356 -6.848001 0 
-5.4445 -7.792 -8.9785 -7.8465 -5.5325 -5.542 -7.7585 -5.904 -8.776501 -6.848001 
-10.513 -10.0855 -13.2045 -9.0425 -9.0295 -8.986 -10.1595 -12.8001 -8.776501 
-12.8065 -14.3419 -14.4005 -12.6523 -12.4133 -11.4912 -17.0556 -12.8001 
-17.0629 -15.5379 -18.0103 -16.0361 -14.9185 -18.3873 -17.0556 
-2.925 -3.5155 -3.9955 -2.3345 -5.3255 -4.203 -3.3255 -6.848001 -3.2015 
-5.5835 -7.2275 -5.7745 -7.047501 -9.645 -7.388 -10.9315 -10.2985 
-8.229501 -8.665 -10.068 -11.6872 -13.011 -15.5196 -14.382 
-10.361 -13.0101 -14.8215 -15.0532 -21.1426 -18.9701 
-14.7061 -17.7636 -18.1875 -23.1848 -24.5931 
-3.5155 -1.7565 -3.277 -3.251 -5.674 -1.934 -1.4985 -4.492 -5.3255 -1.4985 -4.203 -1.756 -2.356 -1.4985 -3.2015 -1.7565 -1.4985 -6.848001 0 
-4.8955 -4.25 -6.0975 -8.2585 -7.091001 -2.6125 -5.7395 -10.564 -6.301001 -5.438 -5.5325 -4.553 -3.1615 -4.9495 -4.706 -2.4195 -7.7685 -6.848001 
-5.762 -6.18 -11.1452 -9.723001 -7.7175 -6.469501 -12.6087 -11.5395 -10.096 -6.5485 -8.019501 -5.2515 -5.8245 -5.357 -5.2665 -8.696 -7.7685 
-7.656 -11.2327 -12.6097 -10.1705 -10.6735 -13.5787 -13.5842 -15.3345 -11.2065 -8.845501 -8.3525 -7.1625 -5.9025 -5.857 -10.4675 -8.696 
-12.7785 -12.6972 -13.0572 -13.1265 -17.7827 -14.5542 -17.3792 -16.445 -13.5035 -9.154501 -10.074 -7.203001 -6.3295 -10.5745 -10.4675 
-3.1495 -3.2495 -5.192 -3.7015 -4.203 -2.356 -1.4985 -3.0785 -1.7565 -6.848001 
-4.8975 -8.179 -6.574501 -7.8465 -6.6105 -3.1615 -4.779 -5.1815 -8.689 
-9.403001 -10.316 -11.1961 -10.749 -7.3965 -5.297501 -5.2205 -12.5382 
-11.5996 -14.9616 -14.0986 -11.535 -8.792 -5.3145 -12.619 
-16.2452 -17.8641 -14.8846 -12.9305 -8.802 -12.7228 
