-4.759 
n/a 
n/a 
n/a 
n/a 
-4.759 
n/a 
n/a 
n/a 
n/a 
-4.759 
n/a 
n/a 
n/a 
n/a 
-4.759 
n/a 
n/a 
n/a 
n/a 
-8.376 -1.756 -4.1395 -2.4945 -1.934 -3.77 -1.7695 -3.619 -1.934 -1.4985 -6.375 
-9.72 -5.5845 -5.9615 -4.2645 -6.3325 -4.2755 -4.5275 -5.91 -2.6125 -7.481 
-13.6513 -7.739 -7.6815 -8.2215 -6.7805 -7.531 -7.025001 -6.8785 -9.141001 
-15.8058 -9.5225 -12.1631 -9.080001 -11.0274 -9.788 -7.8125 -13.9038 
-17.5893 -14.0519 -13.0216 -13.3187 -13.2844 -10.9285 -15.0658 
-4.1395 0 -4.0145 0 -3.4765 -3.5965 -4.2255 -2.7765 -2.489 -4.3725 -3.222 -3.941 -2.356 -4.221 -4.73 0 
-4.1395 -4.0145 -4.0145 -3.4765 -7.7635 -7.1895 -6.7955 -3.495 -5.109 -6.008 -6.441 -6.343 -6.0985 -7.731501 -4.73 
-6.2115 -4.0145 -7.1895 -7.7635 -10.4345 -9.444 -6.9745 -6.0435 -6.653501 -9.029501 -8.5655 -9.9835 -7.76 -7.731501 
-6.2115 -7.1895 -10.4345 -10.4345 -10.4725 -9.545 -9.48 -7.43 -9.6415 -10.329 -10.4505 -10.28 -7.76 
-10.233 -10.4345 -10.464 -10.4725 -10.504 -10.4795 -10.0685 -10.163 -10.4435 -10.462 -10.4645 -10.28 
-2.3335 -5.3965 -1.756 -4.9965 -1.8085 -3.787 -1.7565 -3.684 -1.756 -8.954 -4.5465 0 -5.548 -3.517 0 -3.562 -5.7895 0 -3.598 -3.8935 -4.3165 -5.465 0 
-6.961 -6.159 -6.089 -6.395 -4.7535 -4.189 -5.3325 -5.3175 -9.6315 -11.834 -4.5465 -5.548 -7.7355 -3.517 -3.562 -8.371 -5.7895 -3.598 -6.715 -7.012 -6.811 -5.465 
-7.8245 -6.94 -7.4305 -7.7975 -4.79 -7.3875 -6.341001 -8.428 -9.732 -8.0295 -6.193 -7.7355 -7.7355 -6.147 -8.371 -8.371 -7.837501 -6.715 -8.7925 -9.748501 -6.811 
-8.4285 -8.02 -8.4965 -7.7995 -8.229501 -8.248501 -8.6715 -10.1015 -9.524 -10.209 -8.458 -7.7355 -10.298 -10.1945 -8.371 -10.168 -9.8325 -8.7925 -10.0225 -9.748501 
-9.439 -8.882 -8.498501 -10.2425 -9.370001 -9.972501 -10.5255 -9.2515 -11.279 -10.3 -8.458 -10.298 -10.3135 -10.1945 -10.168 -10.3115 -10.308 -10.0225 -10.0225 
-4.1395 0 -4.0145 0 -3.5965 -4.1645 -3.115 -4.011 -2.7765 -4.236 -4.4725 -1.934 -3.941 
-4.1395 -4.0145 -4.0145 -3.5965 -8.5585 -7.667 -6.432 -6.323 -5.084001 -7.9195 -5.511001 -5.245 
-6.2115 -4.0145 -8.3165 -8.5585 -12.3536 -11.2542 -8.8915 -9.737 -10.634 -8.707001 -7.671 
-6.2115 -8.3165 -13.5997 -12.3536 -15.9408 -13.7137 -12.3795 -15.5118 -11.4215 -11.114 
-10.6215 -13.5997 -17.3948 -15.9408 -18.4003 -17.2017 -18.1543 -16.2993 -13.8285 
