-4.759 
n/a 
n/a 
n/a 
n/a 
-4.759 
n/a 
n/a 
n/a 
n/a 
-4.759 
n/a 
n/a 
n/a 
n/a 
-4.759 
n/a 
n/a 
n/a 
n/a 
-3.401 0 -4.98 0 -1.934 -1.4985 -3.158 -4.652 0 -3.0835 -3.6385 -4.2215 -1.4985 -4.7055 -4.0505 -3.0835 -4.873 -6.3505 0 
-3.401 -4.98 -4.98 -1.934 -2.6125 -4.178 -7.094 -4.652 -3.0835 -6.440001 -7.567 -5.894001 -5.9095 -10.411 -7.599501 -7.811001 -12.1405 -6.3505 
-7.1715 -4.98 -6.97 -2.6125 -5.265 -8.1245 -7.094 -7.868001 -6.440001 -11.1235 -9.824 -10.096 -12.0972 -13.96 -12.7764 -15.8103 -12.1405 
-7.1715 -6.97 -7.5 -5.265 -8.625501 -8.1245 -10.3675 -9.648001 -11.1235 -13.3805 -14.1736 -16.4147 -15.6462 -19.1369 -20.7757 -15.8103 
-8.646001 -7.5 -10.5491 -8.625501 -8.625501 -11.7532 -12.1475 -15.2005 -13.3805 -17.7301 -20.4923 -19.9637 -20.8231 -27.1362 -20.7757 
-9.420501 -3.0835 -4.125 -3.091 -4.3665 -2.264 -1.4985 -4.4515 -1.934 -4.652 
-12.8032 -7.528001 -7.0085 -6.3425 -6.29 -2.9195 -5.0235 -6.223001 -5.852 
-17.2477 -9.9505 -8.991 -7.458 -6.6115 -5.8805 -6.6215 -7.987 
-19.6702 -12.0238 -9.4825 -7.685 -7.853001 -7.443001 -7.9925 
-21.7435 -12.5153 -9.8735 -9.726001 -9.1385 -8.169001 
-3.7345 -3.6385 -3.0695 -3.8725 -3.091 -4.814 -5.5035 -2.264 -1.4985 -4.4515 -1.934 -4.652 
-7.0325 -4.965 -7.574 -7.829 -6.1805 -10.1905 -7.679501 -2.9195 -5.0235 -6.223001 -5.852 
-9.718 -10.7175 -12.7499 -10.2485 -12.1286 -12.3665 -8.057501 -5.8805 -6.6215 -7.987 
-15.7399 -15.8934 -15.1694 -16.1966 -14.3046 -12.7445 -11.1429 -7.443001 -7.9925 
-20.9158 -18.3129 -21.1175 -18.3726 -14.6826 -15.8299 -12.7054 -8.169001 
-1.4985 -3.0835 -2.95 -4.1685 -4.3665 -9.420501 -1.934 -4.652 
-3.535 -4.3945 -6.8855 -8.727001 -14.8012 -11.6537 -5.852 
-4.569 -8.3815 -11.883 -19.9209 -17.0344 -15.5717 
-8.5515 -13.4792 -23.0769 -22.1541 -20.9524 
-13.7028 -24.6731 -25.3101 -26.0721 
