-4.759 
n/a 
n/a 
n/a 
n/a 
-4.759 
n/a 
n/a 
n/a 
n/a 
-4.759 
n/a 
n/a 
n/a 
n/a 
-4.759 
n/a 
n/a 
n/a 
n/a 
-3.8175 -3.5435 -4.922 -4.6685 -5.1845 -3.1385 -3.152 -6.557 -1.756 -6.899 -4.6555 0 
-7.1485 -7.913 -8.916 -10.147 -7.4095 -5.219 -11.0188 -8.2015 -8.814001 -10.1725 -4.6555 
-12.0738 -12.2294 -14.4615 -12.5008 -9.253 -13.8072 -12.6633 -15.6395 -12.1685 -10.1725 
-16.3902 -17.7749 -16.8153 -14.3443 -17.9318 -15.4517 -20.1013 -18.994 -12.1685 
-21.9357 -20.1287 -18.6588 -23.0231 -19.5763 -22.8897 -23.4558 -18.994 
-1.4985 -5.1845 -5.74 -1.756 -4.628 -5.939 -4.6555 -2.4945 -1.4985 -3.5435 -7.8145 -3.9605 -2.0935 -8.27 0 
-6.5205 -5.7465 -7.346 -6.51 -5.9615 -8.738 -6.093501 -3.9315 -4.2755 -9.9855 -10.425 -6.731501 -9.514 -8.27 
-7.317 -7.3525 -9.27 -7.6985 -8.740001 -10.468 -7.868001 -7.274 -10.4885 -13.922 -13.5614 -15.0148 -9.514 
-9.248501 -9.271501 -11.1993 -9.4405 -10.467 -12.2425 -11.6375 -13.8278 -14.4416 -17.2294 -21.8447 -15.0148 
-11.4809 -11.1986 -12.9413 -10.7605 -12.2415 -16.012 -18.1913 -17.6853 -17.749 -25.5127 -21.8447 
-6.557 -3.5435 -1.756 -4.628 -5.939 -3.5435 -2.4945 -3.383 -3.699 -3.9235 -2.0935 -9.6365 0 
-8.731501 -4.862 -6.51 -5.9615 -7.053 -6.172501 -4.732 -5.014 -7.765 -5.506001 -10.75 -9.6365 
-10.2645 -9.794001 -7.6985 -7.0565 -9.548 -8.446001 -6.204 -8.816 -9.059 -15.0615 -10.75 
-15.1965 -10.1335 -9.3975 -9.5515 -11.8483 -9.831501 -10.5178 -10.147 -18.6641 -15.0615 
-15.536 -11.9575 -12.0157 -11.852 -13.2338 -14.2509 -11.8488 -19.7521 -18.6641 
-6.557 -3.5435 -1.756 -4.628 -5.939 -3.5435 -2.4945 -8.27 -3.535 -3.5435 -4.0805 
-8.731501 -4.862 -6.51 -5.9615 -7.053 -6.172501 -10.035 -12.2318 -7.6155 -6.3025 
-10.2645 -9.794001 -7.6985 -7.0565 -9.548 -14.1436 -13.9968 -16.3123 -10.264 
-15.1965 -10.1335 -9.3975 -9.5515 -17.5459 -18.1054 -18.0773 -18.9608 
-15.536 -11.9575 -12.0157 -17.5496 -21.5077 -22.1859 -20.7258 
