-4.759 
n/a 
n/a 
n/a 
n/a 
-4.759 
n/a 
n/a 
n/a 
n/a 
-4.759 
n/a 
n/a 
n/a 
n/a 
-4.759 
n/a 
n/a 
n/a 
n/a 
-3.034 -4.175 -3.3425 -1.4985 -3.473 -1.7565 -3.788 -3.8755 -3.682 -2.3345 -5.061 -2.871 -4.0105 -1.756 -4.175 0 -2.871 -2.9775 -2.7765 -2.489 -4.236 -3.8755 0 
-7.103001 -7.069 -4.0125 -5.1495 -4.7225 -6.434501 -6.3355 -7.344 -5.95 -5.7335 -7.401501 -6.3755 -5.392 -5.86 -4.175 -2.871 -5.384501 -6.0605 -3.495 -5.3765 -7.4265 -3.8755 
-9.859 -7.3505 -7.298 -6.0175 -9.9305 -8.7215 -9.908501 -9.4615 -8.6885 -7.7365 -8.301001 -7.709 -10.3045 -5.86 -7.382501 -5.384501 -8.370001 -6.463 -5.5885 -7.797 -7.4265 
-10.3715 -11.2076 -8.410001 -12.2873 -12.6309 -12.4945 -12.026 -12.4838 -10.9081 -8.5845 -9.515501 -13.0419 -10.3045 -8.9645 -9.748501 -8.370001 -8.811001 -8.8105 -7.908501 -7.797 
-14.513 -12.3196 -14.707 -14.9877 -16.4039 -14.612 -15.0483 -14.7034 -11.7561 -9.9175 -14.9448 -13.0419 -13.409 -11.4085 -12.8216 -8.811001 -11.0575 -11.4599 -7.908501 
-3.788 -1.7695 -3.737 -3.9875 -1.7565 -3.473 -1.7695 -3.5795 -1.4985 -2.871 -2.9775 -1.7695 -3.737 0 
-6.661 -5.321 -8.356501 -5.377501 -6.304 -5.587 -4.6205 -4.5845 -4.316 -5.384501 -4.6995 -5.321 -3.737 
-10.733 -10.4765 -10.209 -10.1425 -8.285 -8.669001 -5.506 -7.711 -6.7375 -7.1385 -10.064 -5.321 
-15.8885 -12.329 -14.974 -12.1235 -11.7022 -9.5115 -8.572001 -9.956 -9.6 -13.0196 -10.064 
-17.741 -17.094 -16.955 -15.5407 -12.5447 -12.6857 -11.1066 -12.8185 -15.6017 -13.0196 
-4.243 -2.688 -2.9775 -2.742 -2.489 -3.8755 -2.7835 -2.7295 -4.334 -1.4985 -3.7855 -8.632501 -1.756 -3.825 
-8.106501 -5.6235 -5.621 -3.301 -5.2845 -6.4245 -4.405 -6.9665 -5.3735 -5.094501 -13.5118 -9.826501 -5.399 
-11.2482 -7.386001 -6.160501 -5.9385 -6.9495 -8.329 -8.3655 -7.7345 -8.81 -15.3952 -14.7058 -13.5241 
-13.0107 -8.151501 -8.231001 -7.4905 -8.85 -12.4105 -9.058001 -11.2976 -19.6603 -16.5892 -18.4034 
-13.7762 -9.114 -10.015 -9.66 -12.9387 -13.103 -12.6397 -22.1479 -20.8543 -20.2868 
-2.7295 -2.7765 -3.1715 -3.16 -2.9775 -2.3345 -3.3425 -3.682 -3.331 0 
-4.065 -4.9895 -6.691501 -4.6715 -5.580501 -4.554 -7.0365 -7.4725 -3.331 
-6.4475 -8.530001 -8.821501 -7.014 -6.927501 -8.571501 -11.452 -7.4725 
-10.259 -10.757 -11.5216 -7.554 -11.9218 -12.9758 -11.452 
-12.486 -13.4571 -12.0616 -13.6301 -16.3261 -12.9758 
