-4.759 
n/a 
n/a 
n/a 
n/a 
-4.759 
n/a 
n/a 
n/a 
n/a 
-4.759 
n/a 
n/a 
n/a 
n/a 
-4.759 
n/a 
n/a 
n/a 
n/a 
-3.929 -3.0365 -2.7765 -2.489 -3.135 -5.091 -3.6615 -3.962 -1.934 -3.345 -1.756 -3.6055 -3.355 -1.7565 -3.8735 0 -4.2465 -4.944 -4.872 -1.4985 -3.1715 -1.756 -3.6885 -4.1355 -2.186 -3.074 -4.3905 0 
-5.627 -5.4045 -3.495 -5.307 -6.769 -7.308 -7.4635 -4.8165 -4.618 -5.2935 -5.005 -6.047501 -3.725 -5.112 -3.8735 -4.2465 -10.041 -9.128 -5.673 -3.994 -4.562 -5.3225 -8.681001 -6.5635 -4.156 -6.8335 -4.3905 
-8.078 -5.505 -7.0635 -9.189501 -8.443501 -11.7122 -7.703001 -7.99 -6.762 -5.4295 -6.9625 -6.166 -7.186501 -5.112 -7.751 -10.041 -14.4066 -10.1645 -8.1855 -5.401 -9.3505 -10.688 -10.2705 -8.591001 -7.2535 -6.8335 
-8.1315 -7.311 -11.203 -10.2335 -12.9773 -11.9517 -10.609 -9.499001 -6.87 -7.160501 -7.439 -8.809501 -7.186501 -9.039001 -14.4221 -14.4066 -15.4431 -12.677 -9.7615 -10.5745 -14.9646 -12.2775 -12.298 -11.7229 -7.2535 
-9.3675 -11.4843 -12.247 -15.2661 -13.2168 -14.8577 -12.118 -9.5235 -9.1125 -8.132501 -10.031 -8.809501 -11.6291 -15.8361 -18.7877 -15.4431 -17.9556 -14.253 -14.9176 -16.1886 -16.5541 -14.305 -15.4299 -11.7229 
-1.934 -3.6055 -3.355 -1.7565 -3.8735 -2.7295 -2.7765 -3.047 -3.6065 -3.9675 -3.402 -3.893 -3.892 -1.756 -4.2655 0 
-4.8595 -6.047501 -3.725 -5.112 -6.5655 -4.065 -4.5075 -6.807 -6.878 -7.029 -4.995 -8.689 -5.337 -5.637 -4.2655 
-6.8195 -6.166 -7.186501 -7.729001 -8.1435 -5.696 -7.9645 -10.5035 -9.98 -8.73 -9.404 -9.764 -8.778001 -5.637 
-6.8785 -8.809501 -9.212001 -9.471001 -9.614 -8.7065 -11.806 -13.6055 -11.786 -13.2118 -10.6615 -13.205 -8.778001 
-9.3865 -10.5975 -10.622 -10.554 -12.6407 -12.819 -14.908 -15.4115 -16.2678 -14.4693 -14.1025 -13.205 
-3.929 -1.934 -3.8735 -3.3715 -4.2465 -7.226 -3.152 -3.962 -1.934 -3.3715 -3.9035 0 -3.8515 -2.5195 -2.3335 -3.0365 -2.186 -1.8085 -3.922 -1.934 -1.4985 -4.2465 -4.0375 
-5.9385 -4.885 -7.601 -7.0305 -9.4455 -9.3205 -5.9475 -4.8165 -4.622 -5.995 -3.9035 -3.8515 -4.4615 -4.9535 -4.2925 -3.66 -3.164 -6.968 -4.558 -2.6125 -5.423 -8.231 
-9.238001 -7.965001 -11.549 -13.0387 -11.55 -12.228 -6.658 -7.003 -6.2565 -5.995 -8.3225 -4.4615 -6.518001 -7.434 -4.7505 -4.218 -8.833501 -7.5835 -5.195 -6.605 -9.674001 
-12.585 -11.9588 -17.5572 -15.1432 -14.4575 -12.9385 -9.033 -8.735001 -6.2565 -11.7832 -8.561501 -6.518001 -9.101001 -8.0165 -5.2575 -9.285001 -9.234 -8.3695 -9.6715 -11.2782 
-16.5788 -17.967 -19.6617 -18.0507 -15.168 -15.3135 -10.4425 -8.735001 -12.7999 -12.0222 -10.9072 -9.101001 -9.605501 -8.7655 -10.3605 -9.439001 -9.73 -12.875 -14.4309 
-1.934 -3.345 -1.756 -3.6055 -4.5435 -1.934 -3.8735 -1.4985 -4.2465 -3.4625 -1.934 -4.015 -4.5845 0 -2.872 -3.8225 -4.2465 -3.8335 -7.201 -7.1995 -1.7565 -3.6885 -1.756 -3.1715 -3.152 -5.189 
-4.618 -5.2935 -5.005 -8.269001 -6.272501 -4.885 -5.752 -5.423 -6.471 -4.565 -4.6075 -9.061501 -4.5845 -2.872 -7.015 -7.4515 -9.1845 -7.634 -12.263 -5.341001 -5.4275 -5.041 -4.88 -6.6805 -7.047501 
-6.762 -5.4295 -9.673 -9.810501 -8.752501 -6.319 -9.3395 -7.9185 -7.4455 -7.615 -9.5635 -9.061501 -6.823 -7.015 -10.553 -13.0315 -13.1992 -12.5685 -12.276 -9.289001 -6.335001 -9.059501 -8.111 -10.774 
-6.87 -10.0855 -11.3737 -12.5075 -10.1225 -10.041 -11.9482 -9.175501 -9.8695 -12.7244 -9.5635 -11.511 -11.2032 -10.553 -16.133 -17.0462 -18.1629 -12.6017 -16.2555 -10.128 -10.7175 -12.4187 -12.3783 
-11.774 -11.9328 -14.0707 -13.8775 -13.8445 -12.6497 -13.2052 -11.6635 -15.1073 -12.7244 -12.1658 -15.8912 -14.7412 -16.133 -20.1477 -22.0099 -18.1669 -16.5812 -17.096 -14.8713 -14.0767 -16.686 
