-4.759 
n/a 
n/a 
n/a 
n/a 
-4.759 
n/a 
n/a 
n/a 
n/a 
-4.759 
n/a 
n/a 
n/a 
n/a 
-4.759 
n/a 
n/a 
n/a 
n/a 
-3.999 0 -3.564 -2.915 -4.763 
-3.999 -3.564 -7.06 -7.653501 
-7.678 -7.06 -12.2551 
-12.0232 -12.2551 
-17.2183 
-3.32 0 -3.564 -2.915 -5.494 
-3.32 -3.564 -7.06 -8.939501 
-7.7425 -7.06 -13.5411 
-11.6937 -13.5411 
-18.1748 
-3.7595 0 -3.564 -2.915 -9.259501 
-3.7595 -3.564 -7.06 -13.3385 
-8.096001 -7.06 -17.9401 
-10.7025 -17.9401 
-21.5826 
-3.999 0 -1.7695 -4.7665 -3.564 -3.127 
-3.999 -1.7695 -5.3 -8.802 -7.0645 
-6.166 -5.3 -9.3915 -12.8433 
-9.0845 -9.3915 -13.5144 
-13.7856 -13.5144 
