-4.759 
n/a 
n/a 
n/a 
n/a 
-4.759 
n/a 
n/a 
n/a 
n/a 
-4.759 
n/a 
n/a 
n/a 
n/a 
-4.759 
n/a 
n/a 
n/a 
n/a 
-2.9505 -4.767 -3.288 0 -1.934 -1.4985 -3.35 -1.7565 -9.653001 -3.4225 -3.468 -1.7565 -3.676 0 -3.601 -3.152 -5.452 -1.756 -3.2785 -3.152 -5.228 -2.3345 -1.4985 -4.531 -5.166 -1.7565 -1.4985 -3.1385 -1.7565 -4.2105 -3.1385 0 
-7.189 -6.4345 -3.288 -1.934 -2.6125 -4.152 -3.7865 -11.6125 -14.3825 -3.628 -4.7385 -4.4345 -3.676 -3.601 -7.3545 -6.641 -6.7165 -6.005 -7.271501 -6.564 -6.685 -3.233 -5.581 -7.7575 -6.4205 -2.4195 -4.2575 -4.861 -6.001501 -7.35 -3.1385 
-10.1133 -6.4345 -6.248 -2.6125 -5.886001 -4.3065 -13.2588 -15.7243 -14.71 -5.001 -5.0245 -4.4345 -7.6385 -7.3545 -11.0321 -7.827001 -10.674 -8.1825 -9.6665 -7.806001 -7.4675 -7.509 -8.836 -10.586 -7.175 -5.013 -5.1835 -8.956 -8.451501 -7.35 
-10.1133 -8.963 -6.9975 -5.886001 -6.349501 -14.0862 -17.1378 -16.0518 -16.2205 -5.036 -5.0245 -8.146001 -11.7744 -11.0321 -12.2181 -11.9195 -12.8515 -9.8715 -11.0119 -8.553 -12.1283 -11.0728 -11.8059 -11.3405 -10.4675 -6.082 -9.4111 -11.8538 -8.451501 
-12.6418 -9.684501 -10.103 -6.349501 -15.9622 -17.9652 -17.4653 -17.5623 -16.29 -5.036 -9.042001 -12.6019 -15.452 -12.2181 -16.3106 -14.097 -14.5405 -11.2797 -11.7589 -13.544 -15.6921 -14.0427 -12.5604 -14.633 -11.5365 -10.5508 -12.3089 -11.8538 
-3.288 -3.0605 0 -3.601 -3.1385 -3.152 -4.493 -1.756 -3.2785 -3.7555 -4.874 -2.3345 -4.531 -3.898 -4.005 -1.934 -10.1965 -3.35 -2.5045 -3.676 0 -1.4985 -3.6765 -3.0695 -3.43 -4.531 -3.898 -2.7415 -4.2105 0 
-5.029 -3.0605 -3.601 -6.9375 -5.219 -5.593 -5.8585 -6.005 -8.157001 -7.194 -6.311 -7.0045 -6.9455 -8.501 -4.808 -13.1369 -13.5465 -5.702 -6.6695 -3.676 -1.4985 -4.501 -4.7945 -5.4615 -8.3465 -6.9455 -6.281 -6.6295 -4.2105 
-5.029 -5.691 -6.9375 -8.5815 -6.315001 -6.381001 -8.7085 -10.66 -10.6095 -9.064501 -9.738501 -8.466001 -10.564 -9.073501 -16.6713 -16.4869 -15.8985 -10.8482 -6.6695 -5.338 -4.501 -5.3435 -6.736 -10.4505 -11.0088 -8.763 -9.222 -6.6295 
-8.8865 -9.992001 -8.5815 -8.898001 -6.867001 -8.866501 -14.2259 -13.1125 -13.8212 -12.6342 -10.676 -12.5425 -11.1365 -21.636 -20.0213 -18.8389 -21.0447 -10.8482 -8.821501 -9.2165 -5.3435 -6.8405 -12.601 -13.1128 -12.8263 -11.9386 -9.222 
-13.8157 -11.636 -8.898001 -9.475 -9.477 -14.6711 -16.6784 -16.3242 -17.3909 -13.5717 -14.7525 -13.115 -23.699 -24.986 -22.3733 -23.9851 -21.0447 -13.0002 -12.9168 -9.8225 -6.8405 -13.2489 -15.2633 -14.9303 -16.0019 -11.9386 
-2.264 -3.288 -3.0605 0 -1.934 -4.018 -3.35 -1.7565 -2.791 -3.601 -4.9225 -3.152 -4.874 -1.756 -3.2785 -4.493 -2.3345 -2.664 -4.2105 -4.5655 0 
-4.5935 -5.029 -3.0605 -1.934 -5.5135 -5.96 -3.7865 -4.4165 -6.807 -9.6385 -7.4025 -6.21 -6.231 -6.005 -8.417 -5.523 -4.532 -5.6735 -9.177 -4.5655 
-6.0955 -5.029 -5.58 -5.5135 -9.101001 -7.0425 -9.613501 -8.328 -13.4493 -12.1185 -10.7495 -7.263 -10.0885 -10.459 -9.6045 -7.0685 -6.822001 -10.553 -9.177 
-6.0955 -7.6505 -9.6175 -9.101001 -9.243501 -14.0547 -13.525 -15.2655 -15.9293 -15.4655 -11.8025 -10.5975 -14.5425 -11.6465 -11.3042 -8.709001 -12.3401 -10.553 
-8.4735 -12.1752 -13.2792 -9.243501 -16.7375 -17.9662 -20.4625 -17.7455 -19.2763 -16.5185 -15.137 -15.0515 -15.73 -13.3462 -12.9447 -14.7639 -12.3401 
-3.288 -10.755 -3.35 -1.7565 -3.676 -1.7695 -3.2345 -1.4985 -3.898 -4.6105 -3.601 -3.1385 -5.452 -1.756 -3.2785 -3.1385 -5.228 
-13.2721 -15.234 -3.7865 -4.4345 -5.8305 -3.713 -4.328 -5 -7.643001 -8.622001 -6.9375 -7.698 -6.7165 -6.005 -6.8915 -7.747 
-18.4047 -15.6705 -6.6845 -6.596001 -7.7635 -4.717 -8.040501 -9.1035 -11.9805 -12.0939 -12.1568 -9.0655 -10.674 -9.212501 -10.111 
-18.8412 -18.5685 -8.8885 -8.626 -8.894 -8.384001 -12.4406 -13.552 -15.4524 -17.3132 -13.5243 -13.0902 -13.8815 -12.6614 
-21.7392 -20.7725 -11.3433 -9.775501 -12.6748 -12.8867 -16.8891 -17.0239 -20.6717 -18.6807 -17.549 -16.2977 -17.3304 
