-4.759 
n/a 
n/a 
n/a 
n/a 
-4.759 
n/a 
n/a 
n/a 
n/a 
-4.759 
n/a 
n/a 
n/a 
n/a 
-4.759 
n/a 
n/a 
n/a 
n/a 
-5.01 -4.523 -1.4985 -7.2145 -1.7695 -5.0595 -1.934 -1.4985 -12.16972 -3.8275 -4.005 -2.264 -5.4465 -3.488 -5.0975 0 
-10.451 -5.856 -8 -9.156501 -5.7315 -6.374001 -2.6125 -14.76202 -15.99722 -8.038 -5.178 -6.535 -6.945 -7.6225 -5.0975 
-11.784 -12.8369 -9.651 -13.1511 -7.782001 -6.948 -16.27022 -18.58952 -20.20772 -9.434 -9.3265 -11.3695 -11.629 -7.6225 
-18.7649 -14.4879 -13.6808 -15.2016 -8.377501 -21.22852 -20.09772 -22.80002 -21.60372 -13.1544 -11.16 -12.288 -10.66 
-20.4159 -18.5177 -15.7313 -15.7971 -22.85722 -25.05602 -24.30822 -24.19602 -25.32412 -15.1429 -13.3374 -12.2964 
-5.011 -3.488 -5.4465 -5.333 -4.0555 -5.2705 -3.851 -1.7695 -1.4985 -3.0785 -1.7565 -12.16972 -1.934 -12.16972 -4.319 
-8.2735 -6.6495 -9.891001 -10.27 -9.998501 -9.1855 -4.0015 -2.7955 -4.779 -5.1815 -14.87542 -14.10372 -15.11012 -16.48872 
-11.1255 -14.4215 -15.8693 -16.4854 -14.0319 -9.202001 -4.5775 -6.489501 -5.2205 -18.72462 -16.80942 -27.27984 -19.42912 
-15.7323 -19.8711 -22.0847 -20.5188 -14.0484 -9.721001 -8.3935 -7.3275 -18.80542 -20.65862 -29.98554 -31.59884 
-23.7751 -26.0865 -26.1181 -20.5353 -14.5674 -13.537 -8.5915 -21.08742 -20.73942 -33.83474 -34.30454 
-1.934 -1.4985 -4.3685 -1.7565 -8.344501 -5.192 -3.458 -2.7035 -1.756 -2.743 -3.488 -5.0975 0 -5.01 -4.523 -1.4985 -7.2145 -1.7695 -5.0225 0 
-2.6125 -5.106 -5.0855 -9.606501 -14.1955 -7.3435 -6.1625 -5.0525 -5.1655 -5.8535 -7.6225 -5.0975 -5.01 -10.451 -5.856 -8 -9.156501 -6.4635 -5.0225 
-6.0625 -5.569 -10.111 -15.5587 -16.347 -10.479 -6.5975 -5.8885 -8.467501 -9.464001 -7.6225 -10.688 -10.451 -11.784 -12.8369 -9.651 -13.8831 -6.4635 
-6.5045 -10.3345 -16.1552 -17.7102 -19.4825 -10.914 -7.644001 -9.3135 -12.269 -9.464001 -13.4806 -16.129 -11.784 -18.7649 -14.4879 -14.4128 -13.8831 
-10.513 -16.5065 -18.3067 -20.8457 -19.9175 -11.9605 -11.56 -13.1302 -12.269 -15.4279 -18.9216 -17.462 -18.7649 -20.4159 -19.2497 -14.4128 
-1.934 -3.488 -10.544 -12.16972 -4.523 -1.7695 -7.2145 -3.7555 -4.403 -2.5195 -1.4985 -12.16972 -3.8275 0 
-4.9205 -11.5845 -21.61422 -16.69272 -5.5405 -9.462001 -10.543 -8.4145 -6.961 -3.1695 -14.76202 -15.99722 -3.8275 
-16.12 -26.53852 -27.16252 -17.71022 -14.5672 -12.7327 -15.202 -9.213 -7.6505 -16.66642 -18.58952 -15.99722 
-28.99632 -31.16432 -28.18002 -26.73692 -17.8379 -17.3917 -16.0005 -10.648 -21.59602 -20.49392 -18.58952 
-33.51932 -32.18182 -37.20672 -30.00762 -22.4969 -18.1902 -17.4355 -24.59352 -25.42352 -20.49392 
