-4.759 
n/a 
n/a 
n/a 
n/a 
-4.759 
n/a 
n/a 
n/a 
n/a 
-4.759 
n/a 
n/a 
n/a 
n/a 
-4.759 
n/a 
n/a 
n/a 
n/a 
-3.6705 -2.3615 -3.6885 -2.186 -3.8255 -1.7695 -4.984 -8.3895 
-5.211 -4.932 -4.8395 -5.1825 -5.2545 -5.3035 -15.0285 
-7.783 -5.9575 -7.2795 -6.744 -10.6465 -12.4255 
-8.3035 -8.66 -8.805 -12.678 -17.6735 
-11.3778 -10.3815 -15.0496 -19.705 
-3.929 -1.4985 -3.6885 -4.114 -1.7695 -2.674 -3.1125 -4.678 -4.5775 
-4.8985 -4.307 -6.6165 -4.4525 -3.8225 -3.6315 -6.095 -7.895 
-7.634501 -6.8525 -6.706 -5.323501 -5.0585 -6.584 -9.231001 
-9.5035 -6.919 -7.7555 -6.0525 -8.104 -9.748 
-9.659 -8.034 -8.243 -9.121501 -11.4436 
-2.3615 -1.7695 -2.3615 -3.6885 -2.0935 -3.962 -1.7695 -3.6955 
-4.6245 -3.736 -4.932 -5.407001 -7.9875 -5.7845 -4.452 
-7.531 -6.0635 -6.8125 -11.7294 -10.451 -8.3485 
-10.4035 -8.109 -13.7055 -14.1929 -13.015 
-12.6724 -14.9952 -16.169 -16.7569 
-3.5725 0 -3.0365 -2.186 -3.135 -4.293 -1.934 -2.3615 
-3.5725 -3.0365 -3.66 -5.2115 -6.688001 -5.2995 -3.539 
-5.6995 -3.66 -5.4775 -8.272 -7.1905 -7.3 
-6.851 -5.4775 -8.421 -8.8715 -8.838501 
-8.368 -8.421 -8.899 -10.361 
