-4.759 
n/a 
n/a 
n/a 
n/a 
-4.759 
n/a 
n/a 
n/a 
n/a 
-4.759 
n/a 
n/a 
n/a 
n/a 
-4.759 
n/a 
n/a 
n/a 
n/a 
-3.0365 -2.4945 -3.7825 -3.699 -3.594 -2.0935 -5.1875 -2.229 0 -1.4985 -3.228 -3.452 -4.281 -2.5045 -10.9935 -2.229 0 
-3.688 -5.7115 -7.153 -7.2175 -5.064 -7.6425 -7.694 -2.229 -1.4985 -3.9575 -6.598001 -7.758 -5.893 -14.4154 -13.2225 -2.229 
-5.8285 -8.081 -9.820001 -8.71 -10.131 -9.464001 -7.694 -4.123 -3.9575 -6.898 -11.5214 -9.737 -18.1647 -16.6444 -13.2225 
-8.168 -10.9866 -11.4329 -14.1144 -11.9525 -9.464001 -9.571501 -6.153501 -6.898 -12.184 -13.5004 -21.9749 -20.3937 -16.6444 
-11.1006 -12.5995 -16.8373 -15.9359 -11.9525 -11.5943 -11.822 -8.486 -12.184 -14.163 -25.7383 -24.2039 -20.3937 
-2.3615 -2.7415 -4.6505 -1.934 -1.4985 -11.0905 -6.3495 0 -1.4985 -2.871 -1.7565 -1.4985 -3.0835 -3.7825 -6.645 -1.7565 -1.4985 -6.102 0 
-4.455 -6.5785 -5.5835 -2.6125 -13.6828 -17.44 -6.3495 -1.4985 -4.316 -3.5385 -2.4195 -3.535 -5.8855 -8.144501 -8.7735 -2.4195 -6.931001 -6.102 
-7.826 -7.4725 -6.126 -15.191 -20.0323 -17.44 -7.907001 -4.316 -6.0265 -3.7675 -4.6785 -6.0085 -10.8489 -10.078 -9.431001 -7.545501 -6.931001 
-8.56 -8.015 -19.3025 -21.5405 -20.0323 -18.9975 -10.459 -6.0265 -6.275001 -5.356 -6.9925 -11.0523 -12.7824 -10.5385 -10.094 -7.545501 
-9.068 -21.3679 -25.652 -21.5405 -21.5898 -21.5495 -12.1695 -6.275001 -7.734001 -8.001 -12.0135 -12.9858 -13.2429 -11.2015 -10.094 
-2.4265 -2.186 -4.1585 -2.7455 -2.3615 -1.934 -2.871 -1.7565 -1.4985 -3.7825 -6.2055 -1.7565 -5.8965 -3.849 -8.777 -6.3495 0 
-3.292 -6.131001 -6.271 -4.1635 -4.886 -4.2805 -3.5385 -2.4195 -4.8035 -8.966001 -7.6335 -6.8735 -9.710501 -12.7866 -9.3035 -6.3495 
-7.269001 -7.872 -7.6045 -6.4555 -7.086 -5.057 -3.7675 -5.425 -9.8915 -10.9344 -10.1995 -9.922501 -18.7387 -13.3131 -9.3035 
-9.286 -9.160001 -9.398001 -8.6435 -7.481 -5.335001 -6.196 -10.6215 -11.9185 -13.5004 -13.2485 -19.0049 -19.2652 -13.3131 
-10.5788 -11.3129 -11.6394 -8.777 -7.966 -7.494 -11.5363 -12.6485 -14.4845 -16.5494 -22.3309 -19.5314 -19.2652 
-11.0905 -6.3495 -2.8645 -2.3615 -3.3425 -3.9225 -1.4985 -3.7825 -6.645 -1.7565 -6.102 0 
-17.44 -8.731 -5.609 -5.091 -7.607501 -4.463 -4.8035 -8.144501 -8.7735 -7.293001 -6.102 
-19.8215 -11.5369 -9.0085 -10.228 -8.252501 -6.876 -8.26 -10.078 -14.7682 -7.293001 
-22.6274 -14.9364 -14.4891 -10.873 -9.769001 -10.485 -10.213 -16.1493 -14.7682 
-26.0269 -20.417 -15.1341 -12.3895 -13.9498 -12.438 -16.2593 -16.1493 
