-4.759 
n/a 
n/a 
n/a 
n/a 
-4.759 
n/a 
n/a 
n/a 
n/a 
-4.759 
n/a 
n/a 
n/a 
n/a 
-4.759 
n/a 
n/a 
n/a 
n/a 
-2.3345 -3.9185 0 -3.0365 -3.152 -2.7455 -3.3935 -5.2105 -1.934 -2.3335 -2.9825 0 
-6.96 -3.9185 -3.0365 -4.453 -5.823 -5.671 -9.714001 -7.489 -4.359 -5.650001 -2.9825 
-6.96 -6.914001 -4.453 -6.508 -7.8005 -12.6931 -12.0299 -9.938001 -7.8385 -5.650001 
-8.764 -7.4775 -6.508 -7.9805 -14.981 -15.009 -14.4789 -13.4175 -7.8385 
-8.9075 -9.163 -7.9805 -15.2958 -17.2969 -17.458 -17.9584 -13.4175 
-2.3345 -3.9185 0 -3.0365 -3.152 -3.3935 -3.688 -3.8625 -3.152 -4.4725 -3.0365 0 
-6.96 -3.9185 -3.0365 -4.453 -6.721001 -7.403501 -7.3175 -6.620501 -6.231501 -7.273001 -3.0365 
-6.96 -6.914001 -4.453 -7.496 -11.275 -11.592 -10.2335 -8.940001 -8.3815 -7.273001 
-8.764 -7.4775 -7.496 -12.4084 -15.4635 -14.508 -12.553 -11.4104 -8.3815 
-8.9075 -10.185 -12.4084 -16.5969 -18.3795 -16.8275 -15.0234 -11.4104 
-1.934 -3.9185 -3.5015 -3.098 -3.3935 -6.871 
-5.22 -8.302 -6.620501 -6.3045 -10.9283 
-10.3475 -11.5422 -9.856501 -14.4161 
-13.5877 -14.7782 -18.0733 
-16.8237 -22.995 
-1.934 -3.9185 -2.6615 -7.0035 -3.9595 -3.0365 
-5.22 -6.1685 -10.523 -11.8872 -6.966001 
-8.427501 -14.577 -15.4067 -14.8937 
-17.0288 -19.4607 -18.4132 
-21.9125 -22.4672 
