-4.759 
n/a 
n/a 
n/a 
n/a 
-4.759 
n/a 
n/a 
n/a 
n/a 
-4.759 
n/a 
n/a 
n/a 
n/a 
-4.759 
n/a 
n/a 
n/a 
n/a 
-7.3 -4.6845 -4.668 -1.756 -3.013 -3.8275 0 
-12.3605 -9.158001 -6.7325 -4.674 -8.012501 -3.8275 
-16.834 -11.5059 -9.8505 -9.9375 -8.012501 
-19.1819 -14.6239 -15.1848 -9.9375 
-22.2999 -19.9582 -15.1848 
-3.1015 -12.16972 -4.1585 -3.975 -1.7695 -3.8275 -3.2615 -3.1495 -4.558 
-16.18302 -16.32822 -8.024 -5.4625 -5.686 -6.7565 -6.233 -8.5105 
-20.34152 -20.19372 -10.575 -10.5172 -8.378 -9.878 -11.9126 
-24.20702 -22.74472 -15.6297 -13.2092 -11.6631 -15.5576 
-26.75802 -27.79942 -18.3217 -16.4943 -17.3427 
-8.044001 -4.4665 -6.2155 -2.3345 -3.098 -3.1495 -3.8445 -4.6845 0 
-13.0329 -11.9208 -9.440001 -5.927 -6.3255 -6.125 -7.9445 -4.6845 
-20.4872 -15.1453 -13.0999 -9.530001 -8.904 -9.805 -7.9445 
-23.7117 -18.8052 -16.7029 -12.2513 -12.6582 -9.805 
-27.3716 -22.4082 -19.4242 -16.0055 -12.6582 
-8.044001 -2.7415 -4.188 -1.4985 -3.8275 -2.3345 -3.1495 -3.8445 -4.6845 0 
-10.7175 -8.2775 -5.542 -4.726 -6.005 -5.217 -6.125 -7.9445 -4.6845 
-16.2535 -9.809 -8.637 -6.9725 -9.387 -8.375501 -9.805 -7.9445 
-17.785 -13.0036 -10.4425 -10.298 -12.7793 -12.1671 -9.805 
-20.9796 -14.8091 -13.768 -13.6903 -16.5709 -12.1671 
