-4.759 
n/a 
n/a 
n/a 
n/a 
-4.759 
n/a 
n/a 
n/a 
n/a 
-4.759 
n/a 
n/a 
n/a 
n/a 
-4.759 
n/a 
n/a 
n/a 
n/a 
-2.871 -3.8225 -8.4095 -2.0935 -3.6135 -3.468 -1.756 -3.106 -3.299 -4.5385 -2.0935 -3.535 -3.468 0 
-6.1615 -13.3314 -11.046 -5.6835 -7.488501 -4.7175 -5.5555 -6.8815 -6.997001 -6.454 -5.035501 -6.901 -3.468 
-16.446 -15.9679 -14.636 -9.8925 -8.575001 -8.4545 -8.8745 -10.151 -9.0775 -9.5515 -8.066501 -6.901 
-19.0825 -19.5579 -18.845 -11.0284 -12.6046 -12.2135 -12.2566 -12.4071 -12.2172 -12.8859 -8.066501 
-22.6725 -23.7669 -19.9809 -15.058 -16.3636 -15.5956 -14.5127 -15.5468 -15.5516 -12.8859 
-3.0365 -2.4945 -3.5085 -3.106 -3.299 -4.5385 -2.4945 -3.333 -2.0935 -4.719 -1.756 -3.535 -3.468 0 
-3.688 -6.854001 -6.392 -6.8815 -6.997001 -6.2415 -4.3655 -4.2535 -6.5295 -5.8595 -5.089 -6.901 -3.468 
-7.859 -10.115 -10.6465 -10.151 -8.8725 -8.002501 -5.1315 -9.258 -7.687 -9.550501 -8.0635 -6.901 
-10.1545 -14.3695 -13.916 -12.2021 -10.7635 -8.5675 -9.977501 -10.7605 -12.1484 -12.6794 -8.0635 
-14.409 -17.639 -15.9671 -14.0931 -11.3285 -13.8577 -11.48 -15.2219 -15.2773 -12.6794 
-2.0935 -3.6885 -3.1715 -3.0365 -2.186 -2.871 -3.299 -3.7455 -1.756 -2.0935 -3.535 -3.468 -3.106 -3.299 -3.7455 -2.4945 -4.9475 0 
-5.335 -7.02 -6.4735 -3.66 -4.247 -6.5055 -5.544001 -5.392 -4.3175 -5.035501 -6.901 -7.030001 -6.8815 -5.544001 -6.655 -6.447001 -4.9475 
-8.8575 -9.93 -6.9555 -5.412 -8.33 -8.955501 -7.130001 -7.678 -7.51 -8.066501 -10.513 -11.1079 -9.603001 -8.439501 -10.9761 -6.447001 
-12.0155 -10.664 -8.873501 -8.942 -10.6215 -10.76 -9.597501 -11.2307 -10.502 -12.0159 -14.5909 -13.8294 -12.5891 -12.845 -10.9761 
-12.7495 -12.582 -12.4145 -10.6215 -12.426 -13.2275 -13.2992 -14.2227 -14.4514 -16.0938 -17.3124 -16.8155 -16.9946 -12.845 
-3.6135 -3.468 -2.8645 -2.871 -1.756 -3.8225 -2.871 -2.0935 -4.449 -3.468 0 -1.8085 -3.5085 -1.7565 -3.106 -3.299 -4.5385 -5.1035 
-7.488501 -5.844501 -5.417 -4.864 -5.6485 -6.862 -4.9555 -5.955 -7.419001 -3.468 -1.8085 -4.6755 -4.8005 -5.126 -6.8815 -6.997001 -9.200001 
-10.298 -8.170501 -7.136 -9.3195 -9.1925 -8.1835 -8.821501 -8.702001 -7.419001 -5.6895 -4.6755 -4.927 -6.9245 -8.748 -10.151 -12.3083 
-12.624 -10.5975 -11.9969 -12.9107 -10.6334 -12.3997 -11.6725 -8.702001 -9.498501 -8.161 -4.927 -6.9805 -10.275 -12.3109 -15.6379 
-15.051 -15.4584 -15.5881 -14.3516 -14.8496 -15.2507 -11.6725 -10.9367 -12.0216 -8.239 -6.9805 -10.2915 -13.8379 -17.7978 
