-4.759 
n/a 
n/a 
n/a 
n/a 
-4.759 
n/a 
n/a 
n/a 
n/a 
-4.759 
n/a 
n/a 
n/a 
n/a 
-4.759 
n/a 
n/a 
n/a 
n/a 
-1.934 -3.0105 -1.4985 -3.4075 -3.758 -2.8645 -4.3215 -3.595 -2.5045 -1.8085 -3.383 -4.056 -4.2245 -2.3345 -5.3525 -3.091 -4.3285 -1.756 -4.417 
-4.827 -4.7935 -4.118 -6.192 -6.6165 -5.389 -8.407001 -5.227 -3.3625 -4.1695 -7.4445 -9.186501 -6.7335 -6.903501 -7.708001 -6.0005 -5.4645 -6.715 
-5.863 -7.133501 -6.7805 -8.729501 -8.9615 -10.199 -8.7925 -5.826 -6.18 -8.2165 -13.1886 -11.8833 -11.7857 -9.662001 -11.1279 -7.254 -11.4789 
-8.071501 -9.920001 -9.130501 -10.703 -14.1071 -10.6815 -9.335501 -8.004001 -9.9975 -14.4388 -15.8854 -16.9355 -14.5442 -13.1539 -12.3814 -13.5846 
-10.442 -12.836 -11.1566 -15.8486 -14.5896 -11.2245 -11.8063 -12.0225 -16.362 -17.1356 -20.9376 -19.694 -18.0361 -14.4074 -18.712 
-1.4985 -3.4075 -3.758 -4.3215 -1.4985 -3.4185 -2.5045 -3.0105 
-4.118 -6.192 -8.383 -5.252 -5.019 -6.039001 -6.3815 
-6.7805 -11.8872 -9.193 -9.778 -7.4715 -10.7335 
-13.0207 -12.6972 -13.8562 -12.4217 -13.0058 
-13.8307 -17.3604 -16.4999 -17.956 
-1.934 -3.0105 0 -1.4985 -3.4075 -3.758 -3.326 -3.3255 -3.091 -5.1495 -4.229 -1.756 -4.6525 -2.3335 -2.9805 -2.186 -1.4985 -3.17 -5.8365 -3.4185 -1.934 -1.4985 -4.698 0 
-4.827 -3.0105 -1.4985 -4.118 -6.192 -6.591001 -6.599501 -5.462501 -7.6785 -9.9895 -5.3935 -5.995 -7.0255 -4.1515 -4.1635 -3.339 -3.7115 -9.6695 -9.451 -5.6705 -2.6125 -5.740001 -4.698 
-4.827 -4.7935 -4.118 -6.7805 -10.0952 -11.2535 -8.8935 -10.598 -13.0279 -11.252 -10.434 -8.604 -8.35 -5.243 -5.312 -4.888 -10.028 -13.3592 -11.968 -6.245 -6.765501 -5.740001 
-5.863 -7.133501 -6.7805 -11.2287 -14.7577 -13.5475 -14.1392 -15.9474 -14.2904 -16.2925 -13.043 -9.474001 -9.263 -6.4425 -6.909501 -11.6243 -13.7745 -15.8762 -12.5425 -9.665 -6.765501 
-8.071501 -9.920001 -11.2287 -15.8912 -17.0517 -18.7932 -19.4886 -17.2099 -19.3309 -18.9015 -13.913 -10.39 -10.5535 -7.9645 -13.9574 -15.3708 -16.2915 -16.4507 -15.9625 -9.665 
-3.2615 -4.9135 -3.091 -4.498 -1.934 -3.0105 0 -1.4985 -3.4075 -3.758 -4.164 -3.595 -1.7695 -2.489 -1.8085 -8.2985 -3.4185 -1.7565 -1.4985 -4.285 -3.545 
-6.621 -7.551001 -7.2625 -6.1285 -4.827 -3.0105 -1.4985 -4.118 -6.192 -8.321 -6.916 -4.634 -3.1405 -3.799 -8.067 -10.5705 -4.2475 -2.4195 -4.774 -6.5315 
-9.0495 -12.0473 -9.596001 -9.296 -4.827 -4.7935 -4.118 -6.7805 -10.168 -9.836 -8.5865 -5.831 -4.2615 -9.219 -10.779 -10.3545 -4.482 -5.76 -6.723001 
-13.5714 -14.3808 -12.8891 -9.296 -5.863 -7.133501 -6.7805 -10.485 -11.6588 -11.4989 -9.414001 -6.698 -9.3325 -12.5165 -10.903 -10.3045 -7.829 -7.606 
-15.9049 -17.6739 -12.8891 -10.4355 -8.071501 -9.920001 -10.485 -12.1616 -13.3217 -12.3264 -10.3355 -11.594 -12.8109 -12.7039 -10.862 -13.7252 -8.1335 
