-4.759 
n/a 
n/a 
n/a 
n/a 
-4.759 
n/a 
n/a 
n/a 
n/a 
-4.759 
n/a 
n/a 
n/a 
n/a 
-4.759 
n/a 
n/a 
n/a 
n/a 
-2.3615 -2.186 -1.8085 -4.4525 -1.7565 -1.8085 -4.0005 -1.934 -4.7045 -3.3155 -3.7825 -4.7995 -4.1705 0 
-3.5005 -3.164 -5.658 -5.591001 -3.2595 -5.7515 -6.008 -5.546 -7.085 -7.113 -7.008 -7.352501 -4.1705 
-4.179 -6.539001 -5.965 -7.035501 -7.139 -7.212 -9.176001 -7.5825 -11.5193 -9.779 -9.727501 -7.352501 
-8.207001 -6.719 -7.493001 -11.3232 -8.5495 -10.078 -11.3241 -12.385 -14.1853 -12.6241 -9.727501 
-8.434001 -8.23 -11.9487 -12.7337 -11.5235 -12.3479 -16.1266 -15.051 -17.0304 -12.6241 
-3.147 -4.0155 -3.9075 -4.79 -3.936 -1.756 -3.3715 -2.3615 -2.5045 -4.7045 -2.229 -3.5015 -2.9705 -2.186 -4.4155 0 
-7.607 -8.571 -6.610001 -7.305 -6.3305 -4.6545 -6.838 -5.006 -7.351501 -6.059 -5.486 -6.2245 -3.89 -6.001 -4.4155 
-12.4863 -11.6813 -8.964001 -9.5845 -9.421 -9.21 -10.5225 -10.01 -8.356501 -9.232 -8.210001 -6.935 -7.5165 -6.001 
-15.5966 -14.0353 -11.4891 -12.8766 -14.2517 -12.9637 -15.5265 -11.015 -9.379001 -12.4776 -8.778001 -10.4585 -7.5165 
-17.9506 -16.5604 -14.7812 -17.7073 -18.0054 -17.9677 -16.5315 -12.0375 -13.8242 -13.0456 -12.4781 -10.4585 
-2.3615 -2.186 -1.8085 -4.4525 -1.7565 -4.0005 -1.7565 -4.7045 -3.3155 -3.7825 -4.7995 -4.1705 0 
-3.5005 -3.164 -5.658 -5.591001 -6.296501 -5.713 -5.546 -7.085 -7.113 -7.008 -7.352501 -4.1705 
-4.179 -6.539001 -5.965 -10.9308 -8.129001 -8.731001 -8.0425 -11.5193 -9.779 -9.727501 -7.352501 
-8.207001 -6.719 -11.5124 -12.7633 -11.5672 -10.688 -12.8398 -14.1853 -12.6241 -9.727501 
-8.434001 -12.4136 -13.3449 -16.2015 -13.5242 -15.4853 -15.5058 -17.0304 -12.6241 
-3.1495 -3.7825 -4.7995 -3.8015 -1.4985 -5.6055 -4.0005 0 
-5.8665 -7.008 -8.771001 -5.433 -5.828 -9.1035 -4.0005 
-9.379001 -11.7753 -9.9505 -10.4675 -10.7025 -9.1035 
-14.2181 -12.9548 -15.1148 -15.342 -10.7025 
-15.3976 -18.1191 -19.9893 -15.342 
