-4.759 
n/a 
n/a 
n/a 
n/a 
-4.759 
n/a 
n/a 
n/a 
n/a 
-4.759 
n/a 
n/a 
n/a 
n/a 
-4.759 
n/a 
n/a 
n/a 
n/a 
-2.645 -3.1575 -2.3615 0 -3.0365 -2.4945 -3.6065 -3.3195 -3.9675 -1.756 -2.8965 -6.4 -3.115 -3.59 -3.3195 0 -5.1845 -3.3195 -3.843 0 
-3.72 -5.4355 -2.3615 -3.0365 -3.688 -5.343 -7.0645 -6.5175 -4.9775 -3.751 -8.7985 -9.0305 -7.170001 -5.315 -3.3195 -5.1845 -7.8665 -6.704 -3.843 
-6.392 -5.4355 -5.891 -3.688 -6.0505 -9.5835 -10.485 -7.606 -7.462501 -9.762 -11.7074 -13.2021 -7.774501 -5.315 -8.022 -7.8665 -11.9648 -6.704 
-6.392 -7.818501 -6.443501 -6.0505 -10.1465 -13.162 -11.5735 -10.185 -14.0587 -12.8729 -15.879 -13.8066 -7.774501 -11.0391 -8.528501 -11.9648 -11.9648 
-8.627501 -8.420501 -8.925 -10.1465 -13.8522 -14.2505 -14.1525 -16.9284 -17.1696 -17.0445 -16.4835 -13.8066 -14.07 -11.5456 -13.7552 -11.9648 
-3.321 -4.7285 -3.3195 0 -5.1845 -3.3195 -1.756 -3.135 -3.3195 -6.2715 -4.64 -2.4945 -3.0365 0 
-8.706 -5.882 -3.3195 -5.1845 -7.8665 -4.768 -4.5755 -6.4205 -10.658 -10.9075 -6.277 -4.952001 -3.0365 
-9.948501 -5.882 -8.022 -7.8665 -9.852 -7.509 -7.933001 -14.3896 -15.294 -12.5445 -8.8135 -4.952001 
-9.948501 -10.586 -8.528501 -9.852 -12.6388 -9.930501 -15.9907 -19.0256 -16.931 -15.081 -8.8135 
-14.7353 -11.5387 -11.6424 -12.6388 -15.0603 -17.9882 -20.6267 -20.6626 -19.4675 -15.081 
-4.1485 -2.3615 -8.6435 -3.3195 0 -5.1845 -3.3195 -1.756 -3.3715 -3.319 -1.7565 -3.3195 -4.8775 -2.674 0 
-6.68 -12.2932 -12.521 -3.3195 -5.1845 -7.8665 -4.768 -4.6545 -7.602501 -4.165 -4.8675 -7.912001 -6.907 -2.674 
-16.9893 -16.1707 -12.521 -8.022 -7.8665 -9.852 -7.7305 -9.1035 -7.992501 -6.619501 -9.2885 -10.1945 -6.907 
-20.8668 -16.1707 -17.2235 -8.528501 -9.852 -12.8603 -12.4083 -9.398001 -10.2645 -11.6921 -11.5544 -10.1945 
-20.8668 -20.8732 -17.73 -11.6424 -12.8603 -17.5381 -12.7028 -11.9614 -15.3371 -13.958 -11.5544 
-4.1485 -2.3615 -12.16972 -3.3195 0 -10.235 -2.186 -4.514 -1.4985 -3.9675 0 
-6.68 -15.81942 -15.48922 -3.3195 -10.235 -12.4784 -8.289001 -4.9595 -5.356501 -3.9675 
-20.51552 -19.13892 -15.48922 -14.6215 -12.4784 -18.5814 -9.208 -8.007501 -5.356501 
-23.83502 -19.13892 -26.79122 -16.8649 -18.5814 -19.5004 -12.2674 -8.007501 
-23.83502 -30.44092 -29.03462 -22.9679 -19.5004 -22.5598 -12.2674 
