-4.759 
n/a 
n/a 
n/a 
n/a 
-4.759 
n/a 
n/a 
n/a 
n/a 
-4.759 
n/a 
n/a 
n/a 
n/a 
-4.759 
n/a 
n/a 
n/a 
n/a 
-1.934 -2.3615 -4.806 -8.035001 -2.229 -4.5445 -5.015 -3.469 -2.95 -1.756 -8.035001 -5.015 -3.628 -2.95 -3.098 -2.3615 -3.8625 -3.333 -2.5195 -9.724001 
-3.539 -7.48 -13.7918 -9.959001 -5.8575 -8.522 -7.848001 -4.7535 -4.287 -10.647 -13.9076 -9.502501 -5.688001 -5.819 -5.313 -7.6095 -7.0165 -4.781 -12.9171 
-8.356501 -17.0324 -15.7158 -13.6607 -9.9895 -11.8008 -10.2535 -5.959 -14.2586 -16.5196 -18.3951 -11.5967 -9.2355 -8.0345 -11.2498 -11.1687 -8.373 -15.7382 
-17.9555 -18.9564 -19.4175 -17.7927 -13.2867 -14.2063 -11.459 -16.7006 -20.1312 -21.0071 -20.4893 -15.1442 -11.5938 -14.3227 -14.809 -12.5252 -19.6478 
-19.8795 -22.6581 -23.5495 -21.0899 -15.6922 -15.4118 -22.2006 -22.5732 -24.6187 -23.1013 -24.0368 -17.5025 -17.882 -17.8819 -16.1655 -23.8 
-9.727001 -5.387 -4.4155 -2.3335 -1.934 -2.3615 -4.806 -3.098 -1.4985 -4.5445 -1.7565 -8.3365 -3.849 -9.38 -3.251 -3.1125 -4.9045 -2.0935 -3.3715 -3.277 -1.756 -8.3365 -3.6245 -5.015 -2.0935 -5.2515 0 
-14.5112 -9.434 -5.6635 -4.468 -3.539 -7.48 -8.453501 -4.514 -6.1645 -6.118001 -9.0765 -12.9429 -13.3896 -11.117 -4.28 -6.916 -6.838 -4.713 -4.9255 -4.6195 -10.1035 -12.7184 -8.7605 -6.51 -6.6175 -5.2515 
-18.8062 -10.9506 -7.309 -5.974 -8.356501 -10.4425 -9.6175 -9.3125 -6.759501 -14.038 -13.9189 -22.4835 -15.1266 -12.146 -7.5525 -8.583 -9.5305 -5.244 -6.053 -14.0336 -14.4394 -17.8544 -10.4265 -9.834001 -6.6175 
-20.3228 -12.5961 -8.9965 -10.6465 -11.3656 -11.6065 -14.416 -10.0455 -14.8585 -18.8804 -23.4595 -24.2205 -16.1556 -15.4185 -8.975 -10.76 -9.994 -6.188 -15.8309 -18.3695 -19.5754 -19.5204 -13.7505 -9.834001 
-21.9683 -14.2836 -13.7472 -13.6556 -12.5296 -16.405 -15.149 -18.2383 -19.7009 -28.421 -25.1965 -25.2495 -19.4281 -16.841 -11.2452 -11.2235 -10.9816 -16.0909 -20.1668 -23.5055 -21.2414 -22.8444 -13.7505 
-1.934 -2.3615 -4.806 -11.0555 -4.5445 -9.968 -4.657 -2.0935 -3.3715 -3.277 -1.756 -11.0555 -4.657 -2.985 -2.0935 -3.135 -3.277 -3.074 -2.186 -3.264 -2.3345 -5.715 0 
-3.539 -7.48 -16.8123 -16.371 -15.4147 -14.9244 -6.3465 -4.713 -4.9255 -4.6195 -13.8201 -16.4835 -7.3045 -7.188 -4.4665 -5.790501 -5.867001 -5.5015 -5.316 -5.9415 -8.5465 -5.715 
-8.356501 -20.0529 -22.1278 -27.2412 -20.3711 -16.6139 -7.562 -5.244 -6.053 -17.7502 -19.2481 -19.131 -9.196 -9.429001 -6.357 -9.081 -9.0275 -8.3535 -7.117001 -12.6407 -8.5465 
-20.976 -25.3684 -32.998 -32.1976 -22.0606 -17.8294 -7.614 -6.188 -19.5475 -23.1782 -21.8956 -21.0225 -11.553 -11.3723 -9.446001 -12.3641 -11.9307 -10.2185 -14.2618 -12.6407 
-26.2915 -36.2386 -37.9544 -33.8871 -23.2761 -17.8814 -8.927501 -19.8075 -24.9755 -25.8257 -23.7871 -23.3795 -13.4963 -14.4613 -12.7795 -15.2673 -13.7957 -17.4529 -14.2618 
-1.934 -2.3615 -4.806 -10.0655 0 -5.054 -4.5445 -1.7565 -8.3365 -2.7415 -4.6835 -1.4985 -4.806 -1.756 -8.089001 -8.3365 -3.9725 -2.7415 -5.015 -3.135 -1.7565 -1.4985 -3.277 -2.186 -4.4155 -1.934 -4.3075 -3.8015 0 
-3.539 -7.48 -15.8223 -10.0655 -5.054 -7.144501 -6.118001 -9.0765 -10.2485 -7.7415 -5.5415 -5.73 -6.27 -10.214 -18.3419 -13.0664 -6.3315 -7.625 -8.3295 -3.9195 -2.4195 -4.8015 -5.6775 -6.001 -5.054 -6.0985 -7.2935 -3.8015 
-8.356501 -19.0629 -15.8223 -15.3343 -7.144501 -8.248 -14.038 -11.2245 -15.2485 -9.3885 -10.238 -6.994 -14.3155 -19.9792 -23.2636 -15.4254 -9.676001 -10.749 -9.571 -4.168 -6.489 -7.1155 -9.501 -6.4195 -9.43 -10.111 -7.2935 
-19.986 -19.0629 -21.0911 -17.4248 -8.248 -16.3388 -16.186 -16.2245 -16.8955 -14.3262 -11.502 -15.0104 -23.9816 -24.7091 -25.6226 -18.7699 -14.4028 -11.9905 -9.927 -8.442 -8.9635 -11.2448 -9.965 -11.2367 -13.6683 -10.111 
-19.986 -24.3317 -23.1816 -18.5283 -16.3388 -18.4868 -21.186 -17.8715 -21.8332 -15.5902 -19.5184 -24.5391 -28.7115 -27.0681 -28.9671 -23.4967 -15.6443 -12.3465 -14.201 -11.1215 -13.0076 -11.7088 -14.9456 -15.475 -13.6683 
