-4.759 
n/a 
n/a 
n/a 
n/a 
-4.759 
n/a 
n/a 
n/a 
n/a 
-4.759 
n/a 
n/a 
n/a 
n/a 
-4.759 
n/a 
n/a 
n/a 
n/a 
-3.091 -4.235 -2.229 -3.098 -2.186 -6.6265 -6.4035 -5.5785 -1.756 -4.121 -2.229 -3.098 -2.186 -8.1025 -5.757 
-5.1065 -5.0915 -4.8015 -4.7005 -9.5395 -8.662001 -9.6435 -6.8855 -5.8445 -4.7815 -4.8015 -4.7005 -11.4989 -10.368 
-5.8285 -6.6355 -6.132 -12.1092 -11.8866 -10.004 -11.0313 -9.164001 -6.958 -6.798501 -6.132 -14.0686 -13.7644 
-7.526 -7.804 -13.7283 -14.4563 -13.2286 -11.3918 -13.3098 -11.4687 -8.87 -7.939001 -15.6877 -16.3341 
-8.649 -15.5089 -16.0754 -15.7983 -14.6164 -13.6703 -15.6145 -13.3807 -9.861 -17.6571 -17.9532 
-4.235 -2.229 -3.098 -2.186 -7.4975 -5.5785 0 -4.121 -2.229 -3.098 -2.186 -8.1905 -5.757 0 
-5.0915 -4.8015 -4.7005 -10.8939 -7.6285 -5.5785 -4.121 -4.7815 -4.8015 -4.7005 -11.5869 -14.6573 -5.757 
-6.6355 -6.132 -13.4636 -11.0249 -7.6285 -8.5535 -4.7815 -6.798501 -6.132 -14.1566 -18.0537 -14.6573 
-7.804 -15.0827 -13.5946 -11.0249 -11.1995 -10.453 -6.798501 -7.939001 -15.7757 -20.6234 -18.0537 
-16.8633 -15.2137 -13.5946 -14.5959 -13.099 -12.47 -7.939001 -17.7451 -22.2425 -20.6234 
-4.235 -2.229 -3.098 -2.186 -7.4975 -5.5785 0 -4.121 -2.229 -3.098 -2.186 -12.16972 
-5.0915 -4.8015 -4.7005 -10.8939 -7.6285 -5.5785 -4.121 -4.7815 -4.8015 -4.7005 -15.56612 
-6.6355 -6.132 -13.4636 -11.0249 -7.6285 -8.5535 -4.7815 -6.798501 -6.132 -18.13582 
-7.804 -15.0827 -13.5946 -11.0249 -11.1995 -10.453 -6.798501 -7.939001 -19.75492 
-16.8633 -15.2137 -13.5946 -14.5959 -13.099 -12.47 -7.939001 -21.72432 
-3.091 -4.235 -7.4975 -5.5785 -1.756 -4.121 -9.3395 
-5.1065 -9.943001 -7.6285 -6.8855 -5.8445 -9.894501 
-10.238 -10.023 -9.572001 -9.164001 -11.8786 
-10.3245 -12.3317 -11.9255 -16.3893 
-12.8566 -14.6852 -19.1508 
