-4.759 
n/a 
n/a 
n/a 
n/a 
-4.759 
n/a 
n/a 
n/a 
n/a 
-4.759 
n/a 
n/a 
n/a 
n/a 
-4.759 
n/a 
n/a 
n/a 
n/a 
-3.869 -4.361 -4.177 -3.737 -2.9705 -4.574 -2.9705 -3.874 -2.186 -2.6165 -3.737 -3.869 -4.177 -1.756 -2.9705 -3.874 -3.6455 -1.756 -6.8175 -2.742 -4.2675 -1.934 -1.4985 -3.509 -2.4945 -3.228 -7.123 
-8.6055 -6.6325 -8.092501 -7.167 -8.438001 -7.913501 -6.632 -6.4425 -3.5105 -5.8555 -6.73 -7.3465 -5.7825 -4.972 -6.632 -8.347 -4.6425 -8.158001 -9.4455 -5.664001 -6.767 -2.6125 -4.917 -5.5615 -7.0565 -9.6945 
-9.8585 -10.7025 -11.9547 -12.9203 -12.1747 -11.8328 -7.328001 -8.2795 -6.7775 -8.918501 -10.3815 -8.420501 -8.674001 -8.469 -11.7744 -9.484 -12.5291 -10.647 -12.4359 -8.118501 -7.582001 -6.171 -6.495 -11.1803 -13.9748 
-14.3379 -14.5647 -17.708 -16.657 -16.094 -12.5288 -9.477501 -10.674 -10.5125 -13.1952 -12.7133 -11.6252 -12.2942 -13.6768 -12.9114 -17.6582 -15.0181 -13.6374 -14.8904 -8.886001 -11.6219 -8.992001 -12.293 -18.0986 
-18.2001 -20.318 -21.4447 -20.5763 -16.79 -14.6783 -12.5392 -15.221 -14.7892 -15.527 -15.918 -15.2454 -17.502 -14.8138 -21.0856 -20.1472 -18.0085 -16.0919 -15.6579 -13.1631 -14.4429 -15.0336 -19.2113 
-1.934 -3.228 -4.126 -4.5875 0 -3.0695 -2.186 -1.4985 -4.225 -4.1285 -2.0935 -3.8315 0 -3.0695 -2.186 -2.6165 -4.4965 0 -3.0695 -2.186 -6.1565 -5.717 -3.264 -2.3335 
-5.4695 -6.75 -8.831001 -4.5875 -3.0695 -4.2675 -3.339 -4.7995 -8.8885 -6.89 -5.785501 -3.8315 -3.0695 -4.2675 -3.5105 -6.3665 -4.4965 -3.0695 -4.2675 -8.038501 -10.7495 -9.180501 -4.533 
-9.1005 -12.0776 -8.831001 -7.782001 -4.2675 -5.455 -6.196 -9.81 -11.8468 -9.194 -5.785501 -7.368501 -4.2675 -5.679501 -6.948 -6.3665 -8.219 -4.2675 -9.920501 -12.8795 -14.213 -10.4629 
-14.3741 -12.0776 -12.3229 -8.650001 -5.455 -9.135 -11.7847 -12.8149 -14.1508 -9.194 -9.252501 -8.252501 -5.679501 -8.198501 -6.948 -9.635 -9.2495 -9.920501 -14.9623 -16.343 -15.4954 
-14.3741 -15.5695 -13.1909 -10.634 -9.135 -15.0583 -14.7896 -15.1189 -14.1508 -12.732 -10.305 -9.126 -8.198501 -8.198501 -10.115 -10.762 -15.0129 -14.9623 -18.4258 -17.6254 
-3.228 -4.126 -2.9995 -2.871 -4.1105 -3.013 -5.651501 -3.0465 -4.157 -2.356 -2.9995 -3.999 -1.7565 -3.6455 -1.756 -10.0675 -3.644 0 
-6.75 -7.670001 -5.056 -5.8885 -7.213 -8.529501 -6.711 -8.292 -5.0415 -4.6235 -7.1565 -4.5785 -5.4535 -4.6425 -12.7525 -15.183 -3.644 
-10.5635 -9.826 -8.7675 -9.2775 -12.3771 -11.0715 -13.49 -9.0695 -7.5495 -9.17 -7.6955 -9.317 -6.272501 -16.9669 -17.7784 -15.183 
-12.7195 -13.6563 -12.3323 -14.4396 -14.4121 -15.3071 -14.4581 -11.6941 -12.6754 -9.5535 -13.2166 -10.6882 -18.6715 -21.4324 -17.7784 
-16.5498 -17.2211 -17.4944 -16.4746 -19.9795 -16.1364 -17.0827 -16.82 -13.0589 -15.1308 -14.5878 -23.0872 -23.137 -21.4324 
-3.228 -4.126 -3.6055 -2.95 -4.004 -1.756 -6.231 -3.013 -5.651501 -3.0465 -4.177 0 -3.4945 -3.6455 -2.4285 -4.1445 0 
-6.75 -7.6415 -4.8985 -7.555 -5.4795 -7.9725 -10.0445 -8.529501 -6.711 -8.243 -4.177 -3.4945 -7.593 -5.293 -7.097001 -4.1445 
-10.7175 -8.757001 -10.061 -9.0805 -9.737501 -12.3464 -15.0144 -11.0715 -13.9845 -8.243 -7.4475 -7.593 -8.5345 -7.5 -7.097001 
-11.833 -13.9615 -11.5865 -13.5233 -14.3556 -17.3163 -17.0494 -15.8016 -14.1751 -11.9087 -11.8316 -8.5345 -10.7017 -7.5 
-17.0375 -15.487 -16.0293 -18.1414 -19.3255 -19.3513 -23.1113 -15.8534 -17.8408 -16.2928 -12.7731 -10.7017 -10.7017 
