-4.759 
n/a 
n/a 
n/a 
n/a 
-4.759 
n/a 
n/a 
n/a 
n/a 
-4.759 
n/a 
n/a 
n/a 
n/a 
-4.759 
n/a 
n/a 
n/a 
n/a 
-8.349 -12.16972 -3.35 -4.3465 -3.967 -4.2555 -3.9795 
-21.41932 -15.51972 -7.693501 -8.961 -9.113501 -8.73 
-24.76932 -19.86322 -12.487 -14.7489 -13.7296 
-29.11282 -24.65672 -18.2749 -19.365 
-33.90632 -30.44462 -22.891 
-8.349 -12.16972 -3.35 -4.174 -4.2555 -3.9795 0 
-21.41932 -15.51972 -7.521 -9.359001 -8.73 -3.9795 
-24.76932 -19.69072 -13.1852 -14.1731 -8.73 
-28.94032 -25.35492 -17.9993 -14.1731 
-34.60452 -30.16902 -17.9993 
-8.384001 -5.512 -2.5195 -7.9615 -4.8235 -3.35 0 
-9.830501 -6.7395 -10.703 -11.0145 -7.578 -3.35 
-11.094 -15.941 -13.756 -13.769 -7.578 
-20.2955 -18.994 -16.5105 -13.769 
-23.3485 -21.7485 -16.5105 
-8.349 -3.35 -3.6845 -1.4985 -3.4155 -4.566 -3.9795 0 
-8.6065 -8.182 -4.8155 -4.4155 -7.237 -9.1245 -3.9795 
-13.9285 -9.541 -8.214001 -8.7355 -12.8997 -9.1245 
-15.2875 -12.9885 -12.9044 -14.041 -12.8997 
-18.735 -17.6789 -18.2099 -14.041 
