-4.759 
n/a 
n/a 
n/a 
n/a 
-4.759 
n/a 
n/a 
n/a 
n/a 
-4.759 
n/a 
n/a 
n/a 
n/a 
-4.759 
n/a 
n/a 
n/a 
n/a 
-3.6055 -3.6905 -3.6115 -3.961 -2.925 -4.548 -3.993 -5.1995 -4.1195 0 
-5.384501 -7.7685 -6.943 -6.995 -6.919001 -8.205 -8.506001 -10.7335 -4.1195 
-9.148001 -9.6425 -10.831 -11.439 -10.0925 -13.1312 -14.7126 -10.7335 
-10.055 -13.4347 -15.275 -14.6125 -15.0187 -19.3378 -14.7126 
-14.3032 -17.8787 -18.4485 -19.5387 -21.2253 -19.3378 
-3.135 -2.645 0 0 -5.1845 -7.23 -10.613 0 -3.452 -2.8645 -3.1125 -5.183 -3.6055 -3.6905 -3.6115 -3.961 0 
-5.188001 -2.645 0 -5.1845 -13.7089 -18.226 -10.613 -3.452 -5.886 -3.5345 -7.401 -8.421 -5.384501 -7.7685 -6.943 -3.961 
-5.188001 -2.645 -5.1845 -13.7089 -24.7049 -18.226 -14.065 -5.886 -6.46 -7.7665 -9.080001 -9.908 -9.148001 -9.6425 -6.943 
-5.188001 -8.0725 -13.7089 -24.7049 -24.7049 -21.678 -16.499 -6.46 -11.4202 -9.548901 -11.5722 -13.8575 -10.055 -9.6425 
-10.9117 -17.0585 -24.7049 -24.7049 -28.1569 -24.112 -17.073 -11.4202 -13.2026 -12.0411 -15.5217 -14.7645 -10.055 
-2.645 0 -3.6055 -3.6115 -3.961 -1.934 -1.4985 -3.6905 -4.548 -5.1845 -3.993 -5.1995 -4.1195 0 
-2.645 -3.6055 -6.047501 -6.943 -6.056 -2.6125 -4.7535 -8.8795 -10.7025 -9.367001 -8.506001 -10.7335 -4.1195 
-6.612 -6.047501 -8.102 -7.5955 -6.855 -6.031 -9.822001 -15.5422 -14.885 -14.1694 -14.7126 -10.7335 
-9.082001 -8.102 -9.553 -9.311501 -8.507501 -11.9549 -16.8683 -19.7247 -19.6874 -20.376 -14.7126 
-11.2459 -9.553 -9.8605 -9.562 -14.4728 -19.0012 -21.0508 -24.5271 -25.894 -20.376 
-2.7455 -5.1845 -3.993 -3.598 0 -1.4985 -5.1995 -3.594 -3.6055 -3.5785 -3.6115 -3.961 -3.793 
-8.181 -9.367001 -7.056001 -3.598 -1.4985 -7.295501 -7.562 -7.113501 -7.8225 -7.867001 -6.943 -8.2585 
-12.7545 -12.7194 -7.056001 -5.277 -7.295501 -9.690001 -11.7203 -12.1381 -12.8494 -11.5713 -10.66 
-16.1069 -12.7194 -9.566501 -10.4765 -9.690001 -13.9813 -16.7449 -17.165 -16.5537 -15.2883 
-16.1069 -15.2299 -14.8744 -13.4718 -13.9813 -19.0059 -21.7718 -20.8693 -20.2707 
