-4.759 
n/a 
n/a 
n/a 
n/a 
-4.759 
n/a 
n/a 
n/a 
n/a 
-4.759 
n/a 
n/a 
n/a 
n/a 
-4.759 
n/a 
n/a 
n/a 
n/a 
-3.641 -4.147 -1.7695 -3.17 -1.7565 -7.433001 0 
-6.773001 -6.4705 -5.347 -4.179 -8.8625 -7.433001 
-9.9835 -10.5942 -6.117 -12.6092 -8.8625 
-14.1104 -11.3642 -14.8232 -12.6092 
-14.8804 -20.0704 -14.8232 
-3.641 -3.7575 -4.4715 -8.517501 -4.686 
-5.455501 -8.168501 -14.0418 -13.6513 
-10.238 -18.0808 -19.1756 
-20.1503 -23.2146 
-25.2841 
-3.17 -1.7565 -1.4985 -4.686 -1.934 -3.641 -4.418 -2.4945 -5.6035 
-4.179 -2.4195 -5.404 -6.1685 -5.245 -7.55 -5.929 -9.508 
-4.497 -6.25 -6.905 -8.092501 -9.92 -9.359501 -13.5909 
-8.757501 -7.688 -9.411 -13.7917 -11.9151 -17.0462 
-9.603001 -10.459 -15.7056 -15.7868 -19.6018 
-1.934 -1.4985 -4.02 -4.0685 -3.787 -3.0365 -2.4945 -7.433001 
-2.6125 -4.969501 -7.955 -8.064501 -6.9645 -3.688 -10.1555 
-5.589 -8.611501 -12.5186 -10.6465 -7.343501 -12.1864 
-9.6595 -13.2521 -15.1006 -11.0255 -16.1215 
-14.5417 -15.8341 -15.4796 -19.8035 
