-4.759 
n/a 
n/a 
n/a 
n/a 
-4.759 
n/a 
n/a 
n/a 
n/a 
-4.759 
n/a 
n/a 
n/a 
n/a 
-4.759 
n/a 
n/a 
n/a 
n/a 
-3.4775 -4.0205 0 -4.8015 0 -4.602 -2.4945 -1.4985 -4.114 -4.127 -3.5485 -3.7555 -2.0935 -4.2315 
-7.945001 -4.0205 -4.8015 -4.8015 -4.602 -7.239 -3.9315 -5.1095 -8.400001 -7.077001 -7.429 -6.4965 -5.3725 
-7.945001 -9.4665 -4.8015 -9.269001 -7.239 -8.674001 -7.4185 -10.2485 -12.1294 -10.718 -10.533 -9.637 
-13.7896 -9.4665 -9.269001 -12.2882 -8.674001 -12.3616 -12.7791 -13.9779 -15.7704 -13.822 -13.6735 
-13.7896 -14.085 -12.2882 -13.7232 -12.3616 -17.7222 -16.5085 -17.6189 -18.8744 -16.9625 
-3.1015 -1.4985 -2.688 -4.2085 -4.574 -2.4945 -2.645 -4.4685 0 -4.7175 -1.756 -5.2075 0 
-4.7205 -3.702 -5.45 -9.337001 -6.5325 -4.6775 -7.472501 -4.4685 -4.7175 -6.0155 -6.523 -5.2075 
-6.78 -6.212 -11.2057 -11.4605 -8.665501 -9.103001 -7.472501 -9.0805 -6.0155 -8.595501 -6.523 
-9.1035 -12.1309 -13.3292 -13.5935 -13.3002 -9.103001 -12.6039 -9.665501 -8.595501 -8.595501 
-15.1672 -14.2544 -15.4622 -18.2282 -13.3002 -14.5464 -13.1889 -12.2455 -8.595501 
-3.1015 -4.127 -12.16972 -4.09 -3.277 -2.356 -5.1795 0 -3.914 0 -4.602 
-7.578 -17.44252 -16.25972 -7.593 -4.9055 -7.8125 -5.1795 -3.914 -3.914 -4.602 
-21.18872 -21.53252 -19.76272 -9.318001 -10.2645 -7.8125 -10.8025 -3.914 -8.259001 
-25.27872 -25.03552 -21.48772 -14.7918 -10.2645 -13.7025 -10.8025 -8.259001 
-28.78172 -26.76052 -26.96152 -14.7918 -16.1545 -13.7025 -15.1475 
-5.42 -1.4985 -3.6205 -3.5485 -2.229 -4.7195 -2.925 -2.3345 -5.1795 0 -3.914 -1.756 -4.6625 0 
-6.6125 -4.05 -7.73 -4.0385 -6.765 -5.659 -4.9745 -7.528501 -5.1795 -3.914 -4.8495 -5.8535 -4.6625 
-9.5415 -8.174 -7.8405 -10.287 -7.384 -8.122 -10.199 -7.528501 -10.8025 -4.8495 -6.627501 -5.8535 
-13.6485 -8.238501 -14.8368 -11.3208 -10.213 -13.5407 -10.199 -13.6795 -11.738 -6.627501 -6.627501 
-13.713 -15.301 -15.8706 -14.1498 -15.6317 -13.5407 -16.4872 -14.615 -13.516 -6.627501 
