-4.759 
n/a 
n/a 
n/a 
n/a 
-4.759 
n/a 
n/a 
n/a 
n/a 
-4.759 
n/a 
n/a 
n/a 
n/a 
-4.759 
n/a 
n/a 
n/a 
n/a 
-3.17 -1.7565 -1.4985 -8.27 -3.511 -1.934 -3.8735 -3.098 
-4.179 -2.4195 -9.271501 -11.1355 -4.582 -4.885 -7.3735 
-4.497 -10.016 -12.1192 -12.2065 -7.573 -7.8135 
-12.6295 -12.8637 -13.1902 -15.1975 -10.3745 
-15.4772 -13.9347 -16.1812 -17.999 
-3.17 -1.7565 -1.4985 -4.1865 -6.4735 -3.511 -1.934 -5.1845 -5.74 0 
-4.179 -2.4195 -5.177 -8.353001 -8.8405 -4.582 -6.564 -5.7465 -5.74 
-4.497 -5.9285 -9 -10.1635 -9.181001 -9.699 -6.819 -5.7465 
-8.0255 -9.6885 -10.9133 -10.288 -10.758 -9.778501 -6.819 
-12.0229 -11.6504 -11.0378 -12.1002 -10.778 -9.778501 
-4.4285 -1.7565 -4.1865 -6.4735 -3.511 -1.934 -6.557 
-4.6405 -5.463 -8.353001 -8.8405 -4.582 -7.536 
-8.2875 -9.554001 -10.1635 -9.181001 -10.523 
-12.7071 -11.4557 -10.288 -15.3808 
-14.6088 -11.5802 -16.723 
-3.17 -8.27 -1.7565 -3.8735 -3.511 -1.934 -5.1845 -5.74 0 
-10.504 -10.2435 -5.112 -7.6775 -4.582 -6.564 -5.7465 -5.74 
-12.4775 -13.599 -8.912001 -8.8695 -9.699 -6.819 -5.7465 
-15.833 -17.399 -9.757001 -14.2315 -9.778501 -6.819 
-19.633 -18.244 -15.2242 -14.311 -9.778501 
