-4.759 
n/a 
n/a 
n/a 
n/a 
-4.759 
n/a 
n/a 
n/a 
n/a 
-4.759 
n/a 
n/a 
n/a 
n/a 
-4.759 
n/a 
n/a 
n/a 
n/a 
-3.2615 -2.3615 -12.16972 -4.254 -2.5045 -1.8085 -3.9515 -2.5195 -4.748 -4.153 -1.7695 -10.132 -4.153 
-5.276 -15.81942 -16.42372 -5.522 -3.3625 -5.7485 -6.502501 -7.387 -6.645 -6.192 -12.8837 -14.4784 
-18.98452 -20.07342 -17.69172 -5.7455 -7.0745 -9.227 -11.8568 -8.913501 -8.505 -17.9068 -17.2301 
-23.23852 -21.34142 -17.91522 -10.1465 -10.1945 -14.8399 -13.3833 -10.143 -20.4564 -22.2532 
-24.50652 -21.56492 -22.31622 -13.5241 -16.196 -16.3664 -14.6128 -22.2122 -24.8028 
-3.2615 -2.3335 -2.5195 -2.855 -4.184 -4.153 -1.7695 -3.062 -4.184 -4.153 0 -8.976501 -8.911 -2.7415 -1.4985 -3.9515 0 
-5.0495 -5.569 -5.643 -5.956 -5.8855 -6.192 -5.5905 -6.092 -5.8855 -4.153 -8.976501 -9.1415 -10.8845 -4.063 -5.059 -3.9515 
-8.231501 -9.035501 -8.315001 -7.8745 -7.716 -10.3545 -8.1215 -7.556 -5.8855 -14.0121 -9.1415 -11.2216 -12.206 -7.179 -5.059 
-11.726 -11.7879 -10.0785 -9.66 -11.9739 -12.8855 -9.575001 -7.556 -15.9844 -14.1771 -11.2216 -12.5431 -15.322 -7.179 
-14.4784 -13.5514 -11.864 -13.9329 -14.5049 -14.339 -9.575001 -17.8125 -16.1494 -16.2572 -12.5431 -15.6591 -15.322 
-3.321 -3.2615 -5.1575 -1.7695 -5.376 -3.277 -12.16972 -8.911 -2.186 -3.9515 0 
-5.939 -7.4355 -7.253 -7.2225 -6.4735 -16.52292 -21.08072 -10.5435 -7.0105 -3.9515 
-10.1765 -9.925 -8.759001 -8.2865 -20.20862 -25.43392 -22.71322 -15.368 -7.0105 
-12.7948 -11.431 -9.759001 -22.09062 -29.11962 -27.06642 -27.53772 -15.368 
-14.3008 -12.431 -23.70412 -31.00162 -30.75212 -31.89092 -27.53772 
-3.2615 -4.748 -1.7695 -4.79 -4.153 -8.3765 -7.406 -10.4135 -2.186 -4.281 -2.5045 -3.9515 -1.7565 -3.091 -3.59 0 
-8.411 -7.0465 -7.161001 -6.2405 -13.4121 -9.7435 -18.2347 -13.3675 -5.650001 -5.893 -6.5205 -5.368 -4.0655 -5.8 -3.59 
-11.3781 -8.094 -8.369 -16.094 -14.7791 -21.2152 -21.1887 -16.8315 -7.0835 -10.089 -7.9455 -7.855 -6.6385 -5.8 
-12.4256 -9.2435 -18.4161 -17.461 -26.2508 -24.1692 -24.6527 -18.265 -11.5433 -10.474 -10.298 -9.748501 -6.6385 
-13.5751 -19.4602 -19.7831 -28.9327 -29.2048 -27.6332 -26.0862 -22.7248 -11.9283 -12.8265 -12.1915 -9.748501 
