-4.759 
n/a 
n/a 
n/a 
n/a 
-4.759 
n/a 
n/a 
n/a 
n/a 
-4.759 
n/a 
n/a 
n/a 
n/a 
-4.759 
n/a 
n/a 
n/a 
n/a 
-3.8735 -6.388 -12.16972 -12.16972 
-10.985 -18.92492 -24.33944 
-23.52192 -31.09464 
-35.69164 
n/a 
-2.4265 -2.186 -1.4985 -4.4745 -4.395 -3.2875 -1.7565 -3.8735 0 
-3.292 -3.339 -4.774 -8.6635 -6.689 -4.3315 -5.112 -3.8735 
-4.5995 -5.991 -9.120501 -11.3053 -7.0555 -7.6775 -5.112 
-7.254 -10.434 -11.7977 -11.6718 -10.304 -7.6775 
-12.0004 -13.1112 -12.1642 -14.9203 -10.304 
-2.4265 -4.0935 -3.383 -3.5905 -3.5125 -1.7565 -4.1865 -9.3125 0 
-5.351 -7.160501 -5.951 -7.237 -4.312 -5.463 -9.6625 -6.75 
-7.994 -9.697001 -9.1265 -7.9755 -7.4655 -8.868501 -7.0455 
-10.213 -12.9687 -9.9355 -10.76 -10.508 -8.9245 
-13.8239 -13.7777 -12.857 -13.758 -10.4635 
-6.3215 -2.8645 -3.3715 -3.5905 -4.2235 -3.853 0 
-9.126 -5.473001 -6.712 -7.733001 -7.749001 -3.853 
-11.8331 -8.579 -9.865001 -11.5315 -7.749001 
-14.9391 -11.8896 -13.8929 -11.5315 
-18.2497 -15.9175 -13.8929 
