-4.759 
n/a 
n/a 
n/a 
n/a 
-4.759 
n/a 
n/a 
n/a 
n/a 
-4.759 
n/a 
n/a 
n/a 
n/a 
-4.759 
n/a 
n/a 
n/a 
n/a 
-3.135 -2.915 -2.264 -1.4985 -3.6835 -3.7435 -3.793 -1.934 -7.192 -8.474501 -3.452 
-5.6755 -4.093 -2.9195 -4.7155 -5.62 -7.9245 -4.752 -9.830001 -16.2085 -12.3009 
-6.507 -4.7445 -6.1695 -5.785501 -9.276501 -9.127501 -13.367 -18.8939 -20.0349 
-7.066 -8.076501 -7.106 -9.335501 -9.8225 -17.8009 -22.4309 -22.7203 
-10.586 -9.470501 -10.3405 -9.836 -18.7955 -26.8648 -26.2573 
-12.16972 -3.5025 -4.548 -3.594 -3.135 -2.915 -2.7455 -3.711 -3.189 0 
-15.67222 -8.698 -7.3195 -7.1055 -5.6755 -4.0865 -6.443 -7.1885 -3.189 
-20.86772 -11.8997 -10.3415 -10.104 -6.315001 -8.443501 -9.8085 -7.1885 
-24.06942 -14.9217 -13.34 -10.764 -11.089 -10.5225 -9.8085 
-27.09142 -17.9202 -14 -15.538 -13.168 -10.5225 
-12.16972 -3.432 -2.9195 -3.7425 -1.7695 -4.548 -2.264 -3.135 -2.915 -2.264 -3.6385 -2.229 -3.7435 
-15.60172 -6.0865 -6.618 -5.678 -5.304 -6.000501 -4.988 -5.6755 -4.093 -6.3255 -4.977 -5.463 
-18.25622 -9.977501 -8.825001 -8.712 -7.2585 -10.1595 -8.162001 -6.507 -8.979 -7.403 -6.9145 
-22.14722 -12.2865 -11.943 -10.8255 -10.485 -13.3335 -9.4525 -11.7182 -10.0075 -9.537001 
-24.45622 -15.4045 -14.0565 -14.052 -13.659 -14.624 -14.7587 -12.7467 -12.2449 
-2.7455 -3.6835 -3.7435 -3.793 -1.934 0 -12.16972 0 -1.8085 -3.432 -3.758 0 
-6.138 -5.62 -7.9245 -4.752 -1.934 -12.16972 -12.16972 -1.8085 -5.4785 -7.0695 -3.758 
-8.7705 -9.276501 -9.127501 -4.752 -15.11012 -12.16972 -13.97822 -5.4785 -10.4345 -7.0695 
-12.701 -9.8225 -9.127501 -18.64712 -15.11012 -13.97822 -17.64822 -10.4345 -10.4345 
-13.247 -9.8225 -23.08102 -18.64712 -16.91862 -17.64822 -22.60422 -10.4345 
