-4.759 
n/a 
n/a 
n/a 
n/a 
-4.759 
n/a 
n/a 
n/a 
n/a 
-4.759 
n/a 
n/a 
n/a 
n/a 
-4.759 
n/a 
n/a 
n/a 
n/a 
-3.6835 -4.1455 -4.916 -2.186 -4.4715 -3.6065 -2.5195 -2.8965 -5.756 -4.2225 -4.1455 -5.207 
-7.097 -7.763 -6.886001 -5.7085 -8.238001 -4.897 -4.786 -7.903 -8.775 -8.041 -7.8395 
-10.6215 -9.134001 -10.4035 -9.409 -9.146501 -6.279 -10.1595 -11.308 -13.1819 -12.2772 
-11.9925 -12.8291 -14.104 -9.785501 -10.7035 -11.7785 -13.7613 -15.7149 -17.4181 
-15.6876 -16.5296 -14.4805 -11.6227 -16.203 -15.3803 -18.1682 -19.9511 
-3.6835 -5.4625 -2.186 -4.4865 -5.4015 -2.5195 -2.8965 -5.328 -2.5045 -2.4265 -2.7415 -3.937 -3.135 -2.645 -5.922 0 
-8.439501 -9.203501 -5.789001 -8.33 -5.6195 -4.786 -6.9355 -7.513 -4.228 -3.681 -5.4675 -5.815001 -5.188001 -8.061501 -5.922 
-12.6265 -12.8639 -10.634 -8.501 -6.986 -8.561501 -8.7795 -9.448501 -5.3145 -6.9795 -7.0815 -7.554 -9.861001 -8.061501 
-16.2869 -17.7089 -10.7705 -10.503 -10.6205 -10.6475 -10.4765 -10.7168 -8.631001 -9.125501 -9.1945 -12.653 -9.861001 
-21.1319 -17.8454 -12.7725 -14.1375 -12.7065 -12.3445 -12.0624 -14.0333 -10.76 -11.4023 -14.4799 -12.653 
-6.041 -3.8015 -2.186 -3.571 -4.2225 -1.756 -1.7695 -3.948 -3.5015 0 
-9.887501 -5.967 -5.0315 -8.7845 -5.3695 -3.963 -5.414001 -8.413 -3.5015 
-12.1808 -9.2165 -10.7175 -9.998 -7.348001 -7.608 -9.804501 -8.413 
-15.4303 -14.9857 -11.931 -12.1045 -11.304 -12.2035 -9.804501 
-21.1995 -16.1992 -14.0375 -16.0605 -15.8995 -12.2035 
-3.0365 -2.4945 -3.3715 -4.461 -3.458 -3.6835 -5.0295 -1.756 -2.8965 -4.2225 -5.0295 0 
-3.688 -4.846 -6.929 -5.147 -6.487 -7.895501 -6.613 -3.751 -5.936501 -8.856001 -5.0295 
-4.8765 -7.5515 -7.448 -7.981501 -11.2072 -9.562 -8.709001 -6.5035 -11.0916 -8.856001 
-7.556 -7.863 -10.2535 -13.0931 -12.8737 -11.7914 -12.0313 -11.833 -11.0916 
-7.8655 -10.66 -15.5797 -14.7596 -15.1031 -15.1137 -17.3608 -11.833 
