-4.759 
n/a 
n/a 
n/a 
n/a 
-4.759 
n/a 
n/a 
n/a 
n/a 
-4.759 
n/a 
n/a 
n/a 
n/a 
-4.759 
n/a 
n/a 
n/a 
n/a 
-4.3355 -5.4335 0 -12.16972 -1.934 -5.046 
-8.3015 -5.4335 -12.16972 -14.10372 -6.3405 
-8.3015 -18.53742 -14.10372 -18.51022 
-21.74902 -20.47142 -18.51022 
-23.68302 -24.87792 
-26.989 0 -4.0205 -5.27 -4.257 -4.795 0 -6.759 0 -4.686 
-29.0788 -4.0205 -10.3105 -9.149501 -7.142 -4.795 -6.759 -6.759 -4.686 
-35.2035 -10.3105 -14.19 -13.0895 -7.142 -12.7574 -6.759 -12.316 
-41.4935 -14.19 -18.13 -13.0895 -15.3818 -12.7574 -12.316 
-45.373 -18.13 -18.13 -21.3293 -15.3818 -18.3144 
-19.1855 -4.744 -1.934 -1.4985 -5.572 -2.356 -1.4985 -5.1245 -3.9545 -4.75 0 -6.759 0 -5.046 
-23.1613 -6.0035 -2.6125 -6.444 -7.6075 -3.1615 -6.849501 -9.2225 -6.711 -4.75 -6.759 -6.759 -5.046 
-24.4843 -6.546501 -7.0175 -8.121 -8.6195 -8.347 -10.3345 -10.495 -6.711 -12.2894 -6.759 -8.911501 
-25.2888 -11.5851 -8.561501 -8.9405 -13.92 -12.0152 -11.8024 -10.495 -14.8478 -12.2894 -8.911501 
-30.3926 -13.1291 -9.376 -14.3052 -17.5882 -13.4831 -11.8024 -18.6318 -14.8478 -14.4419 
-6.22 0 -5.596 -4.744 -5.046 
-6.22 -5.596 -9.050501 -9.820501 
-12.633 -9.050501 -14.2412 
-16.0875 -14.2412 
-21.2782 
