-4.759 
n/a 
n/a 
n/a 
n/a 
-4.759 
n/a 
n/a 
n/a 
n/a 
-4.759 
n/a 
n/a 
n/a 
n/a 
-4.759 
n/a 
n/a 
n/a 
n/a 
-3.975 0 -3.3155 -2.4945 -2.3585 -4.0225 -2.5195 0 
-3.975 -3.3155 -5.166 -4.116 -6.3835 -5.119 -2.5195 
-7.187 -5.166 -5.738501 -6.7795 -7.618 -5.119 
-8.305 -5.738501 -7.963001 -7.8765 -7.618 
-8.815001 -7.963001 -8.003501 -7.8765 
-3.975 -3.3155 -2.4945 -2.3585 -4.379 
-7.187 -5.166 -4.116 -6.75 
-8.305 -5.738501 -7.0585 
-8.815001 -7.897501 
-11.1628 
-3.975 0 -3.3155 -2.4945 -2.3585 -4.379 -2.5195 0 
-3.975 -3.3155 -5.166 -4.116 -6.75 -6.306 -2.5195 
-7.187 -5.166 -5.738501 -7.0585 -7.962 -6.306 
-8.305 -5.738501 -7.897501 -8.015 -7.962 
-8.815001 -7.897501 -8.1225 -8.015 
0 -3.975 -3.3155 -2.3585 -2.4945 -4.4615 -2.5195 0 
-3.975 -7.187 -4.4675 -3.538 -6.403 -6.5115 -2.5195 
-7.187 -9.054001 -5.474 -6.921 -8.1405 -6.5115 
-9.054001 -9.5815 -9.219501 -8.526501 -8.1405 
-9.5815 -13.4782 -10.1725 -8.526501 
