-4.759 
n/a 
n/a 
n/a 
n/a 
-4.759 
n/a 
n/a 
n/a 
n/a 
-4.759 
n/a 
n/a 
n/a 
n/a 
-4.759 
n/a 
n/a 
n/a 
n/a 
-3.1435 -2.664 -4.1545 -1.756 -5.099 -3.909 -2.3335 -2.8705 -4.9845 -2.186 -5.5085 -4.07 -1.4985 -3.7075 -2.5045 -1.4985 -3.976 -1.7565 -4.7205 -4.323 -3.543 -4.0225 0 
-6.204 -5.088 -5.47 -6.686 -7.5825 -4.3805 -4.897 -6.7085 -6.821501 -8.0485 -8.417 -5.3895 -4.6235 -6.482 -3.1915 -5.192 -5.224 -6.7285 -7.774 -7.014501 -5.2925 -4.0225 
-7.751 -6.49 -8.18 -9.3855 -8.078501 -6.586 -8.502001 -7.993501 -10.76 -9.951 -8.880501 -7.5885 -6.7945 -7.2135 -6.384501 -5.558001 -9.2065 -9.136001 -10.3675 -7.461501 -5.2925 
-9.459001 -9.1425 -10.374 -10.1045 -10.6095 -10.2695 -8.942501 -12.1328 -12.6625 -10.181 -9.3595 -9.585501 -7.428 -10.009 -6.47 -9.988501 -10.1555 -12.0137 -11.0287 -7.461501 
-12.1803 -10.7025 -11.093 -12.6355 -14.293 -10.643 -13.2294 -14.0353 -12.8925 -10.3595 -11.4723 -10.132 -10.012 -10.042 -11.5995 -10.9375 -13.7944 -12.6749 -11.0287 
-4.8315 -3.7075 -2.186 -5.139 -2.8705 -4.3305 -2.356 -3.3365 -4.8935 -1.756 -8.092501 -2.4265 -4.6175 -3.6215 -3.5445 -3.6115 -1.7565 -4.7205 -6.116 -4.653 -3.976 -1.756 -5.6785 -2.791 -2.5045 -3.3715 -3.6845 -2.915 0 
-9.363001 -5.825 -6.0175 -8.305 -5.389 -6.5675 -5.38 -7.76 -6.0085 -9.464001 -10.828 -6.015 -6.892 -7.252501 -7.451 -5.8005 -6.7285 -10.1075 -8.762 -8.267 -5.263 -6.6765 -7.06 -5.277 -4.771 -7.648001 -6.475 -2.915 
-10.689 -9.39 -10.1097 -10.5975 -7.878 -10.019 -8.918 -8.8575 -14.4535 -12.3837 -14.4165 -7.864 -9.162001 -11.466 -9.742001 -11.7795 -12.6137 -12.7535 -12.5356 -9.662001 -11.1947 -9.148001 -8.908501 -7.9135 -9.627001 -10.7783 -6.475 
-14.254 -13.4722 -12.4022 -13.0865 -11.5539 -13.7178 -9.744 -17.4799 -17.3732 -15.9722 -16.2655 -9.779 -13.7849 -13.757 -15.8336 -17.6647 -15.2597 -16.5271 -13.9306 -15.9969 -13.6662 -11.1571 -11.6828 -13.0465 -12.7709 -10.7783 
-18.3362 -15.7647 -14.8912 -16.7624 -15.2527 -14.5438 -18.5272 -20.3996 -20.9617 -17.8212 -18.1805 -14.8269 -16.0759 -19.8486 -21.7188 -20.3107 -19.0333 -17.9221 -20.2655 -18.4684 -15.6753 -13.9314 -16.8158 -16.1904 -12.7709 
-2.645 -3.1575 -3.7075 -5.183 -2.8705 -3.7345 -4.1095 -1.756 -3.3365 -3.5445 -1.8085 -4.226 -1.7565 -3.7825 -6.142 -3.976 -2.3615 -2.186 -3.383 -7.427001 -2.915 0 
-3.72 -7.376 -9.699 -9.121 -6.651 -7.997001 -5.777501 -5.2405 -6.883 -4.5835 -5.172 -5.8455 -5.5705 -9.1555 -9.7725 -6.628 -3.5005 -4.438 -10.766 -11.0856 -2.915 
-8.470501 -14.0955 -13.8828 -13.0089 -11.4883 -9.4355 -9.3345 -10.1265 -8.647 -6.999001 -6.724 -10.7049 -11.2215 -14.6905 -13.6178 -7.318501 -5.7175 -12.3582 -14.4246 -11.0856 
-15.6286 -18.2793 -17.7707 -17.8462 -12.9268 -13.1339 -14.6043 -12.1593 -10.6605 -7.534 -11.93 -16.4701 -16.8236 -18.0217 -14.3083 -9.412001 -14.2187 -16.0168 -14.4246 
-19.8124 -22.1672 -22.608 -19.2847 -16.6252 -18.4037 -16.6371 -14.1728 -11.1955 -13.4682 -17.6952 -21.958 -19.9654 -18.7122 -16.4018 -18.148 -17.8773 -16.0168 
-3.7075 -5.25 -1.4985 -3.972 -3.7075 -5.25 -3.972 -2.3345 -8.3785 -3.543 -1.8085 -3.6115 0 
-9.1085 -6.116001 -4.963 -6.801001 -9.1085 -10.223 -5.879 -10.862 -10.907 -6.5225 -4.4775 -3.6115 
-10.3545 -10.057 -8.6855 -13.6948 -14.3121 -12.2766 -14.4997 -13.3905 -13.8865 -9.2705 -4.4775 
-14.2955 -13.7795 -16.2685 -18.8984 -16.3657 -20.8973 -17.0282 -16.37 -16.6345 -9.2705 
-18.018 -21.3625 -21.4721 -20.952 -24.9864 -23.4258 -20.0077 -19.118 -16.6345 
