-4.759 
n/a 
n/a 
n/a 
n/a 
-4.759 
n/a 
n/a 
n/a 
n/a 
-4.759 
n/a 
n/a 
n/a 
n/a 
-4.759 
n/a 
n/a 
n/a 
n/a 
-3.676 -2.186 -1.8085 -4.109 -3.519 0 -1.934 -1.4985 -4.3 -3.8935 -2.4265 -2.186 -1.4985 -3.264 -2.871 
-5.5015 -3.164 -7.037001 -6.8025 -3.519 -1.934 -2.6125 -5.4455 -7.209001 -6.4705 -3.292 -3.339 -4.0935 -5.1405 
-6.3355 -8.627501 -9.7825 -6.8025 -5.3055 -2.6125 -6.5695 -8.5375 -9.534 -6.9565 -4.5995 -5.53 -5.5795 
-12.515 -11.6992 -9.7825 -8.4585 -5.863 -6.5695 -9.264001 -11.3133 -10.0425 -8.240001 -7.2105 -6.2695 
-15.5867 -11.6992 -11.7407 -8.5795 -10.4105 -9.264001 -12.3072 -11.8218 -11.326 -11.001 -7.7765 
-3.676 -2.186 -2.664 -4.109 -3.519 -1.756 -3.8385 -1.7565 -1.4985 -3.8935 -4.139 -2.0935 -4.3 -4.3035 
-5.5015 -3.8555 -5.7875 -6.8025 -4.9065 -5.517 -4.716001 -2.4195 -4.9325 -6.8915 -5.815001 -6.145 -6.659 
-7.218 -7.033 -8.370001 -8.3455 -9.338 -6.116 -5.204 -6.0695 -8.1085 -8.533501 -9.564001 -8.676001 
-10.485 -9.628 -9.488001 -13.0918 -10.265 -6.509 -8.881001 -8.76 -9.9005 -12.3567 -12.2244 
-13.08 -11.092 -14.3737 -14.0188 -10.658 -10.0335 -12.0107 -10.7025 -13.7485 -15.0171 
-3.676 -6.0495 -2.5045 -2.871 -1.7565 -1.4985 -4.109 -4.6195 0 -4.3 -3.8935 -4.425 -3.8175 -4.987 -3.6215 
-9.679001 -7.830501 -4.7085 -3.5385 -2.4195 -5.435 -8.022 -4.6195 -4.3 -7.209001 -7.9215 -8.3255 -8.5445 -9.082001 
-11.4602 -9.548501 -4.9525 -3.7675 -6.179501 -9.0115 -8.022 -9.8675 -7.209001 -11.658 -12.0812 -13.3683 -13.2765 
-13.1782 -9.626 -5.1005 -8.296 -9.706 -9.0115 -13.479 -12.8307 -11.658 -15.8177 -17.124 -18.1003 
-13.2557 -9.665501 -9.726001 -12.0367 -9.706 -14.5215 -16.4422 -17.2797 -15.8177 -20.8605 -21.856 
-3.676 -2.186 -4.066 -2.5045 -1.4985 -3.4155 -4.109 -3.519 0 -2.4265 -2.186 -2.264 -1.4985 -3.177 -2.264 -1.4985 -3.8935 -1.7565 -4.3 -4.7095 0 
-5.5015 -7.2185 -7.025 -3.583 -4.4155 -7.626 -6.8025 -3.519 -2.4265 -3.292 -4.293 -2.9195 -4.0915 -6.4625 -2.9195 -4.9325 -4.8605 -5.5075 -9.257501 -4.7095 
-11.1864 -9.237 -8.574 -6.439 -8.196501 -9.502001 -6.8025 -6.056 -3.292 -5.8715 -4.966 -5.329 -7 -7.062 -6.3795 -5.2335 -7.909501 -10.243 -9.257501 
-13.2049 -10.5435 -11.6082 -10.2185 -10.5525 -9.502001 -9.4655 -6.752 -5.8715 -6.332 -7.127 -8.317 -7.463 -10.8386 -6.7875 -8.200001 -13.4046 -10.243 
-14.5114 -13.5777 -15.3877 -12.5745 -10.5525 -12.278 -10.014 -9.67 -6.332 -8.387501 -9.690001 -8.606001 -11.377 -11.2466 -9.7965 -13.7737 -13.4046 
