-4.759 
n/a 
n/a 
n/a 
n/a 
-4.759 
n/a 
n/a 
n/a 
n/a 
-4.759 
n/a 
n/a 
n/a 
n/a 
-4.759 
n/a 
n/a 
n/a 
n/a 
-2.5045 -3.543 -2.3615 -1.4985 -3.6485 -4.9205 -1.7565 -2.664 -3.8755 -2.186 -4.26 -3.458 -1.4985 -3.8475 0 
-5.323 -7.1235 -4.913 -5.0065 -6.88 -6.071 -3.9595 -4.763 -5.7805 -5.811501 -6.206 -4.063 -5.09 -3.8475 
-7.468 -9.83 -8.737 -7.125501 -9.290001 -8.259001 -5.7215 -6.338 -9.865001 -6.9345 -6.7575 -7.999001 -5.09 
-10.0035 -13.654 -10.928 -9.5795 -11.7538 -9.672501 -7.561501 -10.159 -11.2586 -7.401 -10.354 -7.999001 
-13.8275 -15.845 -13.382 -12.4657 -13.1673 -11.5523 -11.7601 -11.7742 -11.7251 -11.1063 -10.354 
-2.3615 -3.766 -3.6835 -3.6485 -4.4175 -1.7695 -3.4465 -1.7565 -3.8475 
-6.282001 -8.440001 -7.375 -6.029 -6.144 -4.299 -4.919 -5.437 
-11.6844 -12.3989 -10.6531 -7.9255 -10.019 -7.754 -8.859501 
-15.6433 -15.677 -12.5496 -12.1749 -13.5598 -12.0299 
-18.9214 -17.5735 -16.799 -15.7157 -17.8357 
-4.894 -3.8755 -3.6765 -2.229 -3.6485 -4.4175 -3.152 -4.26 -2.3345 -1.4985 -3.8475 0 
-8.7875 -6.5575 -4.9715 -5.605 -6.029 -6.4765 -6.835 -5.5915 -3.233 -5.09 -3.8475 
-11.5951 -8.163501 -7.636001 -7.747001 -8.432 -9.5745 -7.5745 -6.444 -6.306 -5.09 
-13.2011 -10.4425 -9.109 -9.502001 -11.7646 -10.312 -8.2965 -9.533001 -6.306 
-15.4801 -11.9155 -11.1886 -12.9438 -12.5021 -10.73 -11.4311 -9.533001 
-3.402 -2.264 -2.3615 0 -2.664 -12.16972 -3.6485 -4.6545 -2.7415 -3.9595 -3.456 -2.3345 -1.4985 -3.8475 
-3.793 -3.8255 -2.3615 -2.664 -16.05212 -15.81822 -6.828 -6.6725 -5.2105 -5.863 -5.956 -3.233 -5.09 
-5.686501 -3.8255 -5.882 -16.05212 -19.70062 -18.99772 -9.461 -9.762 -7.351501 -7.9345 -7.163 -6.306 
-5.686501 -8.083 -19.62912 -19.70062 -22.88012 -21.63072 -12.7579 -11.9954 -9.408001 -8.445001 -10.0575 
-8.965 -21.97212 -23.27762 -22.88012 -25.51312 -24.92762 -14.9913 -14.0519 -10.032 -10.434 
