-4.759 
n/a 
n/a 
n/a 
n/a 
-4.759 
n/a 
n/a 
n/a 
n/a 
-4.759 
n/a 
n/a 
n/a 
n/a 
-4.759 
n/a 
n/a 
n/a 
n/a 
-14.2915 -4.629 -3.986 -2.5045 -4.536 -3.616 -4.285 -3.545 -3.4185 -1.756 -3.859 -3.6765 -3.9955 -1.4985 -4.285 -3.545 -4.061 
-20.2788 -7.831 -6.284 -7.773001 -8.631001 -7.831 -6.5315 -6.7995 -5.333 -5.337 -5.9655 -7.627501 -5.0175 -4.774 -6.5315 -7.8615 
-23.4808 -10.66 -12.3741 -12.4024 -13.178 -10.6425 -8.996 -8.352 -9.164001 -7.525001 -10.434 -9.092501 -9.02 -6.723001 -11.7052 
-26.3098 -16.7501 -17.0035 -16.9494 -15.9895 -13.107 -10.2705 -12.5086 -11.5396 -12.2893 -11.7896 -13.1648 -10.7175 -12.3409 
-32.3999 -21.3795 -21.5505 -19.7609 -18.454 -14.3815 -14.4271 -14.8842 -16.3039 -13.6449 -15.8619 -14.8623 -16.3354 
-3.986 -4.623 -4.285 -3.4185 -2.5045 -3.488 -2.543 0 -8.253 -3.859 -4.219 -3.4185 -2.5045 -3.488 -5.768001 
-9.726501 -9.315001 -7.753 -6.039001 -5.961 -5.5055 -2.543 -8.253 -12.558 -8.1835 -8.262001 -6.34 -7.04 -8.269001 
-14.5221 -12.925 -10.172 -10.598 -7.602 -5.5055 -11.067 -12.558 -16.8825 -12.7085 -11.9251 -9.869501 -10.859 
-18.1321 -15.344 -14.731 -12.239 -7.602 -15.2261 -15.372 -16.8825 -21.4075 -16.3716 -15.4546 -15.5115 
-20.5511 -19.903 -16.372 -12.239 -19.0762 -19.5311 -19.6965 -21.4075 -25.0706 -19.9011 -21.0966 
-1.934 -3.488 -2.543 0 -3.225 -2.4265 -2.7415 -4.629 -2.3335 -3.986 -4.3195 -1.4985 -3.0835 -3.616 -1.7695 -2.489 -1.8085 -3.4185 -1.7565 -4.698 0 -3.9955 -1.4985 -3.859 -4.219 -1.756 -4.3195 -1.4985 -3.4185 -1.7565 -4.698 -2.264 -3.488 -2.543 0 -3.225 0 
-4.9205 -5.5055 -2.543 -3.225 -6.081 -3.681 -6.033 -5.5865 -5.75 -7.4705 -5.1515 -3.535 -6.23 -6.3655 -3.1405 -3.799 -4.1435 -4.2475 -5.5475 -4.698 -3.9955 -5.0175 -4.4795 -8.1835 -5.83 -5.563 -5.1515 -5.019 -4.2475 -5.5475 -6.421501 -4.790501 -5.5055 -2.543 -3.225 -3.225 
-8.2215 -5.5055 -5.3065 -6.081 -6.804501 -6.941 -7.18 -8.884501 -9.171 -7.996 -5.8475 -6.4985 -7.741 -7.945 -4.2615 -5.552 -4.5105 -6.2225 -5.5475 -8.687501 -5.0175 -7.6475 -8.666 -9.7825 -8.782001 -6.3685 -8.531 -6.382501 -6.2225 -7.331 -8.644501 -6.509501 -5.5055 -5.3065 -3.225 
-8.2215 -7.078001 -8.3255 -6.804501 -9.4785 -7.195 -10.6735 -12.5593 -9.9755 -8.405001 -7.464 -7.797501 -8.883 -9.182 -5.7875 -5.7405 -6.9005 -6.2225 -9.8915 -9.785001 -7.6475 -12.4974 -10.5035 -12.8815 -9.252501 -9.812 -8.619 -7.566 -7.852 -9.713501 -10.757 -6.509501 -7.078001 -5.3065 
-10.111 -9.8625 -9.322001 -9.4785 -9.5865 -10.673 -14.3483 -13.3638 -10.591 -9.285501 -8.071 -8.920501 -10.155 -10.4595 -5.926 -8.4175 -6.9005 -10.523 -10.6915 -12.415 -12.4974 -14.3349 -13.6025 -13.352 -12.8496 -9.868001 -9.609 -10.2225 -11.0443 -12.0232 -10.757 -7.944001 -7.078001 
-2.264 -3.488 -2.543 0 -3.225 0 -3.986 -2.7415 -4.629 -2.5045 -1.4985 -4.623 -3.616 -3.4185 -1.7565 -1.4985 -4.285 -3.545 -1.756 -2.664 -4.285 -3.545 -3.4185 -1.7695 -3.973 -1.4985 -3.859 -4.219 
-4.790501 -5.5055 -2.543 -3.225 -3.225 -3.986 -6.0125 -6.033 -6.319 -3.583 -5.1705 -8.606001 -7.6455 -4.2475 -2.4195 -4.774 -6.5315 -4.9285 -4.3655 -5.7405 -6.5315 -6.7995 -5.495 -4.609 -5.094501 -4.4795 -8.1835 
-6.509501 -5.5055 -5.3065 -3.225 -8.345 -6.0125 -9.892 -7.3735 -7.274 -7.051001 -8.902 -13.1113 -8.071 -4.482 -5.76 -6.723001 -8.0815 -7.5515 -6.988501 -7.895 -8.996 -8.4875 -8.567 -5.429501 -8.050501 -8.666 
-6.509501 -7.078001 -5.3065 -8.345 -9.826 -9.892 -10.263 -8.0065 -10.1035 -11.0647 -13.7015 -13.5368 -8.2755 -7.829 -7.606 -8.282001 -9.246 -9.903501 -9.029501 -9.871 -10.8178 -10.5975 -9.111501 -8.247001 -12.6812 
-7.944001 -7.078001 -10.259 -9.826 -13.9389 -10.263 -10.6105 -10.9898 -14.1172 -15.8642 -14.127 -13.7413 -11.9697 -8.1335 -8.96 -10.5425 -12.7964 -10.0075 -11.2595 -11.8024 -12.9278 -11.7528 -12.1232 -12.9983 
