-4.759 
n/a 
n/a 
n/a 
n/a 
-4.759 
n/a 
n/a 
n/a 
n/a 
-4.759 
n/a 
n/a 
n/a 
n/a 
-4.759 
n/a 
n/a 
n/a 
n/a 
-3.17 -1.7565 -1.4985 -12.16972 -4.4215 -2.7415 -4.0835 -2.3345 -3.704 -6.7735 0 
-4.179 -2.4195 -14.76202 -16.59122 -7.1995 -5.341001 -5.376501 -5.9865 -8.477501 -6.7735 
-4.497 -15.87382 -19.18352 -19.36922 -9.061501 -6.358 -8.639001 -10.494 -8.477501 
-18.48732 -20.29532 -21.96152 -21.23122 -10.0475 -10.451 -13.8493 -10.494 
-22.90882 -23.07332 -23.82352 -22.21722 -14.2519 -15.6613 -13.8493 
-3.1495 -4.456 0 -4.96 -4.569 -1.7565 -3.704 -5.7325 0 -2.4945 -4.5495 -1.7565 -1.4985 -5.217 -6.483 -5.894 -1.7565 -1.4985 -4.58 0 
-6.364 -4.456 -4.96 -7.1675 -6.1595 -5.4395 -7.039001 -5.7325 -2.4945 -6.281 -5.726 -2.4195 -5.402 -12.6064 -9.497001 -6.507 -2.4195 -5.727 -4.58 
-6.364 -8.127001 -7.1675 -7.1815 -9.198501 -7.965 -7.039001 -8.2935 -6.281 -6.729001 -6.2935 -6.536001 -12.9288 -15.6204 -10.461 -7.174 -6.446501 -5.727 
-10.3885 -10.204 -7.1815 -10.0155 -10.4865 -7.965 -9.624001 -10.4945 -6.729001 -7.182 -10.7595 -14.2442 -15.9428 -16.5844 -10.7495 -10.476 -6.446501 
-10.7715 -10.212 -10.0155 -10.7625 -10.4865 -10.228 -10.7625 -10.625 -7.182 -11.878 -18.4677 -17.2582 -16.9068 -16.8729 -10.8025 -10.476 
-9.647 -4.0835 -2.264 -5.845 -3.6835 -2.3345 -6.7925 -3.704 -4.6625 -4.921 
-13.8237 -5.269501 -8.887 -9.189501 -6.094501 -8.395 -10.389 -7.3815 -8.165001 
-15.0097 -12.5393 -12.3951 -11.7175 -12.761 -12.1923 -14.0665 -9.892501 
-22.2795 -16.0474 -14.9231 -18.384 -16.5583 -15.8698 -16.5775 
-25.7876 -18.5754 -21.5896 -22.1813 -20.2358 -18.3808 
-3.17 -1.7565 -3.1495 -4.4215 -2.4945 -3.115 -4.5735 -12.16972 -5.6895 -4.4215 -2.9705 -2.186 -5.849 -2.3345 -3.704 -4.6625 -4.921 0 
-4.179 -3.914 -6.575 -6.044 -5.505 -7.533 -17.91142 -17.85922 -11.1415 -6.637 -3.89 -9.067 -8.237501 -5.9865 -7.3815 -8.165001 -4.921 
-5.5265 -7.144001 -7.364 -8.9845 -9.570001 -21.16672 -23.60092 -23.31122 -13.357 -8.035501 -10.5535 -10.1685 -12.0329 -9.459001 -9.892501 -8.165001 
-8.524 -8.0935 -10.233 -13.1137 -23.11452 -26.85622 -29.05292 -25.52672 -14.7555 -14.9136 -11.655 -13.9639 -15.5054 -10.305 -9.892501 
-9.0415 -10.9907 -14.3622 -26.65822 -28.80402 -32.30822 -31.26842 -26.92522 -21.6336 -16.0151 -15.4504 -17.4364 -16.3514 -10.305 
