-4.759 
n/a 
n/a 
n/a 
n/a 
-4.759 
n/a 
n/a 
n/a 
n/a 
-4.759 
n/a 
n/a 
n/a 
n/a 
-4.759 
n/a 
n/a 
n/a 
n/a 
-3.4765 -3.929 -3.4225 -4.0965 -3.4405 -2.6165 -2.674 -2.9995 -3.2895 -2.264 -3.97 -2.4285 -4.1 -2.264 -3.1495 -3.959 0 -2.925 -2.674 -5.0145 -3.851 -1.7695 -3.469 -4.475 -3.639 -4.0925 0 
-4.589 -8.212 -4.2 -7.8985 -3.7415 -4.2165 -4.4625 -5.82 -6.1425 -5.917 -6.5485 -6.4595 -6.0585 -4.869 -5.772 -3.959 -2.925 -4.1785 -8.064 -8.952001 -4.0015 -5.617 -5.6645 -7.4845 -7.1185 -4.0925 
-8.992001 -10.1945 -8.123501 -8.149001 -4.926001 -5.3575 -7.245501 -8.3195 -10.688 -8.269 -10.7175 -8.6315 -8.466501 -8.056 -5.772 -6.489 -4.1785 -9.47 -12.5051 -9.019 -7.1815 -7.644001 -8.927501 -10.103 -7.1185 
-11.1061 -14.118 -8.359501 -9.004001 -5.903501 -7.777 -9.324 -13.423 -13.04 -12.6802 -12.8895 -11.4065 -12.0279 -8.056 -8.218 -7.561 -9.47 -13.9429 -12.5721 -12.3034 -8.587501 -11.1296 -10.1035 -10.103 
-15.0296 -14.354 -9.117001 -10.233 -8.216001 -9.8695 -14.6317 -15.775 -17.4512 -14.8522 -15.6645 -14.9679 -12.0279 -10.347 -9.251 -12.9947 -13.9429 -14.0099 -15.8565 -13.7094 -12.1901 -12.3056 -10.1035 
-4.0375 -3.959 -3.6845 -4.1545 -1.7695 -1.4985 -4.065 -3.59 -3.433 -2.4265 -2.8645 -3.383 -3.301 -3.9655 -3.7095 -1.756 -3.5435 -3.468 0 
-6.801001 -7.7135 -7.514 -4.5375 -2.7955 -4.824 -7.974 -6.5995 -4.4115 -4.1435 -5.9505 -4.6415 -7.349 -7.0345 -5.233 -5.099 -7.245 -3.468 
-10.6875 -11.7056 -7.904 -5.023 -6.201 -8.755001 -11.6123 -7.6505 -5.802 -6.944 -7.04 -8.789001 -10.0925 -8.028001 -8.92 -9.9175 -7.245 
-14.6796 -12.0956 -8.540501 -8.846001 -10.4185 -12.8293 -12.6633 -8.7675 -8.361501 -7.9645 -10.107 -11.6419 -11.9448 -12.2018 -14.2243 -9.9175 
-15.0696 -12.7321 -12.5675 -13.4539 -14.4928 -13.8803 -13.7803 -11.4642 -9.346001 -11.1441 -13.2877 -13.4942 -16.1186 -17.5061 -14.2243 
-4.275 -10.488 -3.1495 -3.2495 -3.959 -3.458 -3.97 -1.756 -3.5435 -1.7565 -3.469 -2.95 -4.282 0 
-14.9506 -13.6375 -4.8975 -5.837 -7.1745 -7.354 -5.137 -5.099 -4.9885 -5.2525 -4.7535 -7.603001 -4.282 
-18.1001 -15.3855 -7.081 -9.0985 -11.7367 -7.434 -6.1265 -6.821 -9.6675 -7.1425 -8.88 -7.603001 
-19.8481 -17.569 -10.13 -13.8685 -11.8167 -9.814501 -7.672 -11.8128 -10.398 -10.2035 -8.88 
-22.0316 -20.618 -14.9 -13.9485 -14.1972 -11.36 -13.272 -12.5433 -13.459 -10.2035 

n/a 
n/a 
n/a 
n/a 
