-4.759 
n/a 
n/a 
n/a 
n/a 
-4.759 
n/a 
n/a 
n/a 
n/a 
-4.759 
n/a 
n/a 
n/a 
n/a 
-4.759 
n/a 
n/a 
n/a 
n/a 
-1.4985 -4.1445 -3.4635 -1.7695 -1.4985 -3.741 -3.6615 -1.934 -1.4985 -3.5435 -5.377 -4.1865 
-5.1825 -7.4195 -4.2045 -2.7955 -4.967 -6.99 -4.437 -2.6125 -4.2755 -9.004001 -10.75 
-8.691501 -7.631001 -4.7965 -6.634501 -7.559501 -8.0535 -5.0245 -5.924 -10.243 -14.4094 
-8.81 -8.353001 -8.517 -9.490001 -8.997001 -8.4025 -8.0825 -12.2793 -15.6484 
-9.3225 -12.2419 -11.4875 -10.469 -9.512501 -12.1271 -14.6666 -17.6847 
-4.1965 -3.458 -4.6555 -4.154 -4.767 -3.6615 
-8.021 -7.0255 -7.914001 -8.554501 -6.8135 
-11.8149 -10.275 -12.4329 -10.4675 
-15.0644 -14.7905 -14.3459 
-19.5799 -16.7035 

n/a 
n/a 
n/a 
n/a 
-4.0375 -3.458 -1.4985 -4.6555 -3.4635 -1.7695 -5.473 -3.6615 0 
-6.809501 -4.063 -5.938001 -8.527 -4.2045 -7.125 -6.1595 -3.6615 
-7.511001 -7.4165 -10.553 -8.896501 -8.580501 -8.054501 -6.1595 
-10.66 -12.7849 -10.9225 -13.3579 -9.626 -8.054501 
-16.0284 -13.1544 -15.3839 -14.4034 -9.626 
