-4.759 
n/a 
n/a 
n/a 
n/a 
-4.759 
n/a 
n/a 
n/a 
n/a 
-4.759 
n/a 
n/a 
n/a 
n/a 
-4.759 
n/a 
n/a 
n/a 
n/a 
-3.6135 -4.3355 -1.7695 -3.17 -5.094 -4.031 -2.5685 -4.9425 -4.4115 -4.2615 -4.031 -6.384 -1.7565 -4.6675 -2.3615 -3.6885 -3.3715 -5.1185 0 
-7.822001 -6.504001 -5.347 -7.6425 -10.7335 -6.851 -8.3305 -9.0205 -9.665001 -9.657001 -11.4438 -8.612 -8.124001 -5.7565 -4.932 -6.8835 -6.624001 -5.1185 
-9.72 -10.0855 -10.434 -13.8844 -13.5535 -12.9744 -12.5303 -14.9912 -15.1019 -17.075 -13.6718 -15.1727 -9.459001 -6.136 -7.76 -10.463 -6.624001 
-13.3691 -15.5825 -16.6759 -16.7044 -19.6769 -17.1742 -18.501 -20.4281 -22.5199 -19.303 -20.2325 -16.5077 -9.854 -8.7075 -11.5595 -10.463 
-18.8661 -21.8244 -19.4959 -22.8278 -23.8767 -23.1449 -23.9379 -27.8461 -24.7479 -25.8637 -21.5675 -16.9027 -12.7793 -12.5542 -11.5595 
-2.4265 -2.882 -3.429 -3.849 -5.1185 -2.0935 -1.4985 -4.2485 -1.7695 -3.7905 -4.973 -2.264 -3.435 -1.7565 -3.849 -4.246 -3.115 -3.6135 -5.0895 -5.672 -2.645 -4.237 
-4.4545 -5.153501 -5.7325 -6.8815 -7.2375 -2.9725 -5.307 -6.2815 -4.482 -8.461 -7.1215 -5.601 -4.9915 -5.0295 -6.0635 -6.609 -6.328 -7.9605 -10.2485 -7.923 -6.561 
-5.769 -6.431 -9.245001 -8.864 -8.048 -7.205 -7.125501 -9.2115 -9.2085 -10.259 -10.8535 -5.66 -8.171 -7.119501 -8.507 -10.243 -11.2084 -13.7001 -12.6553 -9.294001 
-6.79 -10.0815 -10.139 -9.585501 -12.4639 -8.272 -10.2125 -13.8264 -11.0861 -13.991 -10.9125 -9.057501 -9.388 -9.624001 -12.246 -15.4264 -16.948 -16.1069 -14.0263 
-10.6095 -11.0375 -10.55 -14.0014 -13.5309 -10.7495 -14.8274 -15.704 -14.8181 -14.05 -14.31 -9.783001 -11.9713 -13.2994 -17.4294 -21.166 -19.3548 -17.4779 
-3.5065 -1.4985 -3.6135 -4.3355 -2.674 -2.645 -4.194 -1.7695 -4.132 -1.4985 -4.237 -1.756 -3.948 -4.4115 -4.896 -2.3345 -2.8965 -3.9515 0 -2.4265 -2.742 -3.429 -3.849 -4.153 -1.7695 -7.295001 -1.4985 -4.2485 0 
-4.358 -4.4525 -7.822001 -7.6815 -4.9565 -6.8315 -5.2285 -4.805 -5.071 -5.154 -5.4575 -5.371 -8.8835 -8.2985 -7.153501 -4.8625 -6.443 -3.9515 -2.4265 -4.095 -4.5865 -5.7325 -9.096001 -6.192 -7.558501 -7.747001 -5.307 -4.2485 
-7.438001 -8.5825 -11.6342 -10.259 -8.1525 -7.870501 -7.4725 -5.6295 -8.272 -6.3025 -9.1385 -10.382 -12.9551 -10.1075 -9.368001 -8.7685 -6.443 -6.432 -4.095 -5.5315 -7.0835 -12.5067 -11.4072 -12.5816 -7.941 -11.8513 -5.307 
-11.8308 -12.5119 -14.2117 -13.455 -8.7675 -9.974501 -8.517501 -8.7865 -9.4405 -10.2537 -14.4607 -14.4536 -14.7641 -12.5368 -13.3886 -8.7685 -8.630501 -7.883501 -5.5315 -7.4825 -13.7811 -14.8179 -17.7968 -12.9641 -12.0867 -11.8513 
-15.7602 -15.0894 -17.4077 -14.07 -10.9421 -11.0799 -11.9271 -10.025 -13.5053 -15.5759 -18.5323 -16.2626 -17.1934 -16.5574 -13.3886 -11.1386 -10.204 -9.532001 -7.4825 -14.3041 -16.0923 -21.2075 -18.1793 -17.1098 -12.0867 
-1.4985 -4.7285 -5.8155 -1.7565 -1.4985 -5.059 -1.756 -4.4115 -4.412 -1.7565 -2.8965 -4.918 -3.9515 -3.99 -2.3335 -4.113 -2.7765 -3.429 -5.1185 -2.4285 -4.103 -1.7695 -4.8225 -1.7695 -3.6615 -1.934 -5.232 0 
-5.8505 -7.562 -6.93 -2.4195 -5.9835 -6.0995 -5.9045 -7.988 -5.9965 -4.5345 -7.1285 -6.6125 -8.2635 -5.0175 -6.427 -7.369 -4.863501 -8.039001 -7.351 -5.9665 -5.8725 -5.314 -5.8935 -5.614501 -4.437 -7.0795 -5.232 
-8.2895 -8.255501 -7.2515 -6.6675 -6.9355 -10.0475 -8.959 -9.503 -7.668 -8.8065 -8.7325 -10.1855 -8.788 -9.001 -9.0205 -9.772501 -9.041 -9.247001 -8.9855 -7.4015 -8.564 -6.2605 -7.7335 -5.726 -8.9315 -7.0795 
-8.5015 -8.404 -9.1075 -7.5515 -10.2915 -10.292 -10.1035 -10.282 -10.281 -9.975 -10.389 -10.2405 -10.3045 -10.5335 -10.5865 -10.578 -10.111 -9.8975 -10.045 -9.9505 -8.859501 -8.044001 -7.862 -9.371501 -8.9315 
-8.623 -9.158501 -9.9455 -10.5635 -10.595 -10.3015 -10.293 -10.2915 -10.2905 -10.3935 -10.401 -10.6135 -10.608 -10.615 -10.617 -10.6075 -10.341 -10.1995 -10.5925 -10.093 -9.962001 -8.188001 -10.586 -9.371501 
