-4.759 
n/a 
n/a 
n/a 
n/a 
-4.759 
n/a 
n/a 
n/a 
n/a 
-4.759 
n/a 
n/a 
n/a 
n/a 
-4.759 
n/a 
n/a 
n/a 
n/a 
-2.872 -3.091 -4.6335 -2.186 -2.6165 -4.7785 -3.851 -1.7695 -3.091 -4.2245 -8.191501 -8.164001 -3.956 0 -1.756 -2.3335 -4.031 -2.186 -2.6165 -3.333 -2.0935 -3.043 -1.7695 -3.956 -1.756 -4.048 -1.7565 -3.091 -4.2245 0 
-5.351 -6.576 -6.528 -3.5105 -5.816 -8.3345 -4.0015 -4.458 -5.326 -13.2168 -16.6291 -12.6436 -3.956 -1.756 -4.016 -5.8545 -5.555 -3.5105 -4.5195 -4.2535 -5.384501 -3.528 -5.199 -5.301 -6.015 -4.951 -4.0655 -5.326 -4.2245 
-8.592001 -8.359 -7.8615 -6.5605 -9.101 -8.454 -6.1325 -6.512001 -14.8125 -21.6544 -21.1087 -12.6436 -5.301 -4.016 -7.782001 -7.33 -6.522 -5.146 -5.442 -8.570001 -5.973001 -9.7185 -6.4485 -10.5425 -6.467 -7.968501 -6.383 -5.326 
-9.518001 -9.672501 -11.4515 -9.903501 -9.111501 -10.824 -8.756001 -16.2241 -23.2501 -26.134 -21.1087 -13.9886 -7.2135 -7.782001 -8.096001 -8.533001 -9.359 -5.82 -10.0855 -8.967 -12.7515 -11.1414 -11.986 -10.9945 -9.710501 -10.6032 -6.383 
-10.544 -13.2965 -14.7945 -9.936501 -11.6191 -13.4475 -19.3239 -24.6617 -27.7297 -26.134 -22.4537 -15.9011 -11.1491 -8.096001 -9.406 -11.696 -10.026 -10.7135 -10.6315 -15.9137 -14.1744 -16.6789 -12.438 -14.238 -12.3802 -10.6032 
-2.872 -1.4985 -4.6425 -2.9705 -2.186 -2.6165 -3.9205 -4.732 -3.1015 -2.7455 -1.4985 -5.362 -1.7565 -3.091 -8.7875 -2.7415 -3.882 -4.493 -1.756 -2.3335 -3.5745 -2.6165 -3.0785 -1.4985 -7.4885 
-4.035 -5.498 -7.249001 -3.89 -3.5105 -5.491 -8.243501 -6.285501 -5.767 -3.637 -6.038501 -5.843 -4.0655 -13.1643 -10.5865 -5.7495 -7.501 -5.8585 -4.016 -5.4845 -4.114 -5.705501 -4.869 -8.1875 
-7.963 -7.823 -7.961 -5.319 -5.809 -8.9275 -9.013501 -8.856501 -6.662 -8.4425 -6.073501 -7.843 -14.3162 -14.9633 -13.5945 -7.9615 -9.1125 -7.72 -7.2605 -5.701 -6.611 -6.892 -12.141 
-10.081 -8.939501 -9.6575 -7.857 -9.559501 -9.776 -11.8151 -9.786501 -11.8505 -8.4895 -7.899001 -19.0365 -16.1152 -17.9713 -15.8065 -9.6355 -11.1908 -11.1927 -7.5225 -7.673 -7.6565 -14.3978 
-11.4697 -10.5425 -12.2203 -12.2097 -10.397 -12.682 -12.7451 -15.1174 -11.8975 -10.5635 -19.2245 -20.8355 -19.1232 -20.1833 -17.4805 -11.8226 -14.6635 -11.4547 -8.4895 -8.856001 -15.2261 
-8.726501 -8.164001 -4.2245 -2.186 -5.452 -1.756 -2.847 -4.079 -1.7695 -8.726501 -8.164001 0 
-17.2005 -12.9121 -5.901 -6.913 -6.7165 -4.6065 -6.8485 -5.261 -11.08 -17.2005 -8.164001 
-21.9486 -14.5886 -9.185 -7.826 -9.094501 -8.557501 -9.8315 -15.4889 -19.554 -17.2005 
-23.6251 -17.8726 -9.959001 -10.107 -13.5587 -11.5879 -20.2242 -23.9629 -19.554 
-26.9091 -18.6466 -12.3546 -14.9186 -16.5891 -21.9806 -28.6982 -23.9629 
-1.4985 -4.9815 -1.7565 -1.4985 -6.864 -4.6825 -2.5045 -3.557 -1.934 -1.4985 -5.1845 -4.245 -1.756 -1.934 -1.4985 -3.3715 -5.9885 -3.687 -2.3345 -1.4985 -3.882 -6.864 -4.6805 -4.0935 -1.8085 -3.264 -1.7565 -4.6805 -4.4105 -2.0935 -4.4685 -3.0365 -2.186 -2.847 -5.97 -4.395 -4.0745 
-6.564 -6.554 -2.4195 -7.8675 -8.668501 -7.012001 -6.291 -4.4175 -2.6125 -6.5205 -7.991 -5.425 -4.0205 -2.6125 -4.859 -8.555 -9.187 -5.8905 -3.233 -5.587 -9.551001 -8.916 -9.508 -4.9645 -4.241 -3.6125 -5.902 -9.049 -5.91 -5.4985 -6.783 -3.66 -4.1045 -8.0415 -9.896501 -8.151 
-7.028501 -7.0155 -8.476001 -8.918501 -11.2692 -11.2127 -6.5265 -4.9675 -7.672 -9.690001 -9.1745 -7.444 -4.6845 -6.499001 -9.443501 -12.0235 -9.4265 -6.5155 -7.245 -9.774 -10.4055 -13.9421 -10.196 -6.518 -4.2885 -8.722 -10.4945 -10.5645 -10.7565 -7.314001 -7.1215 -4.256001 -8.813001 -12.313 -13.9045 
-7.677001 -13.5272 -9.2755 -11.6196 -15.4699 -11.4482 -6.93 -10.0885 -10.4765 -10.9033 -11.2487 -8.104 -8.033001 -10.7595 -13.1054 -12.263 -9.837501 -10.19 -11.72 -10.5065 -15.4316 -14.6301 -11.7495 -6.5415 -9.161 -13.4915 -12.01 -15.747 -12.572 -7.5715 -7.5565 -8.823001 -13.3343 -16.321 
-14.3561 -14.3267 -12.0696 -15.8203 -15.7054 -11.8517 -12.2904 -12.893 -11.6898 -12.9775 -11.9087 -10.5225 -12.4383 -14.4214 -13.3449 -12.674 -13.6394 -15.0102 -12.4525 -15.5326 -16.1196 -16.1836 -11.773 -11.8322 -14.0735 -15.007 -17.1925 -17.5625 -12.8295 -8.0135 -12.5081 -13.3405 -17.3423 
