-4.759 
n/a 
n/a 
n/a 
n/a 
-4.759 
n/a 
n/a 
n/a 
n/a 
-4.759 
n/a 
n/a 
n/a 
n/a 
-4.759 
n/a 
n/a 
n/a 
n/a 
-3.091 -4.5315 -9.701 -8.798 0 -1.756 -6.0005 -5.039 0 -8.1215 -7.796 0 -1.756 -3.091 -4.799 -7.0135 0 -6.244 -5.847 0 0 -7.809 -6.0065 0 -7.809 -6.0065 -5.847 0 -1.756 -3.091 -4.481 -10.5565 -2.4945 -3.3195 -4.273 0 
-6.244 -15.0953 -18.692 -8.798 -1.756 -7.9595 -7.342 -5.039 -8.1215 -10.8215 -7.796 -1.756 -4.2995 -6.162 -12.6521 -7.0135 -6.244 -8.637001 -5.847 0 -7.809 -8.031 -6.0065 -7.809 -8.031 -8.0395 -5.847 -1.756 -4.2995 -5.676 -15.9879 -13.051 -7.119 -7.183001 -4.273 
-17.395 -24.0863 -18.692 -10.2645 -7.9595 -9 -7.342 -13.8895 -10.8215 -10.8215 -9.832001 -4.2995 -6.778501 -14.5955 -12.6521 -9.9565 -8.637001 -8.637001 -5.847 -7.809 -8.031 -8.031 -14.6081 -8.031 -8.047501 -8.0395 -7.7305 -4.2995 -6.659 -17.4527 -18.4824 -17.6755 -9.989 -7.183001 
-26.386 -24.0863 -20.1585 -16.468 -9 -9 -16.5981 -16.5895 -10.8215 -12.8575 -12.3755 -6.778501 -15.363 -14.5955 -15.5951 -12.5035 -8.637001 -8.637001 -9.742001 -8.031 -8.031 -18.1746 -14.8301 -8.047501 -8.047501 -9.705 -9.045 -6.659 -18.4475 -19.9472 -23.1069 -20.5455 -9.989 
-26.386 -25.5528 -26.362 -17.5085 -9 -18.3693 -19.2981 -16.5895 -12.8575 -15.401 -14.8545 -15.363 -15.363 -17.5385 -18.1421 -12.5035 -8.637001 -10.66 -9.859 -8.031 -18.1746 -18.3966 -14.8466 -8.047501 -9.757001 -11.0645 -11.5935 -18.4475 -20.942 -24.5717 -25.9769 -20.5455 
-3.091 -4.5315 -9.701 -8.798 0 -6.0005 -5.039 -4.977 -8.3765 -7.796 -1.756 -3.091 -3.5385 -7.0135 0 -6.244 -5.847 0 0 -7.809 -6.799 0 -7.809 -6.799 -5.847 0 -12.16972 -3.152 -3.074 -3.3195 -5.3705 0 
-6.244 -15.0953 -18.692 -8.798 -6.0005 -7.342 -8.2955 -13.9629 -8.903501 -9.832001 -4.2995 -5.846 -11.631 -7.0135 -6.244 -8.637001 -5.847 0 -7.809 -9.6695 -6.799 -7.809 -9.6695 -9.649 -5.847 -12.16972 -15.32172 -5.0635 -7.3295 -6.8135 -5.3705 
-17.395 -24.0863 -18.692 -15.0983 -7.342 -11.0041 -17.4488 -14.4899 -10.575 -12.3755 -6.944 -14.3535 -11.631 -9.9565 -8.637001 -8.637001 -5.847 -7.809 -9.6695 -9.6695 -15.2656 -9.6695 -9.710501 -9.649 -18.68652 -15.32172 -17.23322 -9.7825 -11.3759 -6.8135 
-26.386 -24.0863 -24.9923 -16.4398 -11.0041 -20.1574 -17.9758 -16.1614 -13.1185 -15.02 -15.4571 -14.3535 -14.574 -12.5035 -8.637001 -8.637001 -9.742001 -9.6695 -9.6695 -19.1795 -17.1261 -9.710501 -9.710501 -22.88192 -21.83852 -17.23322 -21.95222 -13.8777 -11.3759 
-26.386 -30.3866 -26.3338 -20.1019 -20.1574 -20.6844 -19.6473 -18.7049 -15.763 -23.5331 -15.4571 -17.2965 -17.121 -12.5035 -8.637001 -10.66 -11.8305 -9.6695 -19.1795 -21.04 -17.1671 -9.710501 -23.04742 -26.03392 -23.75002 -21.95222 -26.04742 -13.8777 
-2.4265 -2.186 -5.6155 -2.3335 -3.091 -3.6455 -3.8175 -7.062 0 -8.3765 -7.796 -3.849 -2.5045 -6.0005 -5.039 -1.756 -3.091 -3.5385 -7.0135 0 -6.244 -5.847 0 0 -7.809 -6.0065 0 -7.809 -6.0065 -5.847 0 0 -9.446 -2.4945 -3.074 -3.3195 -4.273 0 
-3.292 -6.467501 -6.5725 -4.9605 -5.588 -8.425501 -12.0321 -7.062 -8.3765 -8.903501 -12.1618 -6.305 -8.725 -7.342 -6.6005 -4.2995 -5.846 -11.631 -7.0135 -6.244 -8.637001 -5.847 0 -7.809 -8.031 -6.0065 -7.809 -8.031 -8.0395 -5.847 0 -9.446 -10.9315 -4.4205 -7.3295 -7.183001 -4.273 
-6.6325 -6.6895 -8.793501 -7.554 -10.1635 -16.9733 -12.0321 -16.1901 -8.903501 -13.2713 -14.6178 -12.6291 -9.928501 -8.705 -7.9015 -6.944 -14.3535 -11.631 -9.9565 -8.637001 -8.637001 -5.847 -7.809 -8.031 -8.031 -14.6081 -8.031 -8.047501 -8.0395 -5.847 -9.446 -10.9315 -12.8575 -8.923 -10.411 -7.183001 
-6.692 -8.844501 -11.8876 -12.6553 -18.7113 -16.9733 -21.1602 -16.7171 -13.2713 -15.7273 -20.9419 -13.8326 -11.2915 -9.915501 -10.9978 -15.4571 -14.3535 -14.574 -12.5035 -8.637001 -8.637001 -9.742001 -8.031 -8.031 -18.1746 -14.8301 -8.047501 -8.047501 -8.0395 -15.9628 -10.9315 -12.8575 -17.36 -10.6475 -10.411 
-8.845 -12.0744 -16.9889 -21.2031 -18.7113 -26.1014 -21.6872 -21.0849 -15.7273 -22.0514 -22.1454 -15.1956 -12.502 -13.0344 -19.5109 -15.4571 -17.2965 -17.121 -12.5035 -8.637001 -10.66 -9.859 -8.031 -18.1746 -18.3966 -14.8466 -8.047501 -8.047501 -18.5539 -17.4483 -12.8575 -17.36 -19.0845 -10.6475 
-3.091 -4.4455 -2.229 -12.16972 -9.507501 0 -6.0005 -5.039 -6.7555 -8.1215 -7.796 -1.756 -3.736 -2.229 -2.4945 -7.0135 0 -6.244 -5.847 0 0 -7.809 -6.0065 0 -7.809 -6.0065 -5.847 0 -1.756 -10.4705 -2.5685 -1.7565 -3.0365 -2.264 -3.3195 -4.273 
-5.4825 -5.7775 -14.99372 -21.67722 -9.507501 -6.0005 -7.342 -12.5235 -15.3334 -10.8215 -9.832001 -5.289001 -4.8735 -5.159 -10.9362 -7.0135 -6.244 -8.637001 -5.847 0 -7.809 -8.031 -6.0065 -7.809 -8.031 -8.0395 -5.847 -1.756 -13.2351 -13.039 -3.887 -5.890501 -5.6615 -5.974 -7.183001 
-6.4855 -19.21822 -24.50122 -21.67722 -15.9054 -7.342 -15.2321 -21.1014 -18.0334 -12.8575 -13.365 -7.4705 -9.3335 -13.8511 -10.9362 -9.9565 -8.637001 -8.637001 -5.847 -7.809 -8.031 -8.031 -14.6081 -8.031 -8.047501 -8.0395 -7.7305 -13.2351 -15.8036 -14.3575 -7.776 -8.401001 -9.966501 -10.2585 
-20.24102 -28.72572 -24.50122 -28.07512 -17.2469 -15.2321 -23.81 -23.8014 -20.0694 -16.3905 -15.5465 -12.1037 -18.18 -13.8511 -13.8792 -12.5035 -8.637001 -8.637001 -9.742001 -8.031 -8.031 -18.1746 -14.8301 -8.047501 -8.047501 -9.705 -19.5088 -15.8036 -17.1221 -18.2465 -10.4293 -12.767 -14.251 
-29.74852 -28.72572 -30.89912 -29.41662 -25.137 -23.81 -26.51 -25.8374 -23.6024 -18.572 -20.1797 -20.9502 -18.18 -16.7941 -16.4262 -12.5035 -8.637001 -10.66 -9.859 -8.031 -18.1746 -18.3966 -14.8466 -8.047501 -9.757001 -21.5283 -22.0773 -17.1221 -21.0111 -20.8998 -14.7953 -17.0515 
