-4.759 
n/a 
n/a 
n/a 
n/a 
-4.759 
n/a 
n/a 
n/a 
n/a 
-4.759 
n/a 
n/a 
n/a 
n/a 
-4.759 
n/a 
n/a 
n/a 
n/a 
-3.291 -2.5195 -10.678 -2.925 -2.674 -3.6645 0 -1.756 -3.6055 -3.8665 -3.681 
-6.514501 -13.8711 -13.603 -4.1785 -7.861501 -3.6645 -1.756 -5.005 -7.4515 -7.3625 
-18.3017 -16.7961 -14.8565 -9.418501 -7.861501 -5.064 -5.005 -8.969501 -11.5313 
-21.2267 -18.0496 -20.0965 -9.418501 -9.544001 -8.8345 -8.969501 -13.0421 
-22.4802 -23.2896 -20.0965 -11.1706 -13.3685 -12.9788 -13.0421 
-3.291 -3.6955 -1.7695 -10.5675 -7.679501 -8.506001 0 -12.16972 -8.506001 0 -9.373 -8.506001 -1.7565 -2.5685 -2.674 -3.681 0 
-7.4095 -4.4705 -13.3192 -18.247 -16.8147 -8.506001 -12.16972 -20.67572 -8.506001 -9.373 -17.9734 -10.5135 -3.938 -5.2495 -6.4805 -3.681 
-8.182501 -16.6376 -20.9987 -27.3822 -16.8147 -20.92672 -20.67572 -20.67572 -18.13 -17.9734 -19.9809 -12.695 -7.398001 -8.0205 -6.4805 
-20.8548 -24.3171 -30.1339 -27.3822 -29.23542 -29.43272 -20.67572 -30.29972 -26.7304 -19.9809 -22.1624 -16.155 -10.8236 -8.0205 
-28.5343 -33.4523 -30.1339 -39.80292 -37.74142 -29.43272 -30.29972 -38.90012 -28.7379 -22.1624 -25.6224 -19.5806 -10.8236 
-4.0225 -3.291 -10.5675 0 -7.679501 -8.506001 0 -12.16972 -8.506001 0 -9.373 -8.506001 
-6.458 -14.7873 -10.5675 -7.679501 -16.8147 -8.506001 -12.16972 -20.67572 -8.506001 -9.373 -17.9734 
-18.7185 -14.7873 -18.247 -16.8147 -16.8147 -20.92672 -20.67572 -20.67572 -18.13 -17.9734 
-18.7185 -22.4668 -27.3822 -16.8147 -29.23542 -29.43272 -20.67572 -30.29972 -26.7304 
-26.398 -31.602 -27.3822 -29.23542 -37.74142 -29.43272 -30.29972 -38.90012 
-4.2925 -10.5675 -1.934 -3.9655 -2.5685 -3.333 
-16.1496 -12.5015 -5.717 -8.09 -5.4655 
-18.0836 -16.2845 -10.354 -11.472 
-21.8666 -20.9215 -13.736 
-26.5036 -24.3035 
