-4.759 
n/a 
n/a 
n/a 
n/a 
-4.759 
n/a 
n/a 
n/a 
n/a 
-4.759 
n/a 
n/a 
n/a 
n/a 
-4.759 
n/a 
n/a 
n/a 
n/a 
-3.279 -3.543 -4.5385 -1.7565 -3.1495 -6.315001 -4.9395 -1.7695 -3.1335 -4.0805 -1.756 -2.985 -4.589 -4.134 -1.756 -2.846 -3.543 -4.5385 -1.7565 -3.1495 -3.213 -1.934 -1.4985 -3.6445 -1.7565 -4.109 -3.3825 0 
-6.601501 -4.669 -5.173 -3.914 -8.467 -10.31 -5.127501 -5.4385 -6.1515 -5.144 -4.2025 -7.3855 -8.184 -5.514 -5.3275 -6.061 -4.669 -5.173 -3.914 -6.684 -4.4465 -2.6125 -4.4795 -4.775001 -5.444 -6.012 -3.3825 
-6.9785 -5.1795 -7.363 -9.002001 -12.611 -10.9088 -9.321 -8.206 -7.2235 -6.86 -7.7955 -11.6595 -9.2615 -9.423 -7.752 -6.694 -5.1795 -7.363 -7.2895 -8.092 -5.06 -4.8345 -5.062 -7.504001 -7.3295 -6.012 
-7.5305 -7.366 -12.8612 -13.1638 -13.2098 -15.1023 -10.75 -9.3155 -9.050501 -11.1276 -12.4885 -12.737 -13.4963 -11.9423 -7.903 -7.306 -7.366 -10.513 -8.809 -8.8315 -6.603 -5.2075 -7.5455 -9.342001 -7.3295 
-9.8935 -12.866 -17.023 -13.7626 -17.4033 -16.5313 -11.8595 -11.2091 -13.4505 -15.8206 -13.566 -16.9718 -16.0156 -12.0933 -8.533 -9.721001 -10.512 -12.0325 -9.488501 -10.6167 -6.929 -7.632 -9.3585 -9.342001 
-4.597 -4.3735 -5.3045 -1.7565 -3.1385 -2.4945 -3.937 -3.564 -3.1335 -2.4285 -3.4635 -3.213 0 -4.8655 -5.3045 -1.7565 -3.1385 -2.4945 -3.6705 -1.934 -4.4715 0 
-6.2425 -10.2865 -6.011 -4.388 -4.588 -4.9975 -7.5535 -5.803 -5.1725 -5.5325 -5.9835 -3.213 -4.8655 -9.734001 -6.011 -4.388 -4.588 -5.072001 -4.865 -6.7895 -4.4715 
-12.5399 -10.7665 -7.9215 -5.892 -6.6225 -8.800501 -9.266001 -7.924 -8.263 -7.785 -5.9835 -8.184501 -9.734001 -11.5151 -7.9215 -5.892 -6.899 -6.355 -9.1905 -6.7895 
-13.0199 -12.677 -9.992001 -7.795501 -10.6215 -10.3285 -11.6254 -9.826 -9.476501 -7.785 -11.26 -13.5172 -11.5151 -13.4256 -9.992001 -8.1355 -8.038 -10.9157 -9.1905 
-14.9304 -14.7475 -11.8955 -12.0899 -12.1495 -12.6879 -13.5274 -11.3501 -9.476501 -13.7493 -16.5927 -15.2983 -13.4256 -15.4961 -12.2355 -9.2945 -12.7775 -10.9157 
-3.279 0 -3.1385 -3.013 -3.1335 -3.8125 -2.4285 -2.985 -3.6215 0 -1.756 -2.846 0 -1.7565 -3.1385 -1.934 -3.213 -3.6215 
-3.279 -3.1385 -5.4595 -7.2705 -6.646 -6.139 -5.226501 -6.818 -3.6215 -1.756 -5.3275 -2.846 -1.7565 -4.388 -4.522 -5.7865 -7.094 
-6.8345 -5.4595 -10.089 -11.3388 -9.238501 -8.727 -8.828501 -6.818 -5.3685 -5.3275 -5.3275 -5.294001 -4.388 -5.585501 -7.6765 -10.298 
-10.286 -10.089 -14.1573 -13.9313 -12.0611 -12.5934 -8.828501 -7.9265 -9.152 -5.3275 -6.9395 -8.300501 -5.585501 -8.382001 -12.5342 
-14.9673 -14.1573 -16.7498 -16.7539 -15.9275 -12.5934 -10.477 -11.8974 -9.152 -6.9395 -9.922501 -9.093 -8.382001 -13.4233 
-3.279 -3.868 -1.7565 -6.458 -3.6705 -6.4355 -4.651 -1.756 -2.846 -3.868 -1.7565 -1.4985 -6.458 -3.6705 -1.934 -4.109 -4.651 0 
-6.2605 -4.3875 -8.329 -9.579 -11.136 -12.0571 -5.9355 -5.3275 -6.0045 -4.3875 -2.4195 -7.3765 -9.579 -4.865 -5.8675 -6.559 -4.651 
-6.8355 -12.0362 -11.344 -17.5167 -16.7576 -13.3416 -9.6125 -7.268 -6.599 -4.8605 -8.297 -11.4737 -10.3495 -8.48 -8.2615 -6.559 
-14.648 -15.0512 -19.2817 -23.1383 -18.0421 -17.0186 -11.6082 -7.8725 -7.061 -11.6868 -12.2592 -12.2442 -14.1123 -10.7175 -8.2615 
-17.663 -22.9889 -24.9033 -24.4228 -21.7191 -19.0143 -12.2127 -8.4515 -14.1047 -15.649 -13.0297 -16.007 -16.3498 -10.7175 
