-4.759 
n/a 
n/a 
n/a 
n/a 
-4.759 
n/a 
n/a 
n/a 
n/a 
-4.759 
n/a 
n/a 
n/a 
n/a 
-4.759 
n/a 
n/a 
n/a 
n/a 
-3.321 -2.9805 -4.425 -1.4985 -4.156 -4.328 -1.934 -4.8955 -5.1845 -2.688 -3.158 
-5.175 -6.2475 -5.532 -4.9965 -6.2095 -6.0585 -6.124 -10.5325 -7.2655 -4.7705 
-8.083 -7.159501 -8.302 -6.746 -8.0755 -9.382 -12.2288 -12.6135 -7.741 
-9.071501 -9.5465 -10.0745 -8.514501 -11.4946 -15.6252 -14.3098 -13.089 
-11.4909 -11.5462 -11.9314 -12.0768 -17.7378 -17.7062 -14.7853 
-2.3615 -2.186 -1.4985 -3.941 -1.7565 -7.5605 -4.3195 -1.4985 -4.156 -7.311 -1.934 -1.4985 -5.1845 -2.688 -3.158 -1.7565 -4.8955 0 
-3.5005 -3.339 -4.96 -5.638 -9.578 -10.8625 -5.1515 -4.9965 -10.054 -9.5465 -2.6125 -6.5205 -7.2655 -4.7705 -4.71 -7.0105 -4.8955 
-4.3105 -7.0975 -6.059 -13.9513 -12.88 -11.6945 -7.491 -11.6933 -12.5917 -10.187 -7.672 -8.963 -7.741 -7.143001 -9.2965 -7.0105 
-7.943 -7.929 -14.6583 -17.2533 -13.712 -14.034 -14.3686 -14.231 -13.2322 -15.2465 -10.3783 -9.064 -10.5491 -12.1019 -9.2965 
-8.803 -16.7025 -17.9603 -18.0853 -16.0515 -20.9116 -16.9063 -14.8715 -18.2917 -17.9528 -10.4793 -12.1849 -15.508 -12.1019 
-2.3615 -2.186 -1.4985 -3.941 -2.0935 -8.445001 -2.5045 -1.8085 -4.156 -4.328 -1.934 -4.8955 0 -5.1845 -2.688 -3.158 0 
-3.5005 -3.339 -4.96 -6.1165 -11.5295 -11.6813 -3.3625 -6.1235 -6.2095 -6.0585 -6.124 -4.8955 -5.1845 -7.2655 -4.7705 -3.158 
-4.3105 -7.0975 -6.771501 -16.0565 -14.7658 -12.5393 -7.1755 -8.2655 -8.0755 -9.382 -6.124 -10.5325 -7.2655 -7.741 -4.7705 
-7.943 -8.116 -17.0705 -19.2928 -15.6238 -16.3523 -9.412001 -9.663 -11.4946 -9.382 -12.2288 -12.6135 -7.741 -7.741 
-8.894 -18.7696 -20.3068 -20.1508 -19.4368 -18.5888 -10.689 -13.1647 -11.4946 -15.6252 -14.3098 -13.089 -7.741 
-2.5045 -1.4985 -3.193 -6.956501 -3.436 
-3.1915 -4.136 -10.451 -10.647 
-6.2805 -11.886 -14.3479 
-15.6327 -15.7829 
-19.5296 
