-4.759 
n/a 
n/a 
n/a 
n/a 
-4.759 
n/a 
n/a 
n/a 
n/a 
-4.759 
n/a 
n/a 
n/a 
n/a 
-4.759 
n/a 
n/a 
n/a 
n/a 
-2.4265 -2.186 -1.7695 -4.0585 -2.3335 -3.691 -2.186 -1.4985 -4.4665 -4.5795 -2.0935 -3.9185 -1.934 -3.676 0 
-3.292 -3.8745 -4.6165 -4.968 -6.473001 -5.832 -3.339 -4.729 -7.7665 -6.3395 -5.75 -5.781 -4.7985 -3.676 
-5.165 -6.395 -5.753 -9.112 -7.343 -6.955 -5.893 -8.072001 -9.5795 -9.854 -7.133 -8.6145 -4.7985 
-7.777 -7.6045 -9.792 -9.6905 -8.5065 -9.2825 -8.6545 -9.713501 -13.1356 -11.4518 -9.299001 -8.6145 
-9.004001 -11.7367 -10.371 -11.021 -10.4035 -10.233 -10.4675 -13.3046 -14.7334 -13.6178 -9.299001 
-8.4825 -3.9185 -3.1335 
-12.7958 -6.9895 
-15.8668 
n/a 
n/a 
-3.691 -4.9975 -3.299 -4.4345 -1.7565 -3.9185 -1.7695 -3.4155 -3.676 -2.8645 -4.4155 0 
-8.3155 -8.474501 -6.094501 -4.719 -5.331 -6.0115 -5.648 -6.8025 -5.929501 -6.6325 -4.4155 
-12.0093 -11.7038 -6.157001 -8.27 -7.041 -10.564 -8.398001 -9.241 -10.1427 -6.6325 
-15.2386 -11.7663 -9.4825 -10.1185 -11.9197 -13.314 -11.0969 -13.5804 -10.1427 
-15.3011 -15.0918 -11.3494 -14.9972 -14.6697 -16.0129 -15.4363 -13.5804 
-3.691 -2.186 -1.4985 -3.59 -2.9705 -4.139 -2.645 -4.4345 -1.7565 -3.9185 -1.7695 -3.676 0 
-5.832 -3.339 -4.268 -6.172 -6.755 -6.7935 -7.818001 -4.719 -5.331 -6.0115 -5.5605 -3.676 
-6.955 -6.561 -6.6505 -9.641001 -8.881001 -12.6497 -8.593 -8.27 -7.041 -9.078001 -5.5605 
-8.8175 -8.335 -10.0575 -11.8186 -15.5448 -13.4247 -12.2338 -10.1185 -9.767 -9.078001 
-10.702 -12.2282 -12.2351 -18.4824 -16.3198 -17.0655 -14.0823 -12.8445 -9.767 
