-4.759 
n/a 
n/a 
n/a 
n/a 
-4.759 
n/a 
n/a 
n/a 
n/a 
-4.759 
n/a 
n/a 
n/a 
n/a 
-4.759 
n/a 
n/a 
n/a 
n/a 
-4.649 -2.229 -3.3435 -3.5125 -2.186 -8.302 -2.5045 -3.9515 -1.934 -1.4985 -4.1385 0 
-6.2345 -5.0415 -6.0675 -5.685 -9.3575 -9.09 -7.0585 -5.795 -2.6125 -5.034 -4.1385 
-8.561001 -7.915501 -8.275001 -13.3901 -9.7825 -13.7986 -8.7875 -6.357 -6.149 -5.034 
-11.6532 -9.265 -16.0619 -13.8151 -14.7635 -15.5276 -9.339001 -9.295501 -6.149 
-13.0027 -17.0933 -16.4869 -18.7961 -16.4925 -16.0791 -12.3191 -9.295501 
-1.4985 -3.5125 -3.4635 -1.7695 -4.649 -2.229 -3.3435 -2.356 -4.806 -2.7415 -4.3725 -1.934 -2.3615 -4.1385 0 
-4.7015 -5.6765 -4.2045 -6.7605 -6.2345 -5.0415 -5.3805 -7.487 -6.651 -5.7175 -5.022501 -3.539 -6.653 -4.1385 
-8.712 -7.6235 -8.918 -7.923501 -8.561001 -7.101501 -10.4945 -10.76 -9.7215 -6.2475 -7.0105 -7.73 -6.653 
-9.236 -12.8748 -10.443 -10.4105 -10.3675 -12.5009 -13.7675 -13.8305 -10.125 -8.52 -10.7495 -7.73 
-14.8243 -14.3998 -12.93 -12.217 -15.7669 -15.7739 -16.838 -14.234 -12.4677 -12.2942 -10.7495 
-4.5505 -1.7565 -4.649 -2.229 -3.3435 -3.5125 -2.4945 -4.403 -2.5045 -2.664 -4.5545 0 
-5.555 -6.545001 -6.2345 -5.0415 -6.0675 -6.439 -5.4845 -5.993501 -4.074 -5.8115 -4.5545 
-9.555 -7.717501 -8.561001 -7.915501 -8.807501 -9.144 -6.818 -7.4645 -7.596 -5.8115 
-10.8173 -9.268001 -11.6532 -10.248 -11.6763 -10.703 -8.415501 -10.142 -7.596 
-12.3678 -12.4296 -13.9857 -13.1168 -13.2353 -12.3005 -11.608 -10.142 
-3.0365 -2.4945 -3.849 -4.5505 -2.9705 -5.843 -1.4985 -3.3435 -1.7565 -4.649 0 
-3.688 -5.189 -7.59 -7.096001 -7.371 -6.394001 -4.6745 -4.7005 -6.545001 -4.649 
-5.231 -8.8935 -9.646 -9.092001 -7.875 -8.458 -5.03 -8.2225 -6.545001 
-9.151501 -11.2935 -11.8 -9.760501 -9.7565 -8.6505 -8.4215 -8.2225 
-11.6265 -13.4475 -12.4685 -11.7698 -9.994501 -12.2898 -8.4215 
