-4.759 
n/a 
n/a 
n/a 
n/a 
-4.759 
n/a 
n/a 
n/a 
n/a 
-4.759 
n/a 
n/a 
n/a 
n/a 
-4.759 
n/a 
n/a 
n/a 
n/a 
-4.237 -4.7195 -2.186 -4.066 -2.5195 -1.4985 -4.9375 0 
-7.3165 -6.4665 -7.468 -4.976 -3.1695 -5.8885 -4.9375 
-8.903 -12.3717 -8.14 -5.5295 -7.6685 -5.8885 
-14.8898 -13.0437 -8.662001 -9.859 -7.6685 
-15.5618 -13.5657 -13.1899 -9.859 
-2.356 -2.3615 -4.0135 -1.7565 -4.237 -2.356 -3.7075 -4.1625 -2.4265 -3.837 0 
-4.2185 -5.1525 -4.201 -5.66 -6.692 -6.000501 -6.711 -7.22 -5.396 -3.837 
-6.536 -5.2165 -7.881001 -8.1095 -10.2135 -8.510501 -9.765501 -10.0925 -5.396 
-6.541 -8.703501 -10.2375 -11.9414 -12.7235 -12.0838 -12.5838 -10.0925 
-9.9475 -11.1768 -14.0694 -14.4514 -16.2968 -14.9021 -12.5838 
-1.934 -2.3615 -4.9375 -6.283 -1.4985 -4.237 
-3.539 -7.138 -12.1433 -8.282001 -5.154 
-8.356501 -14.75 -14.1423 -10.004 
-16.1415 -16.749 -15.8643 
-18.1405 -18.471 
-3.851 -1.7695 -1.4985 -4.318 -3.995 -4.1445 
-4.0015 -2.7955 -5.587501 -8.1855 -9.3365 
-4.5775 -6.941 -9.190001 -14.2702 
-7.3855 -10.6989 -15.0875 
-11.3994 -16.5964 
