-4.759 
n/a 
n/a 
n/a 
n/a 
-4.759 
n/a 
n/a 
n/a 
n/a 
-4.759 
n/a 
n/a 
n/a 
n/a 
-4.759 
n/a 
n/a 
n/a 
n/a 
-1.934 -5.072 -5.5785 -2.7415 -4.645 -2.5045 -1.4985 -4.2245 -1.7565 -1.4985 -4.1865 -3.4075 -4.203 -3.2615 -2.3335 -2.9805 -4.3155 -3.135 -5.084 -1.756 -5.1895 -2.4265 -1.7695 -1.8085 -4.248 -4.2995 0 
-6.383 -9.7435 -7.358 -5.6165 -6.168001 -3.583 -5.2345 -5.277 -2.4195 -5.177 -6.714 -6.197001 -7.204 -5.0495 -4.1515 -6.016 -6.6545 -7.7095 -6.274 -6.535 -7.196 -4.11 -3.41 -6.412001 -7.1785 -4.2995 
-10.0065 -10.3065 -9.533001 -6.704 -6.946001 -6.441501 -5.753 -5.484 -5.9285 -7.226 -7.1085 -9.23 -9.296 -6.606 -7.259501 -8.118 -10.7495 -9.121 -11.7912 -7.6575 -8.6675 -5.436 -7.770501 -9.000501 -7.1785 
-10.7947 -13.0835 -10.675 -7.329 -8.9835 -6.77 -5.9345 -8.515 -7.731 -7.629 -9.989 -11.3336 -10.7185 -9.332001 -9.4545 -12.3576 -12.161 -14.7168 -12.9137 -9.043 -9.1945 -10.0953 -10.9298 -9.000501 
-13.5717 -14.2255 -11.3 -9.429501 -9.091501 -7.021 -9.119 -9.298 -8.007 -10.06 -12.084 -12.7561 -13.4445 -11.903 -13.8653 -13.7691 -17.7568 -15.8393 -14.2992 -9.606001 -13.9924 -13.2546 -10.9298 
-1.934 -5.072 -2.9805 -2.7415 -3.917 -2.5045 -1.4985 -4.2245 -1.7565 -4.1865 -3.4075 -4.203 -3.2795 -3.2615 -3.917 -2.9805 -3.43 -3.845 -1.7565 -3.6615 -1.934 -1.4985 -3.2795 -1.756 -4.3155 -1.8085 -2.688 -3.3435 -1.7695 -2.4265 -2.9805 -4.826 -1.4985 -4.4525 -1.7565 -12.16972 -4.2995 -1.756 -7.9095 -1.756 -3.2345 -1.4985 -3.2795 -1.8085 -4.0205 -4.9385 -2.0935 -4.1865 -4.248 0 
-6.383 -7.459 -4.004 -5.6245 -5.6565 -3.583 -5.2345 -5.277 -5.463 -6.714 -6.197001 -8.517 -6.5975 -8.041 -7.9055 -5.2875 -8.513 -4.13 -5.23 -4.437 -2.6125 -4.423 -4.9795 -5.709 -5.8475 -3.642 -5.491 -5.263 -4.524 -5.2875 -6.9135 -5.804 -4.731 -4.6715 -14.87542 -16.46922 -5.518 -7.6455 -7.463 -4.5715 -4.328 -4.423 -5.366 -4.688 -8.282001 -7.114 -6.2405 -8.061501 -4.248 
-7.706 -8.0465 -6.843 -6.3145 -6.196 -6.441501 -5.753 -9.0115 -8.168 -7.1085 -10.1635 -12.0644 -11.6978 -12.3947 -10.3745 -10.0475 -8.6995 -6.8195 -5.6525 -5.0245 -5.561 -5.9735 -8.798 -7.2025 -7.04 -6.103 -6.779 -7.5385 -6.7765 -9.54 -7.778501 -10.5865 -4.7575 -18.48042 -19.17492 -17.68772 -10.7195 -8.144 -10.4935 -5.7075 -7.684 -6.754001 -8.484 -8.5035 -9.439501 -9.668001 -9.429501 -8.061501 
-8.345501 -10.7595 -7.4245 -6.6975 -9.3 -6.77 -9.856 -9.8725 -8.526001 -11.2874 -14.0815 -17.1647 -16.0515 -14.8637 -15.1345 -10.124 -10.061 -7.523 -6.405001 -7.867001 -7.003 -9.474501 -10.396 -8.452001 -9.113501 -7.969 -9.128 -9.498 -11.1764 -10.376 -12.7306 -10.6055 -18.67122 -22.77992 -20.39342 -23.83142 -13.0437 -12.3912 -12.0862 -9.186501 -8.8765 -9.0585 -12.5561 -9.539001 -12.1507 -13.7288 -9.429501 
-11.1199 -11.341 -7.893001 -9.8625 -9.624001 -10.5865 -10.8052 -9.922001 -13.1293 -15.2054 -19.1818 -21.5184 -18.5205 -19.6237 -15.211 -11.5491 -10.5485 -7.821001 -9.288 -9.613001 -10.7112 -11.0167 -11.6455 -10.494 -9.504001 -10.103 -11.2341 -13.9159 -12.0124 -15.3281 -12.7496 -24.51922 -22.97072 -23.99842 -26.53712 -25.21342 -16.9477 -13.5885 -15.6656 -10.5235 -11.4526 -13.388 -13.5916 -12.2428 -16.2115 -13.7288 
-6.8295 -1.934 -5.072 -4.3195 -1.4985 -4.2245 -1.7565 -3.4075 -4.203 -1.756 -3.43 -3.6615 -1.934 -8.6955 -1.756 -4.3465 -2.688 -3.3435 -1.7695 -2.4265 0 -4.9845 -7.131001 -1.756 -9.847501 -1.756 -5.821 -3.3755 -2.0935 -4.248 -1.934 -3.8735 
-9.455 -6.383 -9.05 -5.1515 -5.2345 -5.277 -5.009 -6.197001 -5.5325 -5.055 -6.0395 -4.437 -9.8695 -10.0745 -5.466001 -7.288501 -5.491 -5.263 -4.524 -2.4265 -4.9845 -12.9983 -8.626 -12.6121 -11.8913 -7.105 -6.9015 -4.9855 -5.816 -5.7205 -4.885 
-13.9402 -9.267 -9.577001 -7.52 -5.753 -8.609501 -8.769501 -7.672501 -8.714001 -7.817 -7.4655 -13.1263 -11.3467 -13.8851 -8.339001 -8.271001 -6.779 -7.5385 -4.524 -6.5915 -12.9983 -14.4933 -19.7185 -14.6559 -17.2403 -8.923 -6.9435 -8.8855 -7.2645 -8.7405 
-16.8242 -9.739 -12.0277 -7.6255 -9.512 -10.6215 -10.168 -11.023 -11.6668 -8.672501 -16.6564 -14.6035 -15.1573 -16.7581 -9.271501 -8.3155 -9.128 -7.5385 -10.071 -15.1501 -14.4933 -25.5858 -21.7623 -20.0049 -19.0583 -8.9735 -10.6465 -10.554 -9.856501 
-17.2962 -12.2079 -12.1332 -11.5437 -11.567 -12.02 -13.5747 -13.9758 -12.5223 -18.0742 -18.1336 -18.4141 -18.0303 -17.6906 -9.312501 -10.634 -9.128 -13.4237 -18.6502 -16.6451 -25.5858 -27.6296 -27.1113 -21.8229 -19.1088 -12.5351 -12.315 -13.146 
-2.9805 -2.7415 -4.645 -2.5045 -3.757 -1.7565 -4.1865 -3.4075 -4.203 -4.2995 -1.934 -5.072 -3.321 -2.9805 -3.43 -3.849 -3.6615 -1.934 -1.4985 -4.2995 -1.756 -4.3465 -2.688 -4.394 -1.7695 -1.4985 -4.2995 0 -9.2335 -3.3755 -1.756 -9.541 -4.703 -4.172 -1.4985 -4.2995 -1.8085 -3.4155 -5.3745 -4.2995 
-4.004 -5.6165 -6.168001 -5.468 -4.5665 -5.463 -6.714 -6.197001 -8.3335 -5.569 -6.383 -8.886 -5.175 -5.2875 -6.2625 -6.6285 -4.437 -2.6125 -5.2815 -5.518 -5.466001 -7.288501 -7.187 -6.177 -2.7955 -5.2815 -4.2995 -9.2335 -12.9906 -5.1655 -12.3056 -14.7542 -8.8765 -5.360001 -5.2815 -6.4005 -4.0495 -8.327001 -6.7585 
-6.2005 -6.704 -7.354001 -5.918 -8.4875 -8.168 -7.1085 -9.956 -9.792001 -9.5635 -9.3135 -10.164 -7.365 -7.555501 -7.582 -7.4125 -5.0245 -6.585501 -6.6885 -8.907001 -8.339001 -12.4981 -9.314 -6.9335 -6.6755 -5.2815 -14.4984 -12.9906 -14.7806 -16.5255 -17.5188 -18.9277 -10.0545 -8.1295 -7.805 -8.799 -9.242001 -10.1725 
-7.393001 -7.8865 -7.685001 -9.8915 -9.387501 -8.526001 -10.3475 -11.4145 -13.7917 -12.565 -10.6393 -12.6284 -10.1465 -9.691001 -8.4975 -7.7555 -8.855 -7.884001 -9.405001 -10.2645 -13.6364 -14.6251 -10.072 -10.6215 -6.6755 -16.1954 -18.2555 -14.7806 -26.1406 -21.7387 -21.6923 -20.1057 -12.824 -11.1536 -9.903001 -14.1369 -11.2753 
-8.758501 -8.1335 -10.7575 -10.6505 -9.504001 -12.1894 -11.806 -15.4142 -16.7932 -13.8908 -13.1037 -15.4099 -12.282 -10.649 -8.8585 -11.8048 -10.119 -10.7943 -11.1591 -16.0753 -15.7634 -15.3831 -13.76 -10.6215 -17.9056 -19.9525 -20.0455 -26.1406 -31.3538 -25.9122 -22.8703 -22.8752 -15.8481 -13.2516 -15.3143 -16.1702 
