-4.759 
n/a 
n/a 
n/a 
n/a 
-4.759 
n/a 
n/a 
n/a 
n/a 
-4.759 
n/a 
n/a 
n/a 
n/a 
-4.759 
n/a 
n/a 
n/a 
n/a 
-4.4245 0 -7.8365 -6.4145 -12.16972 -12.16972 0 -5.7865 0 
-4.4245 -7.8365 -14.8154 -19.45322 -24.33944 -12.16972 -5.7865 -5.7865 
-12.6284 -14.8154 -27.85412 -31.62294 -24.33944 -17.95622 -5.7865 
-19.6073 -27.85412 -40.02384 -31.62294 -30.12594 -17.95622 
-32.64602 -40.02384 -40.02384 -37.40944 -30.12594 
-4.4245 0 -7.7 -6.4145 -12.16972 0 -9.8175 
-4.4245 -7.7 -14.5719 -19.45322 -12.16972 -9.8175 
-12.4919 -14.5719 -27.61062 -19.45322 -21.98722 
-19.3638 -27.61062 -27.61062 -29.27072 
-32.40252 -27.61062 -37.42812 
-4.4245 0 -6.239501 -6.4145 -11.0905 -12.16972 
-4.4245 -6.239501 -9.142501 -18.374 -23.26022 
-10.368 -9.142501 -22.7916 -30.54372 
-13.4888 -22.7916 -34.96132 
-27.1379 -34.96132 
-4.4245 0 -7.8365 -6.4145 -10.8075 -9.705501 0 -5.7865 0 
-4.4245 -7.8365 -14.8154 -18.091 -20.513 -9.705501 -5.7865 -5.7865 
-12.6284 -14.8154 -26.4919 -27.7965 -20.513 -15.7404 -5.7865 
-19.6073 -26.4919 -36.1974 -27.7965 -26.5479 -15.7404 
-31.2838 -36.1974 -36.1974 -33.8314 -26.5479 
