-4.759 
n/a 
n/a 
n/a 
n/a 
-4.759 
n/a 
n/a 
n/a 
n/a 
-4.759 
n/a 
n/a 
n/a 
n/a 
-4.759 
n/a 
n/a 
n/a 
n/a 
-3.7075 -3.307 -3.355 -2.186 -4.732 -4.0435 -3.498 -3.321 -2.4265 -3.9545 -4.625 -2.186 -5.537 -3.689 0 
-7.528 -6.9475 -5.3935 -7.4375 -9.83 -8.08 -6.776 -4.872 -7.8105 -7.3295 -6.276 -7.278501 -10.19 -3.689 
-11.9585 -9.022 -10.4945 -12.7499 -13.8207 -11.679 -8.1475 -11.5102 -11.4661 -8.672501 -10.209 -12.5395 -10.19 
-14.033 -14.1696 -15.8069 -16.7406 -17.4197 -13.0505 -14.9027 -15.1658 -12.8091 -12.7049 -15.47 -12.5395 
-19.1806 -19.482 -19.7976 -20.3396 -18.7912 -19.8057 -18.5583 -16.5088 -16.8415 -17.9659 -15.47 
-5.173 -4.625 -1.7565 -1.4985 -3.7075 -2.186 -5.3285 -5.8995 -2.5195 -1.4985 -4.622 -3.9455 -1.7695 -1.4985 -4.7885 -4.8015 0 
-9.568001 -5.575 -2.4195 -4.6235 -5.825 -6.6075 -8.797501 -7.9715 -3.1695 -5.221 -6.789001 -6.358 -2.7955 -5.282001 -7.279 -4.8015 
-10.5345 -6.243 -5.468501 -5.975501 -10.233 -9.494 -10.4035 -8.7075 -6.721 -7.2145 -8.678 -7.125 -6.421 -7.481 -7.279 
-11.2025 -9.0845 -7.247001 -10.2865 -13.1195 -11.0104 -11.1395 -12.4186 -8.7005 -9.026501 -9.343 -9.005 -8.690001 -7.481 
-14.044 -9.935 -10.6735 -13.173 -14.6359 -11.7464 -14.8506 -14.3981 -9.661 -9.554001 -9.825001 -11.6562 -8.690001 
-1.4985 -3.7075 -3.4405 -2.6165 -2.674 -1.8085 -5.378 -4.8015 -2.5045 -4.852 -5.2365 -3.013 0 -1.756 -1.934 -3.1435 -4.7885 -3.9035 -1.4985 -4.625 -1.7565 -3.1435 -5.173 -4.9175 -5.8995 -2.356 -4.3905 -4.201 -2.5195 -3.1435 -3.307 -4.9965 0 -2.4265 -2.8645 -1.8085 -7.4145 -4.4315 -4.0395 0 -4.164 -3.6845 0 
-4.6235 -6.986 -3.7415 -4.2165 -3.63 -5.7875 -8.7735 -7.184 -7.55 -7.7325 -8.003 -3.013 -1.756 -4.0205 -4.335 -6.983 -7.532001 -5.8775 -5.8145 -5.575 -4.124 -8.9615 -10.127 -8.7735 -7.015 -5.75 -7.3325 -5.3735 -4.948 -6.557 -8.8545 -4.9965 -2.4265 -4.1435 -3.9785 -7.2875 -10.5445 -7.701501 -4.0395 -4.164 -5.5145 -3.6845 
-7.420501 -7.14 -4.926001 -5.0785 -7.086 -9.066 -10.2755 -10.3415 -10.0545 -10.209 -8.003 -5.1115 -4.0205 -6.2825 -8.062 -9.3435 -9.189501 -9.873501 -6.12 -8.308001 -9.6195 -10.4265 -14.256 -9.365 -8.394001 -7.5495 -7.6245 -7.789001 -7.906 -10.609 -8.8545 -6.212 -4.1435 -5.1925 -8.008 -10.1835 -10.995 -7.701501 -7.4335 -5.5145 -5.5145 
-7.699 -8.815001 -5.5955 -8.2755 -9.91 -10.304 -10.357 -10.359 -10.328 -10.209 -9.995001 -7.256001 -6.2825 -10.034 -9.710501 -10.299 -10.3685 -10.0885 -8.5555 -10.411 -10.428 -15.3633 -14.8475 -10.3425 -9.346001 -7.7685 -9.8415 -9.070001 -12.0404 -10.609 -9.886001 -7.615 -5.1925 -8.758 -10.9295 -10.545 -10.421 -10.396 -8.437 -5.5145 
-9.335001 -9.362 -8.7325 -10.254 -10.3445 -10.3575 -10.368 -10.3835 -10.328 -10.5725 -10.558 -9.969 -10.034 -10.5085 -10.4055 -10.496 -10.4975 -10.4945 -10.418 -10.439 -15.3644 -15.9548 -15.825 -11.2945 -9.528001 -9.940001 -10.4065 -13.3892 -12.0404 -11.6405 -10.722 -8.8955 -8.684501 -11.2265 -10.8345 -10.429 -10.434 -10.431 -8.437 
-12.16972 -7.2865 -10.3565 -9.4755 -7.834001 -9.778501 -8.4165 -8.7605 -12.16972 -12.16972 -12.16972 -12.16972 -12.16972 -9.320001 0 -5.537 0 -12.16972 0 
-19.45622 -18.2864 -19.832 -17.3799 -18.1593 -18.2856 -17.431 -21.07142 -24.33944 -24.33944 -24.33944 -24.33944 -21.48972 -9.320001 -5.537 -5.537 -12.16972 -12.16972 
-30.45612 -27.7619 -27.7364 -27.7052 -26.6664 -27.3001 -29.74192 -33.24114 -36.50916 -36.50916 -36.50916 -33.65944 -21.48972 -15.0674 -5.537 -18.94652 -12.16972 
-39.93162 -35.6663 -38.0617 -36.2123 -35.6809 -39.61102 -41.91164 -45.41086 -48.67888 -48.67888 -45.82916 -33.65944 -27.23712 -15.0674 -18.94652 -18.94652 
-47.83602 -45.9916 -46.5688 -45.2268 -47.99182 -51.78074 -54.08136 -57.58058 -60.8486 -57.99888 -45.82916 -39.40684 -27.23712 -28.47692 -18.94652 
