-4.759 
n/a 
n/a 
n/a 
n/a 
-4.759 
n/a 
n/a 
n/a 
n/a 
-4.759 
n/a 
n/a 
n/a 
n/a 
-4.759 
n/a 
n/a 
n/a 
n/a 
-3.321 -3.647 -2.8645 0 -4.191 -6.8 -1.756 -3.345 -2.8645 -4.2775 -4.25 
-7.261001 -5.764 -2.8645 -4.191 -9.365 -6.5325 -5.1225 -6.1105 -7.0425 -8.116 
-8.647501 -5.764 -6.9005 -9.2995 -10.436 -9.036 -6.8945 -9.052501 -10.322 
-8.647501 -10.6772 -12.3781 -10.5568 -13.9263 -11.521 -9.7305 -12.431 
-13.8889 -16.1548 -13.6354 -13.9263 -16.3091 -14.7312 -13.2994 
-4.8315 -3.647 -3.9285 -3.335 0 -2.9905 -1.7565 -2.6615 -3.5025 -3.64 -2.1715 -3.5025 -2.9775 -2.8645 -3.135 -3.869 -3.9285 -3.9285 -1.756 -2.4265 -2.186 -4.629 0 
-8.7495 -8.391001 -6.398 -3.335 -2.9905 -3.6185 -4.645 -6.394501 -6.98 -4.8015 -5.5375 -7.0505 -5.3555 -5.203 -6.1925 -8.175501 -7.728001 -6.03 -3.949 -3.292 -6.0385 -4.629 
-13.8453 -10.396 -6.398 -6.906 -3.6185 -5.402 -8.453501 -10.1765 -8.8405 -9.557 -10.322 -9.602 -7.8205 -7.962 -10.7495 -12.4184 -10.2435 -7.779 -4.7355 -7.177001 -6.0385 
-15.8503 -10.396 -10.5745 -7.188 -5.402 -8.9895 -13.0899 -12.549 -13.9234 -14.8487 -12.8735 -12.0622 -10.9307 -12.831 -14.9924 -14.9339 -12.4575 -8.4825 -8.349 -7.177001 
-15.8503 -14.4783 -10.692 -10.5525 -8.9895 -14.3097 -15.4624 -17.6319 -19.2151 -17.4002 -15.3337 -15.1724 -15.7997 -17.0739 -17.5079 -17.1479 -13.161 -12.2208 -8.349 
-1.934 -9.126 -1.7695 -3.647 -6.202001 -2.9905 -1.7565 -2.6615 -3.64 -1.934 -1.8085 -2.9825 -3.152 -3.7875 -4.71 -4.6345 -4.321 -2.7415 -4.4015 
-9.607501 -9.769 -5.3465 -11.0585 -9.457001 -3.6185 -4.645 -5.922501 -5.4425 -3.2685 -4.690001 -6.3795 -6.095 -8.162001 -6.3 -8.662001 -7.681 -5.9195 
-9.942 -13.4372 -13.2191 -14.7696 -9.898001 -5.402 -7.078001 -7.696001 -6.7105 -6.955501 -8.234 -10.1675 -11.0917 -9.920501 -10.4675 -12.3666 -11.059 
-13.6062 -21.3098 -16.7306 -14.7771 -11.285 -8.514501 -9.015 -9.1735 -8.5695 -10.3095 -12.4828 -15.1642 -12.8502 -14.2026 -14.1721 -15.7446 
-21.4788 -24.8213 -16.7381 -16.3864 -14.6753 -10.485 -10.7505 -11.3099 -12.2039 -14.5583 -17.4795 -16.9227 -17.1323 -17.9072 -17.5501 
-3.9345 -1.7695 -3.647 -4.46 0 -2.1715 -2.9905 -1.7565 -2.6615 -2.186 -5.504 -3.4605 0 
-3.94 -5.3465 -9.736 -4.46 -2.1715 -5.281 -3.6185 -4.645 -5.682 -6.469 -10.0255 -3.4605 
-7.096 -12.1505 -9.736 -6.649 -5.281 -5.32 -5.402 -7.224 -10.2854 -11.8047 -10.0255 
-14.402 -12.1505 -11.9792 -10.5091 -5.32 -6.738501 -8.2075 -12.186 -15.6211 -11.8047 
-14.402 -14.3937 -15.8393 -10.5481 -6.738501 -9.2545 -13.5829 -17.5217 -15.6211 
