-4.759 
n/a 
n/a 
n/a 
n/a 
-4.759 
n/a 
n/a 
n/a 
n/a 
-4.759 
n/a 
n/a 
n/a 
n/a 
-4.759 
n/a 
n/a 
n/a 
n/a 
-2.3615 -4.3115 -1.4985 -3.962 -4.1335 -1.7565 -3.5965 
-6.9615 -5.5065 -4.324 -8.5575 -5.2435 -5.041 
-7.508 -8.147 -9.31 -9.742001 -8.8785 
-10.281 -13.3976 -9.9565 -13.5462 
-16.0626 -14.0441 -13.8197 
-3.4985 -3.86 -5.333 -5.8785 -4.2255 -1.934 -1.7695 -3.4985 -3.8625 -1.756 -4.9265 -1.4985 -2.8965 -3.9035 -1.7565 -3.5965 0 
-5.719501 -8.182501 -10.7175 -8.196001 -5.7805 -4.0395 -4.8425 -7.558001 -5.304 -5.9595 -6.048501 -3.928 -5.4185 -4.616 -5.041 -3.5965 
-9.605 -13.877 -13.035 -9.292001 -8.7585 -8.0965 -9.724501 -9.259501 -10.4765 -6.863 -8.995001 -6.592 -5.5165 -8.5245 -5.041 
-15.6831 -16.1945 -14.131 -12.8034 -13.3605 -13.3073 -11.6178 -14.9516 -11.38 -10.1765 -10.7495 -6.795 -9.762 -8.5245 
-18.0006 -17.2905 -17.6424 -17.4054 -18.5713 -15.2006 -17.3099 -15.8551 -14.6935 -11.931 -10.777 -11.1635 -9.762 
-3.4985 -3.892 -5.8785 -4.0585 -2.4945 -4.024 -2.5045 -4.2985 -1.7695 -1.756 -5.6255 -2.8965 -3.9035 -1.7565 -3.5965 
-7.01 -10.361 -8.847 -6.919001 -5.477 -6.181 -7.069 -6.249 -4.6875 -6.567 -8.444 -5.4185 -4.616 -5.041 
-13.9938 -13.3295 -12.3411 -9.2895 -7.211 -10.564 -9.0115 -9.68 -9.6005 -9.175501 -11.6942 -5.5165 -8.5245 
-16.9623 -16.8236 -14.7116 -11.3405 -11.8068 -12.5065 -13.5043 -14.8732 -12.2918 -12.5033 -11.7922 -9.762 
-20.4564 -19.1941 -16.7626 -15.9363 -13.7493 -16.9993 -18.6975 -17.5645 -15.6196 -12.6013 -16.0377 
-3.1495 -3.4985 -3.86 -2.186 -4.107 -2.0935 -2.5685 -3.585 -1.934 -1.4985 -3.5965 
-7.017 -5.719501 -5.4135 -4.93 -4.239501 -3.987 -7.0585 -5.26 -2.6125 -4.746 
-10.3885 -7.1955 -7.3655 -4.9675 -5.7675 -8.1265 -8.634001 -6.015 -6.000501 
-11.8645 -9.213501 -7.3825 -6.345 -9.64 -10.155 -9.165501 -9.026501 
-13.8825 -9.233001 -8.966001 -9.945001 -11.9945 -10.571 -12.5914 
