-4.759 
n/a 
n/a 
n/a 
n/a 
-4.759 
n/a 
n/a 
n/a 
n/a 
-4.759 
n/a 
n/a 
n/a 
n/a 
-4.759 
n/a 
n/a 
n/a 
n/a 
-8.863001 -4.5315 0 -3.54 -4.114 0 0 -2.701 0 -3.6885 -4.164 -1.934 -5.1645 -1.756 -5.7865 0 
-14.6535 -4.5315 -3.54 -6.679 -4.114 0 -2.701 -2.701 -3.6885 -8.026 -5.572 -6.5525 -7.008 -7.6715 -5.7865 
-14.8609 -7.879001 -6.679 -6.679 -4.114 -2.701 -2.701 -7.400001 -8.026 -9.4095 -10.9239 -7.7135 -8.385 -7.6715 
-18.2084 -11.4634 -6.679 -6.679 -7.928 -2.701 -7.400001 -12.3991 -9.4095 -14.8252 -12.0849 -9.735001 -8.385 
-21.7928 -11.4634 -6.679 -10.2865 -7.928 -7.400001 -12.3991 -13.7826 -14.8252 -15.9862 -14.1064 -9.735001 
-4.3285 0 -12.16972 -10.6925 0 -4.789 -3.9825 0 0 -5.3565 0 -9.5515 -1.934 -5.1645 -1.756 -5.7865 
-4.3285 -12.16972 -22.86222 -10.6925 -4.789 -8.2805 -3.9825 0 -5.3565 -5.3565 -9.5515 -11.8257 -6.5525 -7.008 -7.6715 
-16.84862 -22.86222 -22.86222 -15.4815 -8.2805 -8.2805 -3.9825 -5.3565 -5.3565 -15.2692 -11.8257 -16.4442 -7.7135 -8.385 
-27.54112 -22.86222 -27.65122 -18.973 -8.2805 -8.2805 -9.262001 -5.3565 -15.2692 -17.5434 -16.4442 -17.6052 -9.735001 
-27.54112 -27.65122 -31.14272 -18.973 -8.2805 -13.832 -9.262001 -15.2692 -17.5434 -22.1619 -17.6052 -19.6267 
-4.3285 0 -12.16972 -12.16972 0 0 -3.54 -4.1665 0 0 -2.701 0 -5.1645 -1.756 -5.7865 -5.506 -4.3225 
-4.3285 -12.16972 -24.33944 -12.16972 0 -3.54 -7.416 -4.1665 0 -2.701 -2.701 -5.1645 -7.008 -7.6715 -9.303501 -9.212 
-16.84862 -24.33944 -24.33944 -12.16972 -3.54 -7.416 -7.416 -4.1665 -2.701 -2.701 -8.691 -7.008 -8.385 -11.5777 -13.2829 
-29.01834 -24.33944 -24.33944 -15.70972 -7.416 -7.416 -7.416 -8.009001 -2.701 -8.691 -10.8905 -8.385 -12.7548 -15.5571 
-29.01834 -24.33944 -27.87944 -19.58572 -7.416 -7.416 -10.702 -8.009001 -8.691 -10.8905 -12.2675 -12.7548 -16.7342 
-4.3285 0 -12.16972 -12.16972 0 -3.54 -6.9375 -2.229 0 -4.894 -1.934 -5.1645 -1.756 -5.7865 
-4.3285 -12.16972 -24.33944 -12.16972 -3.54 -11.6019 -8.729 -2.229 -4.894 -6.5295 -6.5525 -7.008 -7.6715 
-16.84862 -24.33944 -24.33944 -15.70972 -11.6019 -13.3934 -8.729 -7.7205 -6.5295 -9.284 -7.7135 -8.385 
-29.01834 -24.33944 -27.87944 -23.77162 -13.3934 -13.3934 -14.5373 -9.1435 -9.284 -10.1515 -9.735001 
-29.01834 -27.87944 -35.94134 -25.56312 -13.3934 -19.2017 -15.9603 -12.19 -10.1515 -12.173 
