-4.759 
n/a 
n/a 
n/a 
n/a 
-4.759 
n/a 
n/a 
n/a 
n/a 
-4.759 
n/a 
n/a 
n/a 
n/a 
-4.759 
n/a 
n/a 
n/a 
n/a 
-1.934 -5.7185 -2.3615 -3.693 -4.066 -3.325 -4.065 
-7.496 -8.772 -5.899 -7.4535 -6.5505 -7.0425 
-9.557 -12.4569 -9.069 -9.4495 -9.915501 
-13.3175 -15.6269 -11.6488 -12.8791 
-16.4875 -18.2067 -15.0784 
-1.934 -5.7185 0 -2.925 -4.0555 -3.325 -1.4985 -4.1 -1.7565 -1.4985 -3.6085 -3.693 0 
-7.496 -5.7185 -2.925 -5.4845 -6.2735 -3.898 -5.0695 -5.164001 -2.4195 -5.023 -7.952001 -3.693 
-7.496 -9.363501 -5.4845 -7.744 -6.9505 -6.657 -5.5715 -6.290501 -5.731 -9.085501 -7.952001 
-9.750001 -12.1316 -7.744 -8.3975 -8.380501 -6.859 -6.679 -9.049001 -10.1855 -9.085501 
-12.4615 -14.3911 -8.3975 -10.27 -8.386001 -7.4855 -9.241501 -13.7179 -10.1855 
-2.925 -3.693 -4.0555 -3.325 -3.6085 -3.4985 -1.934 -5.7185 
-7.0535 -7.2665 -6.2735 -7.1065 -8.0915 -5.373 -7.496 
-9.145 -8.5415 -9.344 -8.8505 -9.368001 -10.7175 
-10.2755 -11.731 -9.6265 -9.717 -14.9937 
-13.465 -12.0135 -10.0535 -15.5033 
-1.934 -1.4985 -3.158 -5.7185 0 -3.1495 -3.693 -3.6955 -3.325 -4.065 0 
-2.6125 -4.178 -8.73 -5.7185 -3.1495 -7.1885 -7.009501 -5.992001 -7.0425 -4.065 
-5.265 -8.906501 -8.73 -9.7745 -7.1885 -10.1385 -8.5375 -9.257501 -7.0425 
-9.080001 -8.906501 -13.1778 -13.8923 -10.1385 -11.7779 -12.0836 -9.257501 
-9.080001 -13.5109 -17.2956 -16.8423 -11.7779 -15.324 -12.0836 
