-4.759 
n/a 
n/a 
n/a 
n/a 
-4.759 
n/a 
n/a 
n/a 
n/a 
-4.759 
n/a 
n/a 
n/a 
n/a 
-4.759 
n/a 
n/a 
n/a 
n/a 
-3.188 -4.5475 -5.1845 -3.711 -2.186 -3.4625 -5.1805 -2.5045 -6.251 -2.5045 -1.4985 -5.413 -1.756 -4.92 -1.7565 -8.27 
-7.285 -8.4445 -8.8905 -5.7325 -4.4835 -7.206 -6.7505 -8.109 -9.269501 -3.583 -6.375 -6.6685 -6.201 -5.7975 -9.440001 
-9.396501 -9.446 -11.1204 -7.1885 -7.5825 -8.444 -12.773 -10.5425 -10.452 -8.5315 -7.5045 -9.231501 -7.1405 -14.515 
-9.465 -11.7889 -12.5764 -11.5877 -8.788 -14.7029 -15.2065 -11.725 -15.4005 -9.519501 -9.7515 -9.827001 -16.0556 
-11.8055 -13.2449 -16.9756 -12.7932 -15.1665 -17.1364 -16.389 -16.6735 -16.3885 -11.8751 -9.872001 -19.0177 
-8.27 -5.683 -3.711 -2.186 -9.380501 -3.711 -2.5045 -8.861501 -3.4155 -5.0375 
-14.3798 -10.204 -5.7325 -12.7769 -14.0279 -5.8685 -12.061 -12.8134 -9.138 
-18.9008 -12.2255 -17.0278 -17.4243 -16.1854 -15.9682 -16.0129 -18.5359 
-20.9223 -23.5208 -21.6752 -19.5818 -26.2851 -19.9201 -21.7354 
-32.2176 -28.1682 -23.8327 -29.6815 -30.237 -25.6426 
-1.4985 -3.301 -3.711 -2.186 -1.4985 -7.2335 -3.711 -2.9705 -2.186 -4.742 -5.1805 -1.934 -7.955501 
-4.6235 -7.6025 -5.7325 -3.339 -9.838 -11.8217 -6.2875 -3.89 -5.620501 -7.695 -6.3385 -9.519501 
-9.93 -9.358001 -6.923 -12.1939 -14.7564 -14.3982 -7.22 -6.9865 -8.422001 -8.552 -14.5166 
-11.6855 -10.397 -16.3073 -17.1123 -17.3329 -15.3307 -10.0095 -9.8105 -9.06 -16.9553 
-12.7245 -19.7813 -21.2257 -19.6888 -18.2654 -18.1202 -13.0509 -10.2785 -17.5171 
-1.4985 -5.1845 -11.128 -10.306 -2.9705 -2.186 -4.6395 -4.92 -1.7695 -1.4985 -6.4735 -2.186 -3.4625 -4.005 -4.541 -1.934 -6.251 0 
-6.5205 -17.6069 -21.434 -13.4609 -3.89 -6.101501 -8.235001 -6.2895 -2.7955 -7.190001 -8.637 -4.4835 -5.5715 -8.102501 -6.274 -7.327 -6.251 
-19.6583 -27.9129 -24.5889 -14.3804 -7.945001 -9.865001 -8.319 -7.0075 -8.4315 -9.193001 -11.0515 -6.1545 -10.0995 -8.644501 -12.1386 -7.327 
-29.9643 -31.0678 -25.5084 -18.4354 -11.7723 -9.902 -9.124001 -13.4851 -10.228 -11.6317 -12.7225 -10.5745 -10.694 -14.6123 -12.1386 
-33.1192 -31.9873 -29.5634 -22.2627 -11.8093 -10.7316 -15.7936 -15.2816 -12.6667 -13.3027 -17.1425 -11.169 -16.6618 -14.6123 
