-4.759 
n/a 
n/a 
n/a 
n/a 
-4.759 
n/a 
n/a 
n/a 
n/a 
-4.759 
n/a 
n/a 
n/a 
n/a 
-4.759 
n/a 
n/a 
n/a 
n/a 
-1.934 -2.664 -4.7875 -3.452 0 -4.7045 -2.186 -3.264 -1.7695 -2.489 -1.8085 -4.0005 -1.934 -2.9705 -3.0365 -2.186 -1.8085 -3.9395 -2.5195 -3.3155 -3.7825 -4.7995 -3.584 -1.7695 -4.1705 -1.934 -3.7825 -4.052 0 
-4.0475 -6.338 -7.9385 -3.452 -4.7045 -6.263 -5.316 -4.908 -3.1405 -3.799 -5.7515 -6.008 -4.051 -5.543 -3.66 -3.164 -5.8135 -6.5965 -5.5695 -7.113 -7.008 -8.764001 -5.014 -5.858 -5.7605 -5.324 -6.899 -4.052 
-7.545001 -9.549001 -7.9385 -7.7575 -6.263 -9.4245 -5.572 -5.5165 -4.2615 -8.0415 -7.212 -7.895 -6.049 -5.8725 -4.218 -7.3235 -8.5765 -9.618 -9.596001 -9.779 -11.7683 -9.4335 -7.836 -7.0475 -9.283001 -7.834001 -6.899 
-10.609 -9.549001 -13.0462 -9.353001 -9.4245 -9.4685 -5.9005 -6.6505 -8.358001 -9.765 -8.651501 -9.484501 -6.35 -6.4525 -8.146001 -9.889501 -10.7495 -13.6321 -12.4266 -14.6649 -12.4378 -10.2825 -8.978001 -11.0542 -10.293 -7.834001 
-10.609 -14.7361 -14.6417 -13.0087 -9.4685 -9.6715 -6.944 -10.6735 -10.1345 -10.752 -10.092 -10.02 -6.844501 -10.1385 -10.395 -12.3873 -14.7636 -16.4627 -17.3125 -15.3344 -13.2868 -11.4245 -12.9837 -12.0642 -10.293 
-1.934 -8.337001 -3.452 0 -4.7045 -2.186 0 -4.1705 -1.7565 -4.7995 -2.5195 -3.6065 -5.2455 -2.9705 -4.292 -2.925 -1.934 -1.8085 -3.6815 -2.186 -3.264 -1.7695 -2.489 -4.7045 0 
-10.4765 -12.2432 -3.452 -4.7045 -6.263 -2.186 -4.1705 -5.2045 -6.4515 -7.31 -5.35 -6.504 -7.594501 -7.868 -6.2235 -4.436501 -3.2685 -5.8225 -5.611 -5.316 -4.908 -3.1405 -7.432 -4.7045 
-14.3827 -12.2432 -7.7575 -6.263 -6.263 -7.548 -5.2045 -8.325001 -8.637 -10.218 -6.887 -8.726 -12.7528 -9.5755 -7.7875 -5.452001 -6.655 -7.892501 -8.449 -5.572 -5.5165 -8.4025 -7.432 
-14.3827 -16.5487 -9.353001 -6.263 -12.3094 -8.935 -8.325001 -10.468 -11.825 -11.755 -9.2485 -14.0263 -14.4603 -11.3539 -9.202001 -8.852501 -8.8135 -10.9061 -8.4575 -5.9005 -10.2805 -8.4025 
-18.6882 -18.1442 -9.353001 -12.3094 -13.6964 -12.1923 -10.468 -13.656 -13.362 -14.1165 -14.6018 -15.7338 -16.2387 -12.7684 -12.6527 -11.2294 -11.9377 -10.9146 -8.504001 -10.564 -10.2805 
-1.934 -2.664 -4.7875 -3.452 0 -2.4265 -2.186 -4.4175 -2.3335 -4.7045 -2.186 -1.8085 -4.0005 -1.934 -2.9705 -3.7825 -4.7995 -4.4665 -2.5195 -1.8085 -3.9395 -1.934 -1.4985 -3.9785 0 
-4.0475 -6.338 -7.9385 -3.452 -2.4265 -3.292 -6.006001 -5.0185 -6.986 -6.263 -3.164 -5.7515 -6.008 -4.051 -7.0225 -7.008 -9.473501 -6.247 -3.8815 -5.8135 -6.018 -2.6125 -4.496 -3.9785 
-7.545001 -9.549001 -7.9385 -5.648 -3.292 -6.338 -6.897501 -10.204 -7.784 -7.078 -7.335 -7.212 -7.895 -7.4335 -10.341 -12.4778 -11.3008 -7.4095 -7.5185 -7.2035 -6.706 -4.783 -4.496 
-10.609 -9.549001 -10.9367 -6.54 -6.338 -6.9115 -12.0414 -10.7105 -8.567 -10.2925 -8.59 -8.651501 -11.5075 -10.8394 -15.8108 -14.3051 -12.4633 -10.749 -8.8315 -8.0565 -8.787001 -4.783 
-10.609 -12.6266 -11.8287 -9.321 -6.9115 -12.0582 -12.5479 -11.4935 -12.0107 -11.5475 -9.9585 -12.3252 -14.9134 -16.3092 -17.6381 -15.4676 -15.8028 -12.062 -9.138 -9.718 -8.787001 
-1.934 -8.337001 -4.7875 -3.452 0 -3.321 -4.603 -4.7045 -2.5045 -1.8085 -3.892 -3.3155 -3.7825 -4.7995 -5.272 -2.5195 -3.7285 -3.5135 -2.356 -4.0005 0 
-10.4765 -13.5787 -7.9385 -3.452 -3.321 -7.946 -9.4685 -6.884 -3.3625 -5.483 -6.22 -7.113 -7.008 -7.561001 -6.4875 -6.2465 -6.5765 -6.0525 -6.7665 -4.0005 
-15.7182 -16.7297 -7.9385 -6.792 -7.946 -13.1103 -11.8536 -7.8225 -7.139501 -6.941 -9.5745 -9.779 -9.502001 -8.522 -10.8199 -9.1835 -8.488501 -9.649 -6.7665 
-18.8692 -16.7297 -12.0807 -11.8586 -13.1103 -15.4954 -12.7921 -11.8881 -8.734501 -10.074 -12.2877 -12.3986 -10.042 -13.2484 -13.7569 -11.2617 -12.2832 -9.649 
-18.8692 -20.8719 -17.1473 -17.0229 -15.4954 -16.4339 -16.8577 -13.4831 -12.0351 -12.874 -14.9073 -12.9386 -14.4848 -16.1854 -15.8351 -15.0564 -12.2832 
