-4.759 
n/a 
n/a 
n/a 
n/a 
-4.759 
n/a 
n/a 
n/a 
n/a 
-4.759 
n/a 
n/a 
n/a 
n/a 
-4.759 
n/a 
n/a 
n/a 
n/a 
-1.934 -3.502 -5.3885 -1.4985 -6.0315 -3.9285 -2.4945 -5.3885 -12.16972 0 -8.200001 0 -8.608 0 -7.5525 0 -7.952 -1.756 -10.7715 
-4.8155 -8.005 -7.4065 -6.9895 -9.495001 -5.8655 -9.1005 -18.52602 -12.16972 -8.200001 -8.200001 -7.536 -7.536 -7.5525 -7.5525 -7.952 -9.614 -13.5361 
-9.203501 -10.107 -13.1817 -11.1172 -11.571 -12.7877 -22.51882 -18.52602 -20.36972 -8.200001 -10.68 -7.536 -10.634 -7.5525 -16.1421 -9.614 -21.3941 
-10.3615 -15.8822 -17.3094 -13.1932 -18.4932 -26.20602 -22.51882 -26.72602 -20.36972 -10.68 -10.68 -10.634 -10.634 -16.1421 -17.8041 -21.3941 
-16.1367 -20.0099 -19.3854 -20.1154 -31.91152 -26.20602 -30.71882 -26.72602 -22.84972 -10.68 -13.778 -10.634 -19.5096 -17.8041 -29.5842 
-1.934 -3.502 -5.3885 0 -3.0365 -2.4945 -12.16972 0 -8.200001 0 -2.701 -5.907 0 -7.5525 0 -7.952 0 -12.16972 0 -5.563 
-4.8155 -8.005 -5.3885 -3.0365 -3.688 -16.09242 -12.16972 -8.200001 -8.200001 -2.701 -7.536 -5.907 -7.5525 -7.5525 -7.952 -7.952 -12.16972 -12.16972 -5.563 
-9.203501 -8.005 -8.7215 -3.688 -18.12332 -16.09242 -20.36972 -8.200001 -10.6095 -7.536 -7.536 -9.675 -7.5525 -16.1421 -7.952 -20.71452 -12.16972 -17.73272 
-9.203501 -12.147 -9.09 -18.12332 -18.12332 -24.29242 -20.36972 -10.6095 -10.68 -7.536 -10.634 -9.675 -16.1421 -16.1421 -20.71452 -20.71452 -17.73272 
-13.4665 -12.5155 -23.60832 -18.12332 -26.32332 -24.29242 -22.77922 -10.68 -10.68 -10.634 -10.634 -18.5506 -16.1421 -28.90462 -20.71452 -26.27752 
-3.502 -5.3885 -2.8645 -10.678 0 -8.200001 0 -12.16972 -5.907 0 -7.5525 0 -7.952 0 -8.596001 -3.843 -5.563 
-8.005 -8.1125 -15.1455 -10.678 -8.200001 -8.200001 -12.16972 -18.07672 -5.907 -7.5525 -7.5525 -7.952 -7.952 -8.596001 -12.8856 -10.035 
-11.538 -20.5535 -15.1455 -19.0608 -8.200001 -20.89372 -18.07672 -18.07672 -9.675 -7.5525 -16.1421 -7.952 -17.1408 -12.8856 -19.0776 
-23.979 -20.5535 -23.5283 -19.0608 -20.89372 -26.80072 -18.07672 -21.84472 -9.675 -16.1421 -16.1421 -17.1408 -21.4304 -19.0776 
-23.979 -28.9363 -23.5283 -31.75452 -26.80072 -26.80072 -21.84472 -21.84472 -18.5506 -16.1421 -25.3309 -21.4304 -27.6224 
-1.934 -3.502 -5.3885 -10.707 0 -12.16972 0 -9.6485 -5.907 0 -10.8685 0 -12.16972 0 -10.7715 0 
-4.8155 -8.005 -17.0633 -10.707 -12.16972 -12.16972 -9.6485 -10.382 -5.907 -10.8685 -10.8685 -12.16972 -12.16972 -10.7715 -10.7715 
-9.203501 -20.4888 -17.0633 -23.66512 -12.16972 -21.81822 -10.382 -10.382 -17.4617 -10.8685 -23.03822 -12.16972 -22.94122 -10.7715 
-21.8083 -20.4888 -30.02142 -23.66512 -21.81822 -22.55172 -10.382 -22.1647 -17.4617 -23.03822 -23.03822 -22.94122 -22.94122 
-21.8083 -33.44692 -30.02142 -33.31362 -22.55172 -22.55172 -22.1647 -22.1647 -29.63142 -23.03822 -33.80972 -22.94122 
