-4.759 
n/a 
n/a 
n/a 
n/a 
-4.759 
n/a 
n/a 
n/a 
n/a 
-4.759 
n/a 
n/a 
n/a 
n/a 
-4.759 
n/a 
n/a 
n/a 
n/a 
-8.842501 -4.424 -3.436 -3.0575 -3.4795 -8.051001 -5.159 -4.0555 
-13.5159 -6.457 -7.291 -5.229 -12.5773 -13.8954 -8.601001 
-15.5489 -9.267 -8.51 -14.9368 -18.4217 -17.3374 
-18.3589 -10.9642 -18.8034 -20.7812 -21.8637 
-20.0561 -21.2576 -24.6478 -24.2232 
-2.264 -4.5855 -1.7565 -3.0575 -3.4795 -3.2615 -8.842501 -4.424 0 -1.8085 -5.2435 -2.5195 -4.7045 -5.78 -1.7695 -1.4985 -3.995 0 
-6.2015 -4.9095 -5.2545 -5.229 -4.9365 -13.2176 -13.5159 -4.424 -1.8085 -6.498 -7.7885 -5.9395 -8.8475 -6.9905 -2.7955 -4.712 -3.995 
-6.341001 -8.873 -7.081 -6.4535 -15.6676 -17.891 -13.5159 -6.362 -6.498 -8.998 -11.5197 -9.2635 -9.7945 -7.345 -6.133 -4.712 
-10.5035 -10.3415 -7.9835 -17.7442 -20.341 -17.891 -15.4539 -11.8875 -8.998 -12.8418 -14.8437 -10.045 -10.1715 -8.953501 -6.133 
-11.972 -11.244 -19.9062 -22.4176 -20.341 -19.829 -20.9794 -14.3875 -12.8418 -16.1658 -15.6252 -10.316 -12.2594 -8.953501 
-3.0575 -3.4795 -3.2615 -1.4985 -3.956 -1.7565 -8.842501 -2.664 -4.5175 -5.3155 -2.5195 -1.4985 -3.7345 
-5.229 -4.9365 -4.032 -4.8985 -4.932 -10.022 -11.7559 -5.958 -7.5365 -7.634501 -3.1695 -4.9965 
-6.4535 -5.323 -6.1535 -5.16 -14.0657 -13.1688 -15.0499 -9.713 -10.7335 -8.0955 -6.8315 
-6.78 -7.8585 -6.1865 -14.5201 -17.2125 -16.4628 -18.8049 -13.058 -11.1945 -12.1405 
-10.085 -7.9495 -15.8824 -17.6669 -20.5065 -20.2178 -22.1499 -13.519 -15.2395 
-3.115 -5.123 -4.0555 -3.2615 -3.0575 -3.4795 -1.7565 -8.842501 -2.229 -3.956 0 
-8.508501 -8.3105 -6.207 -6.6095 -5.229 -4.599 -10.022 -10.3415 -5.2205 -3.956 
-12.056 -10.764 -9.5385 -7.118 -6.304501 -13.7057 -11.7544 -13.333 -5.2205 
-14.5095 -14.0955 -10.4908 -7.8015 -16.308 -15.4381 -14.7459 -13.333 
-17.841 -15.0478 -11.1743 -18.0004 -18.0404 -18.4296 -14.7459 
