-4.759 
n/a 
n/a 
n/a 
n/a 
-4.759 
n/a 
n/a 
n/a 
n/a 
-4.759 
n/a 
n/a 
n/a 
n/a 
-4.759 
n/a 
n/a 
n/a 
n/a 
-2.0935 -3.668 0 -1.4985 -4.9835 -1.7565 -2.915 -4.042 -1.756 -4.23 -1.7565 -3.7745 -4.4155 -1.7565 -4.464 -2.229 -7.718 0 
-3.995 -3.668 -1.4985 -6.501 -6.0655 -4.387 -5.6405 -5.2755 -5.3925 -5.617 -5.2935 -6.747 -4.949 -5.7895 -7.1855 -9.5705 -7.718 
-3.995 -4.834 -6.501 -6.9975 -8.6895 -6.956 -6.795 -8.5825 -6.4785 -9.4965 -8.894 -7.005 -6.127 -7.597 -15.1086 -9.5705 
-4.9465 -9.531 -6.9975 -9.574 -10.092 -7.9125 -9.737 -9.083 -10.697 -13.4494 -9.247001 -7.7135 -7.622 -15.9267 -15.1086 
-9.6245 -9.8885 -9.574 -11.1741 -11.4107 -10.733 -10.2783 -13.5191 -14.6499 -13.8024 -9.696501 -9.495501 -16.0331 -15.9267 
-2.0935 -3.668 0 -3.7745 -4.344 -3.3035 -7.718 0 -3.961 -2.0935 -2.915 -4.8775 -1.756 -4.23 
-3.995 -3.668 -3.7745 -6.0965 -7.457001 -11.9291 -7.718 -3.961 -4.809 -4.646501 -7.4965 -6.015 -5.3925 
-3.995 -8.092001 -6.0965 -10.6991 -16.5436 -11.9291 -12.5018 -4.809 -8.137 -9.586 -8.258 -7.7515 
-8.2065 -10.5425 -10.6991 -19.7857 -16.5436 -16.7129 -13.3498 -8.137 -13.4757 -10.0465 -10.1 
-10.7516 -15.0933 -19.7857 -19.7857 -21.3274 -17.5609 -16.6778 -13.4757 -13.9362 -11.8885 
-3.668 0 -5.593 -3.7555 -2.5195 -1.4985 -5.8725 -2.3345 -4.1145 -1.934 -10.201 
-3.668 -5.593 -10.427 -6.037 -3.1695 -6.670501 -8.604501 -7.519501 -6.838 -13.1414 
-10.4675 -10.427 -12.7085 -6.7125 -8.243501 -9.3535 -14.0183 -10.0995 -18.778 
-15.3015 -12.7085 -13.384 -12.0143 -11.0875 -14.8285 -16.5983 -22.2715 
-17.583 -13.384 -18.6858 -14.8583 -16.5625 -17.4085 -28.7703 
-3.668 -2.915 -4.855 -1.756 -4.23 -4.0535 -2.186 -9.346001 -2.7835 -3.7745 -9.304501 
-7.1635 -6.228001 -6.0445 -5.3925 -9.063 -5.513 -12.7424 -12.4755 -7.574 -14.3652 
-9.7165 -6.831 -7.7535 -10.0645 -10.7495 -17.0064 -15.8719 -17.266 -18.7465 
-10.5123 -8.361 -12.8749 -12.019 -22.2429 -20.1359 -20.6624 -28.4385 
-12.0423 -13.5348 -14.8294 -23.5124 -25.3724 -24.9264 -31.8349 
