-4.759 
n/a 
n/a 
n/a 
n/a 
-4.759 
n/a 
n/a 
n/a 
n/a 
-4.759 
n/a 
n/a 
n/a 
n/a 
-4.759 
n/a 
n/a 
n/a 
n/a 
-2.3615 -3.7095 -4.621 -3.6115 -12.16972 -2.7415 -5.452 -1.8085 -4.8825 
-6.351 -8.678 -9.064501 -16.87562 -14.91122 -6.344501 -7.1655 -5.400001 
-12.0917 -13.4833 -22.45102 -19.61712 -18.51422 -8.371 -11.3444 
-16.897 -26.86982 -25.19252 -23.22012 -20.54072 -12.7791 
-30.28352 -29.61132 -28.79552 -25.24662 -24.94882 
-2.3615 -5.715 -3.468 -8.881001 -3.741 -2.7415 -5.452 -2.3345 -3.6205 
-7.167 -8.932 -13.3302 -13.194 -6.388 -6.344501 -6.429 -6.765 
-10.4675 -19.2672 -17.6432 -15.841 -9.1835 -7.07 -11.6685 
-20.7667 -23.5802 -20.2902 -18.6365 -9.959001 -12.4929 
-25.0797 -26.2272 -23.0857 -19.412 -15.5231 
-1.4985 -7.462 -3.9725 -2.7415 -4.867 -2.5195 -5.7755 -3.2615 -3.4625 -5.6205 -1.7565 -3.4715 -2.3345 -9.934 -1.756 -1.4985 -5.154 -12.16972 -5.7255 -2.356 -1.4985 -3.9725 -1.7695 -3.9915 -3.091 -3.783 -1.8085 -4.372 -1.7565 -3.4715 0 
-8.743 -9.3175 -6.3315 -6.511001 -5.4185 -7.868 -7.717 -5.2175 -7.2095 -5.972 -4.699 -6.068501 -11.1355 -12.0988 -3.0405 -5.884001 -18.17392 -17.89522 -6.8515 -3.1615 -4.88 -6.317 -4.583 -6.867001 -5.721 -6.082 -5.629 -6.3605 -4.699 -3.4715 
-9.5765 -10.6745 -9.896501 -6.717 -8.983 -10.3815 -10.2755 -8.8785 -7.262 -8.327 -6.9325 -15.4233 -13.3003 -13.3833 -7.377 -19.25072 -23.89942 -19.02122 -7.4715 -6.5455 -6.853001 -9.035 -7.2545 -9.389 -7.772 -9.2025 -6.9215 -7.0205 -4.699 
-10.751 -14.2395 -10.032 -10.434 -11.6483 -12.94 -13.9365 -8.922501 -9.599 -10.057 -16.5983 -17.5881 -14.5848 -17.7198 -20.81172 -24.97622 -25.02542 -19.64122 -9.483 -8.405001 -9.1575 -10.524 -9.644001 -11.8174 -10.3475 -10.5535 -7.1675 -7.0205 
-14.316 -14.375 -13.7866 -13.0993 -14.2068 -16.601 -13.9805 -11.3635 -11.3254 -19.737 -18.7631 -18.8726 -18.9213 -31.15452 -26.53722 -26.10222 -25.64542 -21.65272 -10.0295 -10.3215 -10.7035 -12.9135 -11.9812 -14.3929 -11.6985 -10.706 -7.1675 
-9.0865 
n/a 
n/a 
n/a 
n/a 
