-4.759 
n/a 
n/a 
n/a 
n/a 
-4.759 
n/a 
n/a 
n/a 
n/a 
-4.759 
n/a 
n/a 
n/a 
n/a 
-4.759 
n/a 
n/a 
n/a 
n/a 
-3.6055 -3.845 -2.7415 -4.4505 -1.756 -2.7415 -3.4905 -2.688 -2.915 
-7.554501 -6.632 -6.462501 -5.926 -4.4655 -5.2925 -5.977 -5.3815 
-10.389 -9.088501 -7.461 -9.1095 -7.752 -8.619 -8.2845 
-12.8455 -9.6765 -9.854 -12.5224 -11.4883 -11.0801 
-13.4335 -12.1785 -13.2669 -16.2587 -13.9494 
-3.345 -3.845 -4.0555 -2.356 -4.705 -1.7565 -4.258 -1.756 -3.994 -1.7565 -4.1435 -2.915 0 
-6.927501 -7.9145 -5.6055 -7.2475 -5.850501 -5.78 -5.193501 -6.741 -5.113 -5.813 -6.245 -2.915 
-11.9288 -8.9805 -11.1832 -7.7065 -7.322501 -6.8365 -10.335 -7.0925 -7.82 -7.9215 -6.245 
-12.9948 -14.7682 -11.6422 -9.710501 -8.264001 -11.9462 -10.5055 -9.757 -9.717 -7.9215 
-18.7825 -15.2272 -13.6462 -10.741 -13.7925 -12.1167 -13.17 -11.706 -9.717 
-4.426 -1.7565 -1.4985 -3.0835 -4.7285 -4.1555 -3.147 0 
-5.47 -2.4195 -3.535 -6.042 -8.4455 -5.77 -3.147 
-5.9535 -4.6785 -6.335501 -9.523001 -9.541501 -5.77 
-8.021 -7.476501 -10.0095 -10.7035 -9.541501 
-9.983001 -11.3061 -11.3 -10.7035 
-3.345 -2.95 0 -1.4985 -3.452 -2.186 -4.354 0 -5.0315 -1.756 -3.4905 -2.356 -2.915 -1.756 -3.321 -3.793 
-5.132501 -2.95 -1.4985 -4.4485 -5.049 -6.495 -4.354 -5.0315 -6.521501 -5.521 -6.3595 -5.294001 -4.266 -4.0055 -7.2515 
-5.132501 -4.514 -4.4485 -5.5835 -8.364 -6.495 -8.712 -6.521501 -8.565001 -8.076 -9.1505 -6.4595 -6.7445 -7.758 
-6.1085 -7.399 -5.5835 -8.486 -8.364 -11.611 -9.064501 -8.565001 -11.7126 -11.0286 -10.7505 -9.312 -10.6605 
-9.352501 -8.120001 -8.486 -8.486 -14.1306 -11.9635 -11.6474 -11.7126 -14.6652 -12.6286 -13.603 -13.2598 
