-4.759 
n/a 
n/a 
n/a 
n/a 
-4.759 
n/a 
n/a 
n/a 
n/a 
-4.759 
n/a 
n/a 
n/a 
n/a 
-4.759 
n/a 
n/a 
n/a 
n/a 
-10.914 -13.038 -2.7455 -8.611501 -1.756 -12.16972 
-24.296 -15.31 -12.3156 -9.930501 -14.93432 
-26.224 -25.4151 -13.6346 -23.10882 
-36.3291 -26.7341 -26.81292 
-37.6481 -39.91242 
-12.16972 -3.355 -2.7455 -5.1325 -1.756 -2.985 -3.9035 0 
-15.52472 -6.113 -7.787 -6.729 -4.2025 -6.646501 -3.9035 
-18.28272 -11.4895 -10.041 -9.908 -7.527 -6.646501 
-23.65922 -13.7435 -13.22 -13.3047 -7.527 
-25.91322 -16.9225 -16.6167 -13.3047 
-12.16972 -4.126 -2.186 -3.644 -2.7455 -9.355 -10.8905 
-16.29572 -5.985001 -6.868501 -6.078501 -13.0591 -20.6111 
-18.15472 -10.9769 -8.733001 -16.8167 -24.3152 
-23.14662 -12.8414 -19.8064 -28.0728 
-25.01112 -23.9148 -31.0625 
-12.16972 -5.213 -4.6525 -8.1885 -1.756 -12.16972 
-17.38272 -10.168 -14.1548 -9.769001 -14.93432 
-22.33772 -19.7649 -15.7353 -22.97092 
-31.93462 -21.3454 -28.93722 
-33.51512 -34.54732 
