-4.759 
n/a 
n/a 
n/a 
n/a 
-4.759 
n/a 
n/a 
n/a 
n/a 
-4.759 
n/a 
n/a 
n/a 
n/a 
-4.759 
n/a 
n/a 
n/a 
n/a 
-1.934 -3.994 -1.7695 -1.4985 -3.127 -3.8825 -1.934 -1.4985 -7.4525 0 -3.0365 -2.186 -1.4985 -4.656 -1.7565 -4.304 -3.135 -2.645 -3.127 -2.3615 -3.3755 -2.186 -4.076 -2.3345 -3.3425 -2.3615 -3.135 -2.645 -3.499 -2.7765 -3.4465 -2.985 -3.127 -3.9485 -2.356 -1.4985 -3.8825 -3.127 0 
-4.095 -4.3645 -2.7955 -4.269 -7.094 -4.9695 -2.6125 -9.13 -7.4525 -3.0365 -3.66 -3.339 -4.866 -4.96 -5.8745 -6.3335 -5.188001 -5.796 -5.674 -4.8525 -5.5045 -5.795 -7.2365 -4.554 -4.77 -6.285501 -5.188001 -6.148001 -5.529 -5.485001 -5.3665 -5.8695 -6.836 -4.311 -3.1615 -4.569 -6.6105 -3.127 
-4.418 -4.8665 -5.6635 -8.065001 -7.8255 -5.375 -10.6215 -9.13 -10.688 -3.66 -5.482 -6.389 -5.0375 -7.476501 -7.8875 -7.621 -7.8815 -8.3325 -8.016001 -6.58 -9.647501 -8.549001 -9.351 -5.289 -9.391001 -7.582 -8.658501 -8.421 -7.6005 -6.864501 -7.7515 -9.2255 -6.9835 -4.981 -6.2355 -7.2475 -6.6105 
-4.9315 -7.585001 -9.5675 -8.4385 -8.109 -13.6182 -10.6215 -12.5191 -11.3115 -5.482 -6.732 -6.727 -7.548501 -9.080001 -9.302 -10.3885 -10.0745 -10.6475 -9.523001 -10.172 -12.4161 -10.0855 -10.622 -10.8718 -10.8927 -11.5963 -11.0813 -10.586 -7.966001 -9.43 -11.5883 -9.341001 -7.6215 -8.5825 -8.491501 -7.2475 
-7.611 -11.8804 -9.7565 -8.608001 -16.7238 -13.6182 -14.0106 -13.1426 -13.1335 -6.732 -7.0985 -9.068501 -9.2655 -10.8533 -12.1113 -12.5815 -12.4785 -12.1545 -13.1874 -12.9406 -13.9526 -11.4371 -16.2048 -12.3735 -14.907 -14.0191 -13.2463 -10.9515 -11.1041 -13.3144 -11.7038 -10.056 -11.4804 -10.717 -8.491501 
-2.3615 -3.64 -3.5725 -4.1145 -2.229 -4.267 -1.756 -3.737 -3.77 -2.0935 -2.4265 -1.7695 -3.3755 -1.7565 -4.1145 0 
-6.844501 -7.606 -9.498501 -6.818501 -6.412 -6.1165 -5.2025 -7.264 -5.3235 -4.488 -4.11 -7.094501 -4.5295 -6.695001 -4.1145 
-11.8025 -13.9502 -12.4721 -11.6915 -8.534 -9.3905 -8.999001 -9.172501 -7.679501 -5.555 -9.443001 -8.413501 -10.1855 -6.695001 
-18.1467 -16.9238 -17.3451 -13.8135 -12.0026 -13.713 -10.718 -11.7367 -8.045501 -11.9722 -10.8092 -14.4217 -10.1855 
-21.1203 -21.7968 -19.4671 -17.2821 -16.3251 -15.432 -13.2822 -12.1027 -14.8135 -13.3384 -16.8174 -14.4217 
-2.186 -2.6165 -3.0365 -3.64 -2.4945 -4.6905 -2.186 -3.4865 0 -2.264 -1.4985 -3.3755 -2.688 -2.9195 -2.4945 -3.769 -3.9205 -4.23 -2.186 -3.6955 -3.898 
-3.5105 -5.528501 -8.1055 -5.508 -6.687 -7.848001 -6.2065 -3.4865 -2.264 -2.9195 -4.057 -6.566501 -6.267 -6.462 -6.25 -7.7235 -9.476501 -6.1785 -6.5235 -8.7405 
-6.3665 -10.341 -10.0155 -10.375 -9.268001 -12.2213 -6.2065 -6.422501 -2.9195 -5.120501 -6.918 -9.899 -9.668001 -10.7575 -10.204 -14.0379 -11.507 -11.3396 -11.7915 
-11.3416 -12.3856 -14.8825 -13.646 -13.7813 -12.2213 -8.868 -7.168 -5.120501 -7.584001 -10.5125 -13.7448 -14.0479 -14.7115 -16.578 -16.0684 -16.6681 -16.6076 
-13.3862 -17.2526 -18.1535 -18.1593 -13.7813 -14.8828 -9.493 -9.110001 -7.584001 -11.3973 -14.6615 -18.1247 -18.0019 -21.0855 -18.6085 -21.2295 -21.9361 
-4.304 -3.64 -2.3335 -2.4945 -2.688 -1.7695 -4.1145 -2.186 -3.8535 -1.934 -1.8085 -3.4865 -6.525001 -3.319 -1.7565 -4.23 -2.688 -5.593 -2.4945 -5.237 -2.3345 -4.1145 
-7.424001 -5.7285 -3.947 -5.5045 -4.847 -6.501 -6.3365 -4.972 -5.002 -3.2685 -4.572001 -9.5065 -9.7425 -4.165 -5.984001 -6.7105 -8.351 -7.497001 -6.2485 -6.264 -7.519501 
-9.5495 -6.596 -6.816501 -6.001 -8.5465 -8.8575 -9.491 -5.9665 -6.0005 -5.931 -9.495501 -12.692 -9.889501 -8.4215 -8.941001 -13.6071 -10.0315 -11.8512 -7.494 -12.1488 
-10.5245 -9.81 -7.172 -9.3535 -11.5678 -12.5282 -10.544 -6.8415 -8.6285 -9.654 -12.9881 -12.8431 -14.6323 -11.6363 -16.2126 -15.2876 -14.4607 -13.0967 -13.6058 
-13.7385 -10.4077 -10.3605 -12.5522 -15.2385 -13.5812 -11.8014 -9.184 -11.9945 -12.9789 -13.0544 -17.6024 -17.8471 -18.9079 -17.8931 -19.7168 -15.7062 -19.2085 
