-4.759 
n/a 
n/a 
n/a 
n/a 
-4.759 
n/a 
n/a 
n/a 
n/a 
-4.759 
n/a 
n/a 
n/a 
n/a 
-4.759 
n/a 
n/a 
n/a 
n/a 
-1.934 -1.4985 -3.5905 -3.531 -2.855 0 -4.5115 -2.5195 -1.4985 -4.891 0 -1.756 -3.6615 -3.43 -1.934 -1.4985 -4.5175 -1.756 -6.274 -1.7565 -1.4985 -4.257 0 
-2.6125 -5.627501 -6.061 -5.2325 -2.855 -4.5115 -6.4665 -3.1695 -5.891001 -4.891 -1.756 -5.509 -5.783501 -4.639 -2.6125 -6.087 -5.535 -7.584 -7.791 -2.4195 -5.0245 -4.257 
-6.559501 -9.261001 -8.102501 -5.2325 -6.2275 -6.4665 -7.1455 -7.964 -5.891001 -6.593 -5.509 -7.514501 -6.683001 -5.242 -6.934 -7.0595 -12.6468 -8.812 -8.2875 -5.709001 -5.0245 
-10.298 -9.458 -8.102501 -6.8 -8.718 -7.1455 -12.4058 -7.964 -7.402 -11.0342 -7.514501 -8.415501 -7.074501 -9.753501 -7.955 -14.8373 -13.8748 -9.0275 -11.8304 -5.709001 
-10.495 -9.458 -9.309 -9.1745 -9.2925 -12.4058 -12.4058 -8.950001 -12.0304 -13.0397 -8.415501 -8.932501 -11.8092 -10.7099 -15.9984 -16.0653 -14.0903 -12.6734 -11.8304 
-4.0995 -1.4985 -4.299 -2.264 -3.5905 -3.531 -2.855 0 -6.144 -3.251 -3.43 -3.845 -1.7565 -3.6615 -1.934 -2.985 -3.9655 -4.0445 0 
-4.5135 -5.463 -5.322001 -6.718 -6.061 -5.2325 -2.855 -6.144 -8.1085 -5.49 -8.513 -4.13 -5.23 -4.437 -4.111 -6.0915 -7.722 -4.0445 
-7.5625 -6.2565 -10.5325 -9.572001 -8.102501 -5.2325 -9.690001 -8.1085 -10.0575 -10.4035 -8.6995 -6.8195 -5.6525 -6.3995 -7.407001 -9.6425 -7.722 
-8.460001 -11.7578 -13.3865 -10.4525 -8.102501 -13.0415 -11.8785 -10.0575 -14.971 -10.634 -10.061 -7.523 -7.888 -9.274 -10.1465 -9.6425 
-14.1051 -14.6118 -14.267 -10.4525 -16.2243 -15.23 -13.8275 -14.971 -15.2015 -11.9955 -10.5485 -9.472501 -10.8523 -12.4007 -10.1465 
-3.5905 -3.777 -2.855 -3.2615 -5.1395 -2.7415 -4.099 -1.934 -1.4985 -3.5165 -2.5045 -3.7875 -5.9325 -1.7695 -3.2495 -1.7565 -1.4985 -5.5515 
-6.75 -5.5205 -6.731 -8.403501 -7.322001 -5.601 -5.1385 -2.6125 -4.849 -6.502501 -5.369 -8.357 -6.492001 -5.112 -4.822 -2.4195 -6.4245 
-8.597 -10.2085 -12.0778 -9.6715 -10.647 -6.4465 -5.647 -5.546 -7.0435 -8.974501 -9.913 -8.982501 -9.118501 -6.699501 -5.203 -7.185 
-13.5728 -15.5553 -13.3458 -13.1879 -11.4925 -6.942501 -7.542 -7.623 -9.244501 -13.5337 -10.227 -11.7222 -10.3745 -6.9935 -9.346001 
-18.9196 -16.8233 -16.8622 -14.0334 -11.9885 -8.4545 -8.906 -9.427 -13.8471 -13.8477 -13.3199 -12.9782 -10.6995 -10.374 
-3.2615 -3.5905 -3.531 -2.855 -4.299 -6.144 -3.9235 -4.037 -2.985 -2.9635 -2.264 -3.9655 -1.756 -4.0415 -3.772 
-7.223001 -6.061 -5.2325 -6.997 -9.439001 -9.669001 -9.278001 -7.311501 -6.3005 -5.3015 -6.052 -5.2915 -5.4935 -6.953 
-10.586 -8.102501 -7.8175 -12.573 -12.9884 -15.0721 -12.7715 -10.1855 -7.5455 -9.102 -7.2005 -6.691 -8.115 
-12.6275 -10.533 -13.6017 -16.1224 -18.3915 -18.5656 -15.6455 -11.5327 -11.854 -10.3825 -8.7705 -9.0985 
-15.058 -16.3172 -17.1511 -21.5255 -21.885 -21.4396 -16.9927 -15.8412 -13.1345 -11.9525 -11.5116 
