-4.759 
n/a 
n/a 
n/a 
n/a 
-4.759 
n/a 
n/a 
n/a 
n/a 
-4.759 
n/a 
n/a 
n/a 
n/a 
-4.759 
n/a 
n/a 
n/a 
n/a 
-6.702 -8.316 -3.5085 -3.787 -1.7695 -2.461 -3.4045 -2.871 -1.7695 -3.995 -4.4755 -1.756 -2.855 -4.323 -3.5795 
-15.5426 -12.1647 -7.318501 -5.827001 -4.7825 -6.4825 -6.169001 -4.734 -5.497 -8.594001 -6.1895 -5.415 -6.7755 -9.315001 
-19.3913 -15.9747 -9.7355 -8.474001 -8.765501 -9.3995 -8.6285 -9.452001 -10.564 -10.6735 -10.2485 -8.632501 -12.1919 
-23.2013 -18.3917 -12.3825 -12.9818 -11.8677 -11.8596 -13.7805 -14.5732 -12.6435 -14.7325 -13.466 -14.3629 
-25.6183 -21.0387 -16.8903 -16.084 -14.3278 -17.0116 -18.9017 -16.6527 -16.7025 -17.95 -19.1964 
-3.5085 -3.962 -3.9115 -1.7565 -4.392 -2.186 -5.088 -2.5045 -4.5905 -2.229 -2.925 -3.355 -1.7695 -2.855 -6.142 0 
-8.153501 -7.5815 -5.1855 -6.451001 -5.9905 -6.955 -6.34 -7.484 -6.5275 -5.247 -6.623 -5.411 -5.3235 -8.519 -5.1775 
-10.0125 -7.91 -9.986001 -8.407001 -11.5951 -8.9905 -11.3889 -9.613501 -10.3489 -9.456501 -9.5535 -9.509001 -11.4015 -8.681 
-10.481 -13.2149 -12.237 -14.002 -13.6306 -14.3122 -13.5184 -13.5377 -14.5584 -12.5374 -13.7309 -16.0388 -11.5209 
-16.2181 -15.4659 -17.832 -16.0375 -18.9523 -16.4417 -17.4426 -17.7472 -17.6393 -16.7148 -20.2607 -16.0388 
-4.9845 -3.5085 -8.345 -3.9035 -3.995 -3.0835 -2.855 -6.142 -3.5005 
-8.584001 -12.277 -13.025 -8.965 -6.975 -6.5625 -8.519 -9.370501 
-16.8293 -16.0845 -17.7885 -12.1004 -10.956 -13.0999 -13.9625 
-22.216 -22.2056 -21.3343 -16.0814 -17.4934 -18.4506 
-28.1259 -25.341 -25.3153 -22.6188 -22.8441 
-3.2495 -3.859 -1.7565 -4.6985 -2.229 -3.5085 -3.9115 -2.186 -3.8825 -3.5445 -7.131001 -2.5195 -3.995 0 
-6.999001 -5.23 -6.739501 -7.517 -5.5445 -6.17 -5.939 -5.3085 -6.634501 -9.995001 -8.428 -6.152 -3.995 
-7.6235 -11.2412 -9.3175 -9.681 -8.326 -7.820001 -9.39 -7.551001 -13.3552 -12.0544 -12.2953 -6.152 
-13.8569 -13.8192 -11.5521 -12.8709 -9.412001 -11.5334 -11.6925 -14.4943 -15.4146 -15.9217 -12.2953 
-16.4349 -16.0538 -14.742 -13.9569 -13.1632 -13.8359 -18.6358 -16.5537 -19.2819 -15.9217 
