-4.759 
n/a 
n/a 
n/a 
n/a 
-4.759 
n/a 
n/a 
n/a 
n/a 
-4.759 
n/a 
n/a 
n/a 
n/a 
-4.759 
n/a 
n/a 
n/a 
n/a 
-4.426 -1.7565 -1.4985 -3.6115 -4.7285 -4.1555 -3.147 -2.872 -2.4265 -5.654 -2.5045 -1.8085 -5.213 0 -2.5045 -3.543 -3.1435 -4.113 0 -3.7685 -1.756 -3.9745 0 -2.4265 -4.3195 -2.5045 -5.481 0 
-5.47 -2.4195 -4.081 -6.5495 -8.4455 -5.77 -5.347 -4.062 -7.194 -8.5465 -3.3625 -6.431001 -5.213 -2.5045 -5.323 -7.543 -7.073 -4.113 -3.7685 -5.4255 -5.4965 -3.9745 -2.4265 -5.45 -6.9885 -8.904 -5.481 
-5.9535 -5.180501 -6.670501 -9.978001 -9.541501 -8.638 -6.4885 -9.214001 -9.808001 -9.275001 -7.905 -6.431001 -7.119 -5.323 -7.784 -11.9039 -7.073 -7.941501 -5.4255 -10.5855 -5.4965 -6.343 -5.45 -8.184501 -13.7564 -8.904 
-8.462501 -7.797 -10.054 -11.0524 -12.4095 -9.7005 -11.9663 -11.9338 -10.535 -13.9259 -7.905 -8.748501 -10.111 -7.784 -12.2565 -11.9039 -10.7565 -8.798501 -10.5855 -10.5855 -8.0485 -9.2605 -8.184501 -15.1788 -13.7564 
-10.2375 -11.2985 -11.1648 -13.9204 -13.472 -15.2823 -14.6861 -12.6608 -15.1859 -13.9259 -9.9645 -11.7817 -12.6688 -12.2565 -12.2565 -15.5874 -11.6135 -14.7509 -10.5855 -13.1375 -11.0224 -12.0018 -15.1788 -15.1788 
-2.872 -2.4265 -2.186 -5.043 -2.5045 -5.5025 0 -2.645 -4.8155 -2.4945 -4.296 -4.641 -3.893 -1.4985 -4.113 0 -3.8665 -4.663 0 
-4.062 -3.292 -7.9585 -7.566501 -8.517501 -5.5025 -2.645 -8.0655 -6.3875 -5.67 -8.3985 -5.812 -4.573 -5.425 -4.113 -3.8665 -8.302 -4.663 
-4.7985 -9.358001 -11.0212 -13.8873 -8.517501 -8.2045 -8.0655 -9.710501 -9.006001 -10.004 -9.4045 -6.193 -8.551001 -5.425 -7.3205 -8.302 -8.302 
-11.2063 -12.5935 -17.342 -13.8873 -11.6297 -14.0706 -9.710501 -12.329 -13.4338 -10.9592 -9.56 -9.7935 -8.551001 -9.3615 -13.0212 -8.302 
-14.4418 -18.9143 -17.342 -16.9995 -17.4958 -15.7156 -12.329 -16.7568 -14.389 -11.1147 -13.2179 -9.7935 -12.6937 -14.5544 -13.0212 
-2.872 -2.4265 -2.7415 -4.794 -2.3345 -5.213 -3.2615 -2.3335 -3.1435 -4.113 0 -4.237 0 -3.8665 -3.8965 -2.4945 -3.8755 -2.5045 -4.8155 0 
-4.062 -3.681 -6.637 -5.291 -7.047 -7.899 -5.0495 -5.137 -7.073 -4.113 -4.237 -4.237 -3.8665 -7.285 -8.349501 -5.463 -5.988501 -7.884001 -4.8155 
-5.1385 -8.033 -7.5255 -10.233 -10.479 -9.820001 -7.819 -9.166 -7.073 -8.446501 -4.237 -8.2585 -7.285 -12.3266 -11.4396 -7.235001 -12.0522 -7.884001 
-9.712001 -9.073501 -13.0117 -13.665 -12.4 -12.8439 -12.2946 -9.166 -11.7611 -8.446501 -8.2585 -12.351 -12.3266 -15.4167 -13.2116 -13.2007 -12.0522 
-10.337 -14.8973 -16.4437 -15.586 -15.4239 -17.3195 -12.2946 -14.0565 -11.7611 -12.9808 -12.351 -17.3926 -15.4167 -17.1887 -19.1773 -13.2007 
-2.872 -3.2615 -4.2775 -3.222 -5.5025 0 -2.925 -2.674 -4.164 -3.1435 -3.741 0 -4.4495 -3.618 -1.756 -4.2775 -4.8155 -2.4945 -4.2785 
-5.3645 -8.1885 -7.222 -8.772501 -5.5025 -2.925 -4.1785 -5.316 -6.077 -7.677501 -3.741 -4.4495 -9.390501 -4.8765 -6.009 -8.1715 -6.3875 -5.7605 
-10.8847 -11.4514 -13.3259 -8.772501 -8.0645 -4.1785 -6.9325 -7.9315 -11.6388 -7.677501 -7.5895 -9.390501 -10.6355 -9.7995 -10.3035 -10.032 -9.7305 
-14.1476 -17.5553 -13.3259 -11.6343 -9.1115 -6.9325 -10.025 -13.4929 -11.6388 -11.9302 -13.4301 -10.6355 -15.5585 -14.094 -12.287 -13.375 
-20.2515 -17.5553 -16.1877 -12.6813 -12.0009 -10.025 -15.6516 -13.4929 -15.8915 -17.7708 -14.6751 -15.5585 -19.853 -16.0775 -15.63 
