-4.759 
n/a 
n/a 
n/a 
n/a 
-4.759 
n/a 
n/a 
n/a 
n/a 
-4.759 
n/a 
n/a 
n/a 
n/a 
-4.759 
n/a 
n/a 
n/a 
n/a 
-1.934 -2.3615 -3.585 -9.8135 -2.186 -12.16972 -1.934 -1.7695 -5.7115 
-3.539 -5.071 -14.3977 -12.2111 -15.56612 -14.10372 -4.0395 -7.457001 
-5.9845 -16.3763 -16.7953 -25.59122 -17.50012 -16.20922 -10.66 
-17.3314 -18.7739 -30.17542 -27.52522 -19.60562 -22.82972 
-19.729 -32.15402 -32.10942 -29.63072 -26.22612 
-2.3615 -3.974 -4.959 -3.7905 -3.4625 -1.7695 -5.7115 0 
-5.7455 -9.099001 -9.334 -8.1845 -5.0775 -7.457001 -5.7115 
-11.3509 -13.6992 -13.8416 -10.564 -10.4765 -7.457001 
-15.9511 -18.2068 -16.2211 -15.963 -10.4765 
-20.4587 -20.5863 -21.6201 -15.963 
-1.934 -2.3615 -3.585 -4.959 -2.186 -4.881 -3.222 -5.7115 0 
-3.539 -5.071 -8.505 -6.731 -6.005 -5.6785 -7.9735 -5.7115 
-5.9845 -9.555 -9.484 -8.996 -6.598001 -9.1145 -7.9735 
-9.772 -10.073 -11.8862 -9.309 -9.534 -9.1145 
-10.2205 -12.7032 -12.1992 -9.725 -9.534 
-1.934 -2.3615 -4.959 -2.186 -4.881 -1.7695 -5.7115 0 
-3.539 -7.913 -6.731 -6.005 -5.315 -7.457001 -5.7115 
-9.578501 -8.986501 -8.996 -6.27 -9.181 -7.457001 
-10.6968 -11.3293 -9.387501 -9.6335 -9.181 
-13.0396 -11.7208 -9.727 -9.6335 
