-4.759 
n/a 
n/a 
n/a 
n/a 
-4.759 
n/a 
n/a 
n/a 
n/a 
-4.759 
n/a 
n/a 
n/a 
n/a 
-4.759 
n/a 
n/a 
n/a 
n/a 
-3.115 -2.3615 -2.925 -2.742 -2.489 -3.867 -1.4985 -5.678 -2.871 -2.3345 -2.871 -8.7115 -1.7565 -2.791 0 
-4.312 -5.8255 -4.3725 -3.301 -6.235001 -5.1165 -6.823501 -9.107 -5.35 -4.9425 -12.7805 -8.7445 -4.4165 -2.791 
-6.9875 -7.085 -4.932 -6.884 -7.2495 -10.9769 -9.561001 -11.7946 -5.8075 -15.2924 -12.8135 -11.8613 -4.4165 
-8.351001 -7.9085 -8.418501 -7.919001 -13.3683 -13.7144 -12.5366 -12.2521 -16.5608 -15.3254 -15.9303 -11.8613 
-9.3325 -11.6654 -9.494501 -14.1852 -16.1058 -16.69 -12.9941 -23.0054 -16.5938 -18.4422 -15.9303 
-3.1495 -4.7005 -3.2345 -1.4985 -3.213 -4.4945 
-5.9445 -8.34 -4.328 -4.3955 -7.6975 
-10.686 -9.901501 -7.2715 -8.668 
-12.2475 -12.916 -11.8882 
-15.262 -17.5327 
-3.115 -2.3615 -2.925 -3.3165 -3.3255 -1.756 -3.322 -2.9905 -1.4985 -8.5425 -5.117 -2.871 -2.3345 -2.871 0 -1.934 -3.9175 -1.7565 -2.791 0 
-4.312 -5.8255 -5.435 -5.0715 -5.539001 -5.0645 -6.0645 -4.143 -10.1995 -10.058 -8.246 -5.35 -4.9425 -2.871 -1.934 -4.681 -4.64 -4.4165 -2.791 
-6.9875 -8.498 -6.775001 -6.74 -7.8765 -7.41 -7.0745 -13.2256 -11.715 -13.3416 -11.0706 -5.8075 -4.9425 -4.8125 -4.681 -4.7425 -6.456501 -4.4165 
-9.4235 -9.940001 -8.453501 -8.762 -10.7952 -8.3155 -16.5657 -14.7411 -14.9986 -16.1662 -11.5281 -5.8075 -6.981 -7.2365 -4.7425 -6.459001 -6.456501 
-10.9053 -11.6267 -10.7195 -12.0179 -11.7007 -17.8745 -18.0812 -18.0247 -17.8232 -16.6237 -11.5281 -7.2235 -9.253 -7.4095 -6.459001 -6.459001 
-3.1495 -3.6055 -7.994 -2.911 -1.756 -3.3235 -3.322 0 
-7.4575 -12.9311 -11.2194 -5.0065 -4.982 -6.386001 -3.322 
-17.4741 -16.1565 -13.3149 -9.507501 -7.7655 -6.386001 
-20.6995 -18.252 -17.8159 -12.4664 -7.7655 
-22.795 -22.753 -20.7748 -12.4664 
