-4.759 
n/a 
n/a 
n/a 
n/a 
-4.759 
n/a 
n/a 
n/a 
n/a 
-4.759 
n/a 
n/a 
n/a 
n/a 
-4.759 
n/a 
n/a 
n/a 
n/a 
-6.7875 0 -1.756 -4.2225 -4.834 -3.1385 -2.4945 -5.673 -3.1405 
-6.7875 -1.756 -5.5795 -9.4265 -8.248 -4.588 -7.3295 -9.876501 
-9.354 -5.5795 -11.2217 -13.2187 -9.3395 -10.228 -12.1222 
-13.2077 -11.2217 -15.0139 -14.3102 -15.1455 -15.0207 
-18.8499 -15.0139 -16.1054 -20.1162 -19.9382 
-12.16972 -12.16972 -12.16972 -12.16972 -12.16972 
-24.33944 -24.33944 -24.33944 -24.33944 
-36.50916 -36.50916 -36.50916 
-48.67888 -48.67888 
-60.8486 
-4.23 0 -1.756 -4.2225 -2.4945 -4.1865 0 
-4.23 -1.756 -5.5795 -5.862 -7.5425 -4.1865 
-5.6005 -5.5795 -7.176 -11.5142 -7.5425 
-9.995501 -7.176 -13.0554 -11.5142 
-11.592 -13.0554 -13.0554 
-4.9225 0 -4.2225 -2.4945 -4.288 -3.8035 
-4.9225 -4.2225 -5.862 -5.297501 -9.143 
-8.8485 -5.862 -9.342501 -10.181 
-10.9212 -9.342501 -14.4914 
-14.4017 -14.4914 
