-4.759 
n/a 
n/a 
n/a 
n/a 
-4.759 
n/a 
n/a 
n/a 
n/a 
-4.759 
n/a 
n/a 
n/a 
n/a 
-4.759 
n/a 
n/a 
n/a 
n/a 
-1.934 -1.4985 -3.277 -1.7565 -10.912 -4.5935 -1.7565 -6.4155 -1.7565 -3.7765 -6.81 -1.4985 -5.211 -1.7565 -1.4985 -3.641 
-2.6125 -4.8015 -4.296 -7.767 -11.7045 -6.8525 -8.171 -8.5505 -4.756 -11.1415 -7.9005 -6.397 -6.630001 -2.4195 -4.644 
-5.7755 -6.158501 -11.551 -15.544 -15.3075 -14.099 -10.553 -10.4945 -12.9188 -12.232 -13.227 -7.150001 -7.156001 -5.497 
-7.338 -11.064 -17.7855 -18.097 -22.554 -16.481 -12.497 -18.6573 -14.0093 -17.5585 -13.98 -7.670501 -10.5761 
-12.6009 -18.3044 -20.0445 -25.3435 -24.936 -18.425 -20.6598 -19.7478 -19.3358 -18.3115 -14.5005 -11.1626 
-3.905 -4.5935 -2.3345 -3.7765 -3.5455 -10.912 -4.822 -4.02 -4.6385 
-8.384001 -7.111 -6.3225 -7.083 -9.855 -11.7045 -10.0345 -8.298 
-11.2295 -11.4568 -10.001 -11.726 -16.8535 -18.261 -14.3125 
-15.5753 -15.1353 -14.7524 -18.9632 -22.4882 -22.539 
-19.2538 -19.8867 -21.9896 -24.1757 -26.7662 
-3.5455 0 -10.912 -1.4985 -3.905 -4.6485 -1.934 -3.7765 -3.7115 -1.7695 -4.6385 -1.7695 -4.051 -3.959 0 
-3.5455 -6.2335 -7.99 -5.252501 -5.9305 -6.555 -4.9945 -7.899001 -6.8535 -6.871 -6.0175 -5.7285 -5.893 -3.959 
-10.0385 -9.184501 -11.577 -6.5765 -7.461 -8.671 -8.5015 -11.3496 -12.273 -8.2885 -9.715501 -6.847 -5.893 
-13.4117 -11.5998 -11.8198 -7.942501 -8.689501 -12.3924 -12.3417 -16.7691 -13.6905 -12.1921 -9.951 -6.847 
-15.827 -11.8198 -13.2522 -9.0185 -12.4231 -16.2326 -17.7612 -18.1866 -17.5941 -12.4276 -9.951 
-1.4985 -3.905 -4.6675 -1.7565 -3.7765 -2.9705 -4.0875 -3.5015 -3.5455 -5.451 -1.7695 -5.461 -4.822 -1.4985 -4.02 -3.9675 -2.645 0 
-5.252501 -8.2215 -6.8435 -4.756 -6.805 -5.8935 -5.143 -6.011 -9.0725 -7.384 -7.908501 -10.932 -6.9095 -4.969501 -6.4735 -6.571 -2.645 
-9.814 -10.8967 -10.4265 -7.6285 -9.618 -6.199 -6.6225 -11.821 -11.2201 -9.3865 -13.5771 -13.0195 -10.7371 -7.7735 -9.0285 -6.571 
-12.4892 -14.4797 -13.299 -10.5975 -10.0975 -7.621 -12.7327 -13.9686 -13.2226 -15.0939 -15.6646 -16.8471 -13.5411 -10.199 -9.0285 
-16.0722 -17.3522 -16.268 -11.077 -11.5483 -13.8576 -14.8803 -15.9711 -18.93 -17.1814 -19.4922 -19.6511 -15.9666 -10.199 
