-4.759 
n/a 
n/a 
n/a 
n/a 
-4.759 
n/a 
n/a 
n/a 
n/a 
-4.759 
n/a 
n/a 
n/a 
n/a 
-4.759 
n/a 
n/a 
n/a 
n/a 
-1.756 -3.074 -2.846 -3.499 -3.152 -4.648 -2.3345 -1.4985 -3.757 
-4.566 -7.189 -6.7145 -5.744 -6.538 -5.442 -3.233 -4.5435 
-8.841001 -10.76 -9.1085 -7.811501 -7.277 -5.5955 -5.679 
-12.4892 -13.154 -10.523 -8.248 -7.5375 -6.464 
-14.8832 -14.5685 -10.9595 -8.453501 -8.614 
-3.571 -2.846 -3.499 -2.4945 -4.648 -2.3345 -3.757 0 
-6.736 -6.7145 -5.2055 -6.1895 -5.442 -5.775001 -3.757 
-10.119 -8.632501 -7.0585 -6.574501 -7.1105 -5.775001 
-12.151 -9.7355 -7.247 -9.373501 -7.1105 
-13.254 -9.828501 -10.28 -9.373501 
-1.756 0 -2.846 -3.499 -2.4945 -4.645 -2.3345 -3.757 
-1.756 -2.846 -6.7145 -5.2055 -6.212501 -5.881001 -5.775001 
-5.3275 -6.7145 -8.632501 -6.9405 -6.748 -10.2865 
-8.377501 -8.632501 -9.869501 -7.2025 -11.5903 
-9.943001 -9.869501 -10.212 -12.5638 
-1.756 0 -2.846 -3.499 -2.4945 -4.645 -2.3345 -3.757 
-1.756 -2.846 -6.7145 -5.2055 -6.212501 -5.881001 -5.775001 
-5.3275 -6.7145 -8.632501 -6.9405 -6.748 -10.2865 
-8.377501 -8.632501 -9.869501 -7.2025 -11.5903 
-9.943001 -9.869501 -10.212 -12.5638 
