-4.759 
n/a 
n/a 
n/a 
n/a 
-4.759 
n/a 
n/a 
n/a 
n/a 
-4.759 
n/a 
n/a 
n/a 
n/a 
-4.759 
n/a 
n/a 
n/a 
n/a 
-1.934 -3.5715 -2.743 0 -4.559 0 -3.9465 -4.795 -4.4275 -1.4985 -5.7425 -3.355 -1.7565 -3.982 0 -1.4985 -12.16972 
-5.0835 -5.6095 -2.743 -4.559 -4.559 -3.9465 -9.452001 -7.7005 -5.274 -5.9445 -8.642 -3.725 -5.614 -3.982 -1.4985 -14.76202 
-8.319 -5.6095 -8.034 -4.559 -6.723 -9.452001 -12.4305 -8.165501 -10.3176 -8.706 -8.682501 -7.3915 -5.614 -5.838 -14.76202 
-8.319 -11.9955 -8.034 -6.723 -13.4285 -12.4305 -12.8955 -13.6843 -13.0791 -8.746 -12.5264 -7.3915 -7.022 -19.41292 
-14.7122 -11.9955 -10.8144 -13.4285 -16.407 -12.8955 -18.4143 -16.4458 -13.1191 -12.6397 -12.5264 -8.559501 -20.79072 
-1.934 -4.655 -3.5715 -1.4985 -4.257 -1.7565 -4.559 -1.756 -3.9465 -4.4275 -1.934 -1.7695 -1.4985 -4.3285 -4.1355 -1.7565 -3.982 0 
-6.7025 -6.991 -6.055 -5.0245 -5.552 -5.683 -5.633 -5.895 -8.567 -5.6585 -4.0395 -2.7955 -5.9905 -8.703001 -6.009501 -5.614 -3.982 
-9.953501 -9.0135 -8.9715 -6.333 -9.460501 -6.854 -6.8895 -9.466001 -10.292 -7.692501 -5.3685 -7.06 -9.9665 -10.9956 -8.685501 -5.614 
-12.2624 -11.9678 -10.254 -9.666 -10.3055 -8.13 -9.975 -11.6064 -12.2564 -8.1665 -9.605 -11.4328 -12.6559 -13.6716 -8.685501 
-15.2167 -13.2503 -13.5268 -10.363 -11.8571 -11.4179 -11.9618 -13.5708 -12.7304 -12.6492 -14.0484 -14.1222 -15.3319 -13.6716 
-4.559 -1.756 -3.9465 -4.795 -4.4275 -4.3285 -4.176 -3.892 -4.281 -8.011001 -2.264 -3.5715 -2.743 0 
-5.633 -5.895 -9.452001 -7.7005 -8.935 -9.454 -7.8155 -8.1 -12.6086 -10.199 -4.917 -5.6095 -2.743 
-6.8895 -11.9603 -12.4305 -12.5586 -14.5467 -13.2389 -12.6221 -16.6754 -14.7966 -13.0908 -6.55 -5.6095 
-13.2328 -14.9388 -17.2886 -18.1703 -18.3316 -18.0455 -21.1975 -18.8634 -17.6884 -14.7238 -6.55 
-16.2113 -19.7969 -22.9003 -21.9552 -23.1382 -26.6209 -23.3855 -21.7552 -19.3214 -14.7238 
-6.009 -1.756 -3.9465 -8.529 -3.563 -1.4985 -3.72 -3.5015 -1.934 -12.16972 -2.5045 -3.5715 -2.743 
-7.783501 -5.895 -13.3347 -12.4522 -5.088 -5.069 -8.3505 -4.704 -15.11012 -14.67422 -6.093 -5.6095 
-12.2659 -15.843 -17.2579 -13.9772 -9.712501 -9.7825 -10.016 -18.38092 -17.61462 -18.26272 -7.73 
-22.2139 -19.7662 -18.7829 -18.6017 -14.4712 -11.4966 -23.76472 -20.88542 -21.20312 -19.89972 
-26.1371 -21.2912 -23.4074 -23.3604 -16.1853 -25.24532 -26.26922 -24.47392 -22.84012 
