-4.759 
n/a 
n/a 
n/a 
n/a 
-4.759 
n/a 
n/a 
n/a 
n/a 
-4.759 
n/a 
n/a 
n/a 
n/a 
-4.759 
n/a 
n/a 
n/a 
n/a 
-3.7925 0 -2.871 -4.4145 -1.7565 -1.4985 -4.02 -3.0695 -2.4945 -3.6845 -1.4985 -4.4625 -3.42 -2.4945 -3.325 -5.8925 0 
-3.7925 -2.871 -6.1455 -5.758 -2.4195 -4.914001 -6.627 -4.2085 -6.086 -4.7485 -5.768001 -6.088 -6.3855 -5.3365 -8.485001 -5.8925 
-6.498 -6.1455 -6.332 -6.612 -5.2775 -7.0895 -7.3235 -7.782001 -6.693 -6.318 -6.291 -8.0725 -9.326 -10.6095 -8.485001 
-10.004 -6.332 -6.7815 -8.3195 -7.1775 -7.766 -10.1635 -8.2235 -7.8655 -6.4905 -8.2475 -10.6875 -14.8654 -10.6095 
-10.1815 -6.7815 -8.4115 -10.4597 -7.8325 -10.5635 -10.4335 -8.826501 -8.0445 -8.423 -10.6875 -16.2269 -14.8654 
-4.426 -1.7565 -1.4985 -3.6115 -4.7285 -4.1555 -3.147 -3.929 0 -4.207 -1.7565 -3.1385 -2.186 -5.852 -3.4945 -3.5505 0 
-5.47 -2.4195 -4.081 -6.5495 -8.4455 -5.77 -6.4595 -3.929 -4.207 -4.957 -4.388 -5.6995 -7.4665 -9.047001 -6.489 -3.5505 
-5.9535 -5.180501 -6.670501 -9.978001 -9.541501 -10.139 -6.4595 -9.861 -4.957 -7.969501 -6.824 -9.9355 -10.5535 -10.164 -6.489 
-8.462501 -7.797 -10.054 -11.0524 -13.9105 -10.139 -12.5931 -10.6828 -7.969501 -10.8541 -11.1824 -13.1437 -11.6705 -10.164 
-10.2375 -11.2985 -11.1648 -15.4214 -13.9105 -16.2726 -13.4149 -13.6953 -10.8541 -15.2125 -14.3906 -14.2607 -11.6705 
-2.872 -4.207 -3.4465 -1.7565 -4.02 -3.1385 -2.186 -1.934 -1.4985 -4.23 -3.3435 0 
-8.745501 -7.852 -4.919 -5.4345 -7.46 -5.6995 -4.0835 -2.6125 -5.015 -7.696 -3.3435 
-12.7691 -8.735001 -7.567 -9.264501 -10.6875 -7.718 -4.6915 -6.9015 -8.5465 -7.696 
-13.6521 -11.6004 -12.094 -12.6046 -12.706 -8.422001 -9.07 -10.76 -8.5465 
-16.5175 -16.1274 -15.4341 -14.6231 -13.41 -12.9063 -13.0061 -10.76 
-2.872 -4.597 -3.8445 -3.868 -3.1385 -3.511 -3.4945 -4.7785 -3.5505 0 
-7.524001 -5.534 -5.8255 -7.717 -5.979 -5.863501 -9.1255 -9.2815 -3.5505 
-8.437 -6.7515 -9.636001 -9.903501 -8.222 -12.0775 -14.2913 -9.2815 
-10.092 -11.0232 -12.0951 -12.8877 -14.8496 -17.2433 -14.2913 
-14.6265 -13.4823 -15.0793 -19.5153 -20.0154 -17.2433 
