-4.759 
n/a 
n/a 
n/a 
n/a 
-4.759 
n/a 
n/a 
n/a 
n/a 
-4.759 
n/a 
n/a 
n/a 
n/a 
-4.759 
n/a 
n/a 
n/a 
n/a 
-1.934 -12.16972 -5.723 -2.739 -5.5115 -3.5745 -2.6165 -3.5795 -2.9995 -3.9355 -1.934 -3.9005 -3.6085 -2.3335 -3.423 -2.489 -3.264 -2.356 -1.8085 -4.39 -1.7565 -2.8965 -3.9355 0 -1.756 -2.9805 -4.254 -1.7695 -3.2345 -1.4985 -4.872 -4.59 -2.0935 -4.468 -1.7565 -2.9995 -2.8965 -3.6885 -2.9805 -3.8055 -3.091 -4.872 -5.022 -3.3255 -1.8085 -3.6885 -3.264 -1.7565 -4.1885 -1.756 -4.98 -5.5115 -3.074 -4.957 -1.4985 -4.953 -2.872 -4.3035 -1.7695 -3.7085 -2.4265 -4.0535 -2.0935 -3.6085 -3.2945 
-15.11012 -17.89272 -10.6345 -7.8865 -9.262001 -4.114 -4.902 -5.410501 -6.063 -5.415 -5.9395 -6.6175 -6.7205 -4.6695 -4.122 -5.406 -5.8585 -3.4075 -4.9975 -4.681 -4.5345 -4.9455 -3.9355 -1.756 -4.3555 -5.5985 -5.8925 -3.713 -4.328 -6.268001 -9.2425 -4.887 -6.3195 -6.1885 -4.063 -4.1905 -6.119 -6.7495 -5.838 -5.835501 -7.5085 -9.606501 -8.1975 -4.441 -4.3555 -5.0915 -3.6125 -5.887001 -5.428 -6.465 -11.6225 -8.932001 -7.781501 -6.725 -6.1265 -7.3645 -7.3155 -4.6755 -4.19 -4.9685 -6.6635 -6.160501 -5.857 -6.975 
-20.83312 -22.80422 -15.782 -12.6418 -9.521001 -6.12 -6.0115 -8.9425 -7.5535 -9.283001 -6.942501 -9.432501 -9.0275 -5.2165 -6.456 -7.3575 -6.3165 -6.396 -5.0535 -7.601 -7.6625 -4.9455 -5.2215 -4.3555 -7.243 -7.3915 -7.285 -4.717 -9.385 -10.749 -9.344501 -9.5205 -6.899001 -8.557501 -5.548 -6.867 -9.278 -9.6125 -6.6725 -10.835 -12.7378 -12.907 -9.43 -7.013501 -5.206 -5.1115 -6.837501 -6.923 -8.499001 -13.4041 -15.043 -13.7439 -8.325001 -9.978001 -8.432 -12.0938 -7.5895 -6.548 -5.5555 -9.2775 -7.35 -9.772501 -9.745501 
-25.74462 -27.95172 -20.5373 -12.9008 -11.6898 -7.22 -9.5065 -9.495001 -12.0781 -10.164 -10.0275 -10.02 -9.4145 -7.525001 -8.559 -8.483 -9.894 -6.4285 -7.883501 -10.316 -7.6625 -7.188 -7.691 -7.243 -8.749001 -8.816 -8.0045 -9.647 -13.8874 -10.851 -14.061 -9.8735 -9.478001 -9.691001 -8.579 -9.505501 -10.0355 -9.9825 -12.0022 -16.0643 -16.0383 -14.1395 -12.1227 -7.920001 -5.2195 -8.27 -8.097501 -9.7075 -15.6501 -16.8246 -19.8549 -14.2874 -11.6998 -12.3683 -13.3905 -12.3678 -8.8055 -7.5785 -9.679501 -10.342 -11.338 -14.0072 
-30.89212 -32.70702 -20.7963 -15.0696 -12.7898 -10.2135 -10.761 -14.5658 -12.9591 -13.3812 -10.615 -10.0345 -10.046 -9.605 -9.63 -12.3837 -9.912001 -8.974501 -10.426 -10.316 -8.852 -9.544001 -10.0005 -8.749001 -9.7515 -9.427501 -13.0463 -14.2136 -13.9894 -15.5675 -14.414 -13.1701 -9.993501 -9.792001 -9.98 -10.0355 -10.0405 -16.2098 -17.2315 -19.3648 -17.2708 -16.8322 -13.0292 -7.925001 -8.43 -9.358001 -10.0035 -17.1254 -19.0706 -21.6365 -20.3984 -17.6622 -14.0901 -17.3268 -13.6645 -13.5838 -9.5885 -12.0491 -10.428 -14.33 -15.5727 
-9.565001 -5.171 -4.8435 -3.7015 -3.9655 -4.085 -2.0935 -5.1285 -2.3615 -4.0135 -1.7565 -3.837 -1.7695 -4.37 -1.934 -3.8195 -3.655 
-15.4376 -9.194 -7.1645 -7.2 -5.511 -5.9375 -7.166 -7.873001 -5.1525 -4.201 -6.2095 -6.1915 -4.6705 -4.568501 -5.8135 -5.969501 
-19.4606 -12.018 -10.6465 -8.5135 -7.6125 -11.8454 -10.6095 -10.5325 -5.2165 -7.817 -7.6215 -9.5105 -4.878 -9.166 -8.2865 
-22.2846 -15.5 -11.96 -10.5325 -13.8898 -15.2889 -13.269 -10.5495 -9.071 -10.1675 -10.7595 -9.6245 -9.526 -11.8224 
-25.7666 -16.8135 -13.979 -16.8098 -17.3333 -17.9484 -13.286 -14.404 -11.4889 -13.3055 -10.8735 -14.0939 -12.2778 
-3.5455 -1.4985 -6.4375 -4.8015 -2.0935 -12.16972 -8.0625 -2.264 -3.508 -6.007 -4.681 -8.267 -3.277 -6.4215 -2.3335 -8.479501 -4.9805 -1.7695 -3.918 -3.8195 -3.1385 -1.934 -1.4985 -3.9655 -3.6825 
-3.91 -9.56 -12.1194 -6.255 -15.25422 -20.23222 -11.136 -4.813 -7.8585 -9.896001 -10.9575 -12.1618 -9.790001 -8.2915 -10.382 -13.9322 -5.8155 -7.918001 -9.259501 -7.535 -4.522 -2.6125 -4.9875 -5.6945 
-12.8921 -15.3367 -13.5729 -19.99032 -23.31672 -23.30572 -13.685 -7.839 -11.7025 -16.7598 -14.8523 -18.6748 -11.8712 -16.8122 -15.8347 -14.7672 -13.279 -13.8575 -13.1754 -9.058001 -5.087501 -6.040501 -6.954 
-18.6688 -16.7902 -27.30822 -28.05282 -26.39022 -25.85472 -16.452 -13.0193 -18.8486 -20.6546 -21.3653 -20.756 -20.3919 -22.2649 -16.6697 -22.2307 -19.2185 -17.7734 -14.6984 -9.4875 -8.285501 -8.479501 
-20.1223 -30.52552 -35.37072 -31.12632 -28.93922 -28.62172 -22.6827 -20.489 -22.7434 -27.1676 -23.4465 -29.2767 -25.8446 -23.0999 -24.1332 -28.1702 -23.1344 -19.2964 -15.1279 -12.9489 -11.1827 
-2.264 -6.498 -6.007 0 -4.681 -6.705 -4.8435 -12.16972 -1.7565 -1.4985 -4.6995 -3.115 -2.3335 0 -3.135 -3.1385 -2.4945 -7.56 -2.791 -1.7695 -10.1915 -1.934 -3.5435 -4.1335 0 
-8.101501 -11.4965 -5.11 -4.681 -8.683001 -10.884 -18.42922 -13.92622 -2.4195 -5.1875 -7.4825 -4.7415 -2.3335 -3.135 -4.8745 -4.588 -8.5445 -9.540501 -4.3355 -10.985 -10.2645 -5.459 -7.059501 -4.1335 
-14.3694 -11.5561 -10.0815 -8.683001 -13.384 -24.46972 -20.18572 -14.58922 -6.264 -7.87 -8.4195 -4.7415 -4.88 -4.8745 -5.9665 -10.459 -11.3538 -11.3754 -14.4726 -11.058 -14.2157 -8.9845 -7.059501 
-14.3694 -16.5276 -14.4853 -13.384 -26.96972 -26.22622 -20.84872 -18.43372 -9.026 -9.478001 -8.4195 -7.5965 -6.0365 -5.9665 -12.1431 -12.9193 -13.1887 -21.5125 -14.5456 -15.0092 -17.7412 -8.9845 
-19.3409 -20.9314 -19.1863 -26.96972 -28.72622 -26.88922 -24.69322 -21.19572 -10.7025 -9.478001 -11.5629 -8.5205 -6.9185 -12.1431 -14.6034 -14.7542 -23.3258 -21.5855 -18.4968 -18.5347 -17.7412 
