-4.759 
n/a 
n/a 
n/a 
n/a 
-4.759 
n/a 
n/a 
n/a 
n/a 
-4.759 
n/a 
n/a 
n/a 
n/a 
-4.759 
n/a 
n/a 
n/a 
n/a 
-7.009 -2.7415 -4.2215 -1.934 -1.4985 -3.3235 -3.9205 -3.9785 -3.391 -3.3975 -1.7565 -9.77 
-8.623 -4.7885 -4.885 -2.6125 -5.1515 -4.8795 -8.6765 -5.38 -6.839001 -4.960001 -10.4425 
-10.293 -5.2365 -5.842501 -6.4725 -5.8505 -9.0725 -10.1595 -7.1545 -8.309501 -14.1704 
-10.657 -6.389 -10.3285 -7.315001 -9.7045 -10.5235 -11.934 -8.578501 -17.8261 
-11.8095 -10.621 -10.6575 -10.7325 -11.1481 -12.298 -13.358 -18.2993 
-2.9805 -4.2215 -1.934 -1.8085 -3.9785 -3.391 -3.3975 -1.934 -8.983001 
-7.7605 -4.885 -3.2685 -5.666 -5.38 -6.839001 -5.415 -9.676001 
-8.46 -6.5425 -6.9725 -6.677 -7.1545 -7.787001 -13.6342 
-9.419001 -9.076501 -7.651501 -7.6105 -8.037001 -16.2276 
-12.3064 -9.112 -8.378501 -8.328501 -16.526 
-7.699501 -4.2215 -1.934 -1.8085 -3.9785 -3.391 -3.3975 0 
-12.5026 -4.885 -3.2685 -5.666 -5.38 -6.839001 -3.3975 
-13.1661 -6.5425 -6.9725 -6.677 -7.1545 -6.839001 
-14.8236 -9.076501 -7.651501 -7.6105 -7.1545 
-17.3576 -9.112 -8.378501 -7.6105 
-3.3975 
n/a 
n/a 
n/a 
n/a 
