-4.759 
n/a 
n/a 
n/a 
n/a 
-4.759 
n/a 
n/a 
n/a 
n/a 
-4.759 
n/a 
n/a 
n/a 
n/a 
-4.759 
n/a 
n/a 
n/a 
n/a 
-11.568 -3.905 -5.107 -4.99 -1.934 -6.4825 -2.186 -1.4985 -4.4665 -7.578001 -1.934 -4.02 -3.8655 0 
-16.8064 -6.592 -9.1295 -5.477 -7.824 -8.9005 -3.339 -4.729 -10.7665 -9.113501 -5.3455 -5.305 -3.8655 
-19.9426 -10.564 -9.461 -12.0896 -9.783001 -9.811001 -5.893 -11.1568 -12.302 -12.6966 -6.2705 -5.305 
-23.9146 -10.8955 -16.0824 -14.0486 -10.736 -12.365 -12.8872 -12.6923 -15.8851 -13.6216 -6.2705 
-24.2461 -17.5169 -18.0414 -15.0016 -13.29 -19.3592 -14.4227 -16.2754 -16.8101 -13.6216 
-4.915 -3.401 -3.641 -3.8655 -1.934 -12.16972 -3.1715 -2.4265 -2.186 -1.8085 -4.4665 -3.905 -4.4585 
-8.8745 -7.2475 -6.9115 -5.918 -15.11012 -15.34122 -5.915 -3.292 -3.164 -7.3505 -7.8725 -6.1085 
-12.9756 -11.3506 -8.875001 -19.86352 -18.28162 -18.08472 -6.4795 -4.4005 -8.446 -11.3283 -9.057 
-17.0787 -13.3141 -23.05272 -23.03502 -21.02512 -18.64922 -7.566 -9.458 -12.6344 -12.5128 
-19.0422 -27.49182 -26.22422 -25.77852 -21.58962 -19.73572 -12.7731 -13.8684 -13.8189 
-3.8655 -2.229 -4.4665 -3.905 -4.4585 -2.5045 -6.4825 -1.934 -4.02 -3.8655 0 
-5.1985 -5.278501 -7.8725 -6.1085 -6.601001 -8.594501 -8.47 -5.3455 -5.305 -3.8655 
-7.152 -8.2215 -9.057 -8.357 -10.2485 -9.672001 -8.918 -6.2705 -5.305 
-9.345501 -9.3325 -11.5755 -10.66 -11.4976 -10.0465 -8.9215 -6.2705 
-9.9315 -11.7332 -13.8785 -11.9091 -11.8721 -10.055 -8.9215 
-7.316 -3.401 -8.1125 -12.16972 -3.2875 -2.674 -2.186 -1.4985 -4.4665 -3.905 -4.4585 -1.934 -3.8655 
-11.6488 -11.5605 -19.62932 -15.45722 -6.6125 -5.6735 -3.339 -4.729 -7.8725 -6.1085 -6.0175 -4.9135 
-20.3091 -25.09082 -23.48702 -18.78222 -10.411 -6.714 -5.893 -8.337501 -9.057 -7.273 -8.2285 
-33.33862 -28.37832 -26.81202 -22.58072 -11.4515 -9.9175 -9.410501 -9.517501 -9.553 -9.1425 
-36.62612 -31.70332 -30.61052 -23.62122 -14.655 -13.435 -10.4435 -9.6675 -11.6731 
