-4.759 
n/a 
n/a 
n/a 
n/a 
-4.759 
n/a 
n/a 
n/a 
n/a 
-4.759 
n/a 
n/a 
n/a 
n/a 
-4.759 
n/a 
n/a 
n/a 
n/a 
-8.427501 -3.7015 -13.629 -1.756 -4.752 -3.595 -2.3345 -2.8635 0 
-12.498 -18.2161 -15.4176 -6.137 -7.176001 -5.631001 -5.531 -2.8635 
-27.5194 -20.4789 -19.7986 -8.173 -9.679001 -8.918501 -5.531 
-29.2754 -24.8599 -21.8346 -11.0858 -13.1959 -8.918501 
-33.6564 -26.8959 -24.7474 -14.6027 -13.1959 
-1.4985 -3.6765 -3.0695 -4.896 -3.7015 -3.595 0 -2.3335 -2.186 -9.255 -1.756 -3.074 -1.4985 -3.6765 -3.0695 -4.3895 -3.595 
-4.501 -4.7945 -6.68 -8.774 -5.6215 -3.595 -2.3335 -3.7085 -11.9955 -10.4025 -4.566 -4.6505 -4.501 -4.7945 -6.5725 -6.4135 
-5.3435 -9.276501 -10.3545 -10.7495 -5.6215 -5.272 -3.7085 -14.0693 -13.7233 -13.4107 -5.66 -7.642 -5.3435 -8.941501 -7.481 
-10.044 -12.9814 -12.7288 -10.7495 -7.482 -6.7435 -14.3639 -15.6069 -17.0865 -14.5047 -8.797501 -8.0345 -9.5565 -10.3225 
-13.7685 -15.3557 -12.7288 -12.61 -8.714001 -17.7892 -15.6069 -18.9701 -18.1805 -17.6422 -9.248501 -12.3691 -10.648 
-3.741 -9.255 0 -3.0695 -5.674 -3.7015 -3.595 -1.934 -1.4985 -4.492 -1.756 -1.4985 -3.6385 -3.0695 -4.0855 -3.595 0 -6.6045 0 
-12.3615 -8.804501 -3.0695 -8.112 -8.932 -5.6215 -4.9735 -2.6125 -5.7395 -6.072 -3.0405 -4.690001 -4.965 -7.066 -8.493 -3.595 -6.294001 -6.294001 
-10.1225 -10.66 -8.112 -9.989 -10.411 -6.8035 -5.5305 -6.469501 -6.899 -7.499 -6.1315 -5.4355 -8.896001 -9.774 -8.493 -9.555 -6.294001 
-11.978 -15.9611 -9.989 -11.468 -11.593 -7.3915 -8.677 -7.4855 -7.8745 -10.9808 -6.945 -9.1875 -11.6366 -9.774 -15.1452 -9.555 
-17.2791 -17.8381 -11.468 -12.65 -12.181 -10.7175 -9.750001 -8.543501 -11.4897 -11.7943 -10.5525 -11.9379 -11.6366 -16.2512 -15.1452 
-9.255 -2.186 -4.319 -3.7015 -3.595 
-11.162 -7.5365 -5.442 -5.6215 
-17.1005 -9.3645 -8.1855 
-18.9285 -12.1618 
-21.7258 
