-4.759 
n/a 
n/a 
n/a 
n/a 
-4.759 
n/a 
n/a 
n/a 
n/a 
-4.759 
n/a 
n/a 
n/a 
n/a 
-4.759 
n/a 
n/a 
n/a 
n/a 
-2.356 -2.3615 -3.8675 -3.75 -4.1865 -3.3035 -3.7555 -1.4985 -3.401 -1.7695 -4.0835 -1.8085 -3.8355 -3.307 -1.756 -4.057 -5.171 -2.5045 -1.4985 -3.502 -1.7565 -4.348 
-4.2185 -4.79 -8.844501 -6.4385 -7.119 -7.151 -4.843 -3.9525 -4.275 -6.803 -5.547 -5.4305 -5.581 -5.071 -5.5165 -8.3545 -7.164001 -3.1915 -4.5955 -5.0575 -5.8355 
-6.402 -10.361 -11.7322 -8.545 -10.76 -7.778501 -6.719 -4.539001 -9.925 -7.6005 -9.76 -8.192 -6.9125 -8.8975 -10.459 -10.051 -7.903001 -6.2065 -5.911 -8.7745 
-12.2986 -13.2487 -13.8387 -12.3986 -11.3875 -10.2325 -7.734 -10.134 -10.613 -12.0299 -12.5589 -9.269 -11.4566 -14.1312 -12.1555 -10.79 -10.3815 -7.8615 -9.5085 
-15.1863 -15.3552 -17.6923 -13.0261 -13.8415 -10.6815 -13.7978 -10.766 -15.0424 -14.8288 -13.6359 -13.6955 -16.6903 -15.8277 -12.8945 -13.2685 -12.1663 -11.5014 
-4.8685 -3.893 -2.3615 -3.8675 -1.4985 -4.065 -3.5435 -3.7555 -3.0435 -3.873 -1.756 -3.8245 -3.873 -3.889 -1.934 -3.5455 -4.348 0 
-5.934 -5.835 -4.79 -5.4585 -4.824 -6.1265 -7.367001 -7.987 -7.358001 -5.114 -5.5 -8.033501 -8.530001 -5.984 -4.8495 -8.655001 -4.348 
-7.949 -8.4475 -6.1375 -8.958 -6.2165 -9.742001 -12.1255 -12.8593 -8.599501 -8.6355 -9.795501 -13.0611 -11.2102 -8.587501 -10.564 -8.655001 
-10.9641 -9.5015 -10.292 -9.5255 -9.76 -14.5349 -16.9978 -14.1008 -12.6694 -13.3556 -15.1283 -15.7413 -13.8137 -15.2858 -10.564 
-12.0181 -13.8112 -10.8595 -13.224 -14.5555 -19.4072 -18.2393 -18.1707 -17.3895 -18.6884 -17.8085 -18.3448 -20.512 -15.2858 
-8.066 -1.7695 -2.3615 -4.044 -1.4985 -12.16972 -3.251 -4.3465 -1.4985 -3.2895 -1.7695 -3.859 -1.8085 -3.891 -3.6715 0 -4.632 0 
-8.0815 -3.736 -5.501 -5.6495 -14.76202 -15.42072 -8.2355 -5.372001 -4.862 -4.985001 -4.462 -4.6935 -5.284 -7.883501 -3.6715 -4.632 -4.632 
-9.8145 -6.497 -6.5715 -19.59482 -18.01302 -20.40522 -9.64 -8.84 -5.677 -7.882501 -5.0575 -8.106501 -8.99 -7.883501 -9.23 -4.632 
-12.6907 -7.074 -21.26402 -22.84582 -22.99752 -21.80972 -13.108 -9.093 -8.289001 -8.732 -8.268001 -12.2433 -8.99 -13.9902 -9.23 
-13.2677 -22.69812 -24.51502 -27.83032 -24.40202 -25.27772 -13.361 -11.8998 -9.133501 -12.1873 -12.3788 -12.2433 -15.3429 -13.9902 
-2.5045 -3.543 -2.3615 -3.8675 0 -4.065 -3.75 -3.8735 -3.3035 -3.7555 -1.4985 -3.2895 -1.7695 -3.354 -2.925 -1.8085 -4.1975 -3.307 -1.934 -1.4985 -3.502 -3.7575 -1.7565 -4.348 -1.756 -1.7695 -3.354 -2.925 -1.7565 -1.8085 -5.171 0 
-5.323 -7.1235 -4.79 -3.8675 -4.065 -7.2765 -6.110001 -6.3225 -7.151 -4.843 -4.862 -4.985001 -4.564 -4.3775 -4.469501 -5.95 -6.487 -5.094501 -2.6125 -4.5955 -5.712 -4.4575 -5.8355 -6.0835 -3.963 -4.564 -4.3775 -4.898 -3.2595 -6.501 -5.171 
-7.468 -8.625501 -4.79 -8.580501 -7.2765 -7.536 -6.377501 -10.1185 -7.778501 -8.0165 -5.677 -8.397501 -5.0465 -5.205 -8.276501 -8.129 -8.521 -6.042 -5.258 -6.058001 -6.145 -8.452001 -7.187 -8.389 -6.5565 -5.0465 -6.495 -6.0335 -7.5955 -6.501 
-9.052501 -8.625501 -9.740001 -12.1712 -7.536 -7.566 -10.163 -10.746 -9.963501 -8.266 -9.2165 -9.045 -5.6235 -8.4645 -10.5035 -9.3605 -8.946501 -8.345501 -7.695001 -6.226 -10.3527 -10.025 -9.3915 -11.1455 -7.149 -8.6625 -7.4605 -9.9075 -7.5955 
-9.052501 -13.6335 -13.8697 -12.4307 -7.566 -10.7495 -10.7905 -12.931 -10.045 -12.0713 -9.646501 -9.554501 -8.893001 -10.5975 -11.735 -9.6525 -11.4674 -10.396 -8.024501 -10.5115 -11.9257 -12.3581 -12.2156 -11.738 -10.6465 -9.4215 -11.5723 -9.9075 
