-4.759 
n/a 
n/a 
n/a 
n/a 
-4.759 
n/a 
n/a 
n/a 
n/a 
-4.759 
n/a 
n/a 
n/a 
n/a 
-4.759 
n/a 
n/a 
n/a 
n/a 
-1.756 -2.3615 -4.4385 -2.186 -4.3895 -3.819 0 -3.1435 -3.335 -3.469 -3.4795 
-4.4615 -6.924 -6.318501 -6.439 -7.969 -3.819 -3.1435 -7.4915 -7.255 -6.654 
-8.9595 -7.895 -10.586 -9.567 -7.969 -6.830501 -7.4915 -11.7661 -11.0072 
-9.552501 -12.3683 -13.714 -9.567 -10.5435 -11.6083 -11.7661 -15.5183 
-14.0706 -15.4963 -13.714 -12.2673 -15.7039 -15.8829 -15.5183 
-2.4265 -2.742 -4.008 -3.469 -3.2615 -5.1055 0 
-4.095 -5.693 -7.0185 -5.741 -8.902 -5.1055 
-6.8335 -8.697001 -8.732501 -11.8459 -8.902 
-9.908 -9.8675 -14.9228 -11.8459 
-11.1129 -16.2706 -14.9228 
-2.4265 -2.742 -3.8825 -3.469 -2.95 0 
-4.095 -5.5325 -7.8075 -4.7535 -2.95 
-7.324 -9.362 -9.703501 -4.7535 
-10.204 -11.696 -9.703501 
-13.051 -11.696 
-2.4265 -4.612 -2.0935 -1.8085 -3.469 -2.95 -3.2615 -2.4265 -2.186 -5.1055 
-5.8475 -5.441 -3.385 -4.362 -4.7535 -5.5065 -5.2985 -3.292 -7.0495 
-6.726 -6.9595 -5.1655 -4.91 -7.0495 -7.3645 -6.179 -8.055 
-8.2305 -9.186501 -5.2885 -7.1305 -8.669001 -8.243 -9.167001 
-10.347 -9.565001 -7.323 -8.7395 -9.753 -11.5232 
