-4.759 
n/a 
n/a 
n/a 
n/a 
-4.759 
n/a 
n/a 
n/a 
n/a 
-4.759 
n/a 
n/a 
n/a 
n/a 
-4.759 
n/a 
n/a 
n/a 
n/a 
-7.581 -3.559 -2.7415 -3.6955 -3.539 -3.851 -1.7695 -3.091 -3.869 -4.1135 -3.2275 -3.321 -2.925 -2.674 -4.318 -4.8565 -3.9875 -1.4985 -4.203 
-11.9872 -6.1405 -6.877501 -5.559 -6.6745 -4.0015 -4.458 -6.8255 -8.848001 -6.5065 -6.9945 -5.154 -4.1785 -7.167 -8.177501 -8.5305 -4.653 -5.438 
-14.5687 -10.7071 -8.620501 -8.781 -6.685501 -6.1325 -8.2465 -12.4551 -9.901501 -10.5975 -8.740001 -6.5505 -8.55 -11.1805 -12.2755 -8.894 -8.9915 
-19.1353 -12.4501 -12.5483 -8.7895 -8.7875 -8.78 -14.0631 -13.5086 -13.9925 -12.343 -10.0785 -11.2712 -12.6247 -15.2785 -12.639 -13.5471 
-20.8783 -16.3779 -12.5568 -11.0629 -11.5554 -14.7916 -15.1166 -17.5996 -15.738 -13.6815 -14.9476 -15.3459 -16.7227 -15.642 -17.2921 
-2.3345 -9.293 -3.4005 -3.2 -7.581 -2.229 -4.7155 -2.7415 -6.4175 -5.8525 0 -1.756 -2.3345 -1.4985 -4.3845 -1.7565 -5.7725 0 -3.524 -2.1715 0 -4.8955 0 -2.3345 -1.4985 -7.0905 -3.1715 -3.999 -1.756 -6.557 -6.497 -2.645 0 -1.4985 -4.8565 -4.157 -2.264 -7.581 -1.934 -3.091 -3.6825 -3.9875 -3.6245 0 
-9.7475 -10.631 -5.781 -11.7012 -9.234501 -6.9155 -6.988 -8.817 -13.3856 -5.8525 -1.756 -4.614 -3.233 -4.936501 -4.873 -6.929 -5.7725 -3.524 -5.049 -2.1715 -4.8955 -4.8955 -2.3345 -3.233 -7.936501 -10.517 -6.7135 -5.712 -8.5065 -13.7434 -8.7915 -2.645 -1.4985 -5.561 -8.868 -6.8915 -9.7375 -10.038 -4.2105 -6.0125 -6.528 -7.527 -3.6245 
-13.1215 -12.7125 -14.9996 -13.3547 -13.9634 -8.4545 -13.4687 -15.9569 -13.3856 -6.776 -4.614 -5.34 -6.936 -5.0275 -10.0745 -6.929 -10.688 -5.049 -5.049 -7.082 -4.8955 -7.313 -3.233 -10.2795 -11.5155 -14.0132 -8.799 -13.0861 -15.7951 -16.0379 -8.7915 -4.8625 -5.561 -9.718 -11.9765 -14.8642 -12.3319 -12.3145 -7.375 -10.494 -11.5599 -7.527 
-14.9168 -22.3005 -16.6531 -18.0836 -15.5024 -15.1166 -20.6086 -15.9569 -14.3091 -9.573501 -5.34 -8.6615 -7.0045 -10.159 -10.0745 -12.2413 -12.213 -5.049 -8.885 -7.082 -7.313 -8.154 -10.4505 -13.8556 -16.5093 -16.8277 -16.5253 -20.3747 -18.0896 -16.0379 -11.7934 -9.1575 -9.718 -12.9293 -19.9492 -17.4586 -14.6084 -15.479 -12.1037 -15.5259 -11.5599 
-24.5048 -23.954 -21.382 -19.6226 -22.1645 -22.2565 -20.6086 -16.8804 -17.1066 -10.1325 -8.6615 -8.693501 -12.319 -10.159 -14.8522 -13.7663 -12.213 -8.885 -8.885 -9.4875 -8.154 -15.6893 -13.8556 -18.6898 -18.5948 -24.554 -23.8139 -22.6692 -18.0896 -19.0398 -16.0884 -13.4345 -12.9293 -20.902 -22.5436 -19.7351 -17.7729 -20.2077 -17.1356 -15.5259 
-4.203 -3.7015 -7.581 -2.0935 -5.3285 -3.595 -3.519 -6.557 -5.4475 -5.7725 -1.756 -12.16972 -3.833 0 
-7.468 -10.9575 -10.7335 -7.022 -10.6735 -7.570001 -11.1415 -12.6939 -12.235 -8.281 -14.93432 -16.00272 -3.833 
-15.2184 -14.11 -15.662 -12.6586 -14.6485 -15.8829 -17.2784 -19.4814 -14.7435 -21.92352 -18.76732 -16.00272 
-18.3709 -19.0385 -21.2986 -16.6336 -22.9614 -22.0198 -24.0659 -21.9899 -28.38602 -25.75652 -18.76732 
-23.2994 -24.6751 -25.2736 -24.9465 -29.0983 -28.8073 -26.5744 -35.63242 -32.21902 -25.75652 
-7.581 -5.177 -3.539 -1.7565 -2.9805 -2.9645 -3.3425 -3.892 -3.4005 -3.6885 -1.7565 -3.319 -4.0195 0 -3.524 -2.1715 0 -6.8295 -4.2705 -1.7565 -7.7815 0 -3.815 -1.7565 -6.557 0 -3.222 -12.16972 -4.809 -1.7565 -7.581 0 
-13.6052 -9.588 -5.9005 -6.1285 -6.812 -6.879001 -7.918 -7.296 -6.6545 -5.258 -5.2735 -7.443501 -4.0195 -3.524 -5.049 -2.1715 -6.896501 -11.8275 -5.4125 -9.72 -7.7815 -3.815 -5.328001 -7.653501 -6.557 -3.222 -16.44452 -16.97872 -5.7605 -9.133 -7.581 
-18.0162 -12.1333 -9.923 -9.925 -11.2793 -11.8063 -11.9554 -11.426 -8.759001 -9.23 -9.9505 -7.443501 -8.352501 -5.049 -5.049 -8.828501 -12.0719 -13.6374 -14.2112 -9.72 -12.4215 -5.328001 -11.987 -7.653501 -10.598 -16.44452 -21.25352 -17.93022 -13.6856 -9.133 
-20.5615 -16.1558 -13.9373 -14.6595 -16.2066 -15.8437 -16.0854 -13.5305 -13.6096 -14.1262 -9.9505 -12.6891 -9.943001 -5.049 -10.186 -14.1601 -13.6374 -22.8423 -14.2112 -14.5302 -13.9345 -11.987 -11.987 -11.9513 -23.82052 -21.25352 -22.20502 -25.85532 -13.6856 
-24.584 -20.1701 -18.6718 -19.5868 -20.244 -19.9737 -18.1899 -18.3811 -18.5058 -14.1262 -15.4105 -14.2796 -9.943001 -10.186 -15.5176 -15.7256 -22.8423 -22.8423 -19.0214 -16.0432 -20.5935 -11.987 -16.2848 -25.17382 -28.62952 -22.20502 -30.13012 -25.85532 
