-4.759 
n/a 
n/a 
n/a 
n/a 
-4.759 
n/a 
n/a 
n/a 
n/a 
-4.759 
n/a 
n/a 
n/a 
n/a 
-4.759 
n/a 
n/a 
n/a 
n/a 
-2.871 -5.0335 -4.0325 -1.7565 -10.827 -2.7415 -4.834 -1.7695 -4.372 -1.4985 -5.132 -4.921 -1.7695 -1.4985 -7.714 -1.7565 -3.9195 -2.3345 -4.763 -4.899 -1.7565 -1.4985 -4.4925 0 
-8.332001 -9.326 -5.3175 -13.5327 -13.5685 -5.984 -6.1985 -4.8655 -5.533 -6.495 -8.1365 -6.652 -2.7955 -9.0565 -9.466001 -5.422 -6.519 -6.985001 -9.648001 -6.49 -2.4195 -5.303 -4.4925 
-12.8405 -10.635 -17.8293 -16.2742 -16.811 -7.2015 -8.3295 -6.027 -10.4765 -9.2065 -9.910501 -7.729 -10.733 -9.579 -13.7821 -7.9285 -11.6105 -12.6948 -10.5775 -7.083 -6.1245 -5.303 
-14.1495 -23.1468 -20.5708 -19.5167 -18.0285 -9.160501 -9.205501 -10.634 -13.188 -10.76 -10.5785 -15.9463 -11.2555 -14.6253 -16.2886 -13.2812 -17.3203 -13.6243 -11.1705 -10.298 -6.1245 
-26.6613 -25.8883 -23.8133 -20.7342 -19.9875 -9.8485 -13.8615 -13.3455 -14.7415 -11.428 -18.7958 -16.4688 -16.3018 -17.1318 -21.6413 -18.991 -18.2498 -14.2173 -14.3855 -10.298 
-4.3075 -3.729 
-7.127501 
n/a 
n/a 
n/a 
-1.7695 -3.429 -1.4985 -5.1475 -4.921 -1.7695 -1.4985 -3.9195 -3.4425 0 -1.8085 -5.566 -4.0325 -4.54 -2.356 -3.995 -2.7415 -3.354 -2.925 -2.0935 -2.7455 -2.998 -5.513 0 
-4.032 -4.4635 -6.469501 -8.145 -6.652 -2.7955 -4.9505 -6.594501 -3.4425 -1.8085 -7.4425 -9.677501 -8.581 -4.954501 -6.528501 -6.3075 -5.426001 -4.3775 -4.0665 -4.987 -5.5655 -7.445 -5.513 
-5.0395 -9.604501 -9.471001 -9.7065 -7.729 -6.2235 -7.547501 -6.594501 -5.6895 -7.4425 -10.151 -14.2654 -8.685 -8.278001 -9.302 -9.498501 -5.91 -5.706 -7.307 -6.601 -8.356501 -7.445 
-10.5035 -12.6712 -11.0945 -10.7835 -10.6595 -8.7375 -7.547501 -9.2185 -11.7655 -10.151 -14.7389 -14.3694 -12.1013 -10.4855 -12.6342 -10.2395 -7.312 -8.708 -8.836 -10.0315 -8.356501 
-13.5702 -14.2947 -12.1715 -13.714 -13.1735 -8.7375 -9.581501 -15.3309 -14.474 -14.7389 -14.8429 -17.7857 -14.3088 -13.8177 -13.3752 -11.6415 -10.3155 -10.2485 -12.5027 -10.0315 
-4.0275 -4.017 -2.4945 -3.2955 -4.173 0 -4.1065 -1.934 -1.4985 -6.5695 0 -6.8025 0 -4.55 0 -5.62 0 -7.365 -1.756 0 -1.7695 -1.8085 -5.084 -4.4495 0 -2.264 -1.4985 -4.8715 -1.7565 -1.4985 -5.3315 -1.4985 -6.066 -1.756 -5.926 -1.7565 -1.4985 -5.7325 -4.4215 -2.4945 -4.254 -2.356 -7.2215 -1.7565 -6.6725 -4.5635 -1.7695 -3.5185 -5.3775 -5.2755 -4.017 0 
-7.638 -5.7495 -4.6305 -6.0975 -4.173 -4.1065 -5.0645 -2.6125 -7.4685 -6.5695 -6.8025 -6.8025 -4.55 -4.55 -5.62 -5.62 -7.365 -10.164 -1.756 -1.7695 -3.41 -5.752501 -6.116 -4.4495 -2.264 -2.9195 -6.302501 -5.9725 -2.4195 -6.016001 -7.0375 -7.3105 -7.164001 -7.432 -6.6595 -2.4195 -6.9845 -8.3155 -6.044 -6.880001 -5.141 -8.775001 -8.005 -8.285 -10.3545 -6.743001 -4.134 -8.184 -8.899 -7.481501 -4.017 
-9.183001 -7.476501 -6.871 -6.0975 -8.17 -5.0645 -5.523 -9.078501 -7.4685 -10.7495 -6.8025 -10.802 -4.55 -10.2185 -5.62 -10.688 -10.164 -10.164 -3.963 -3.41 -6.04 -6.1845 -6.116 -6.627 -2.9195 -7.1225 -6.66 -6.323 -6.993501 -7.597001 -10.5425 -8.3465 -8.989501 -8.807 -7.7415 -7.824001 -9.550501 -9.8855 -10.411 -8.536501 -11.904 -9.7815 -14.8377 -12.2312 -12.534 -8.554001 -8.4725 -10.674 -10.7175 -7.481501 
-10.6745 -9.772 -6.871 -10.2695 -8.906 -5.523 -12.382 -9.078501 -10.749 -10.7495 -10.802 -10.802 -10.2185 -10.2185 -10.688 -13.487 -10.164 -12.371 -5.811 -6.04 -6.1875 -6.1845 -7.7895 -6.974 -7.1225 -7.272501 -7.023001 -10.403 -8.458501 -11.362 -11.5785 -10.2085 -10.195 -9.209001 -13.4966 -10.259 -10.6485 -14.2525 -12.0675 -15.4349 -12.9105 -16.6562 -18.7839 -14.4107 -14.345 -13.0027 -10.702 -12.4925 -10.7175 
-12.97 -9.772 -11.2892 -10.6065 -9.088501 -12.382 -12.382 -12.4708 -10.749 -14.749 -10.802 -16.4705 -10.2185 -15.4765 -13.487 -13.487 -12.371 -14.219 -6.232 -6.1875 -6.1875 -7.867001 -8.257 -10.733 -7.272501 -7.706501 -10.702 -10.686 -12.2945 -12.398 -13.4405 -10.6055 -10.6055 -15.1989 -15.9316 -11.357 -15.0155 -15.909 -18.9659 -16.4414 -19.7852 -20.6024 -20.9634 -16.2217 -18.7937 -15.2322 -12.5205 -12.4925 
