-4.759 
n/a 
n/a 
n/a 
n/a 
-4.759 
n/a 
n/a 
n/a 
n/a 
-4.759 
n/a 
n/a 
n/a 
n/a 
-4.759 
n/a 
n/a 
n/a 
n/a 
-2.7835 -1.4985 -3.9185 -4.2095 -2.186 -5.246 -2.4285 -6.1025 -2.7295 -3.423 -2.6165 -3.8115 -1.7695 -4.8125 -1.4985 -4.05 0 
-3.7575 -5.215 -7.695001 -6.556001 -6.948 -7.690001 -7.8935 -8.925001 -4.782 -4.4935 -5.2965 -3.8325 -5.7435 -6.13 -5.212 -4.05 
-7.3215 -8.6315 -9.684 -11.7724 -8.8625 -13.6012 -10.361 -11.1451 -5.762 -8.3865 -5.3065 -7.6005 -6.685 -7.5955 -5.212 
-11.1412 -9.933001 -14.9004 -13.6869 -15.0677 -16.0687 -13.1601 -12.1251 -9.742001 -8.4025 -9.072001 -8.445001 -8.038 -7.5955 
-12.4427 -15.1494 -16.8149 -19.8921 -17.5352 -18.8678 -14.1401 -16.1051 -9.758 -12.5318 -9.8035 -9.5705 -8.038 
-2.7835 -1.4985 -3.9185 -4.2095 -6.811501 -2.4285 -6.5835 0 -1.4985 -4.05 -2.7765 -2.6165 -2.489 -5.5465 
-3.7575 -5.215 -7.695001 -12.1786 -8.972501 -9.271501 -6.5835 -1.4985 -5.212 -6.4275 -4.9255 -3.82 -6.3255 
-7.3215 -8.6315 -16.0979 -14.3396 -15.9911 -9.271501 -8.043 -5.212 -7.051001 -8.9385 -5.4595 -7.8175 
-11.1412 -17.1866 -18.2589 -21.3582 -15.9911 -10.587 -11.9915 -7.051001 -9.5705 -9.227 -8.498 
-19.6963 -19.3476 -25.2775 -21.3582 -17.3066 -14.5355 -13.8305 -9.5705 -9.7685 -10.048 
-2.7765 -2.6165 -4.8125 -1.4985 -4.05 -2.7835 -1.8085 -4.2095 -1.7565 -3.9185 -5.165 -1.756 -2.6165 -4.689 0 
-4.9255 -6.87 -6.13 -5.212 -6.624001 -4.329 -5.572001 -5.867001 -5.331 -8.563001 -6.955 -4.2965 -7.4045 -4.689 
-8.707001 -7.465 -7.5955 -7.4875 -7.933001 -8.104 -6.2805 -7.6245 -10.7025 -10.2135 -9.7095 -8.68 -7.4045 
-9.515501 -8.412001 -9.4735 -8.888 -12.3096 -8.596001 -7.9585 -13.4894 -12.353 -12.968 -14.2236 -8.68 
-10.436 -10.341 -10.9646 -13.4678 -12.8016 -10.434 -13.9114 -15.1399 -15.1075 -17.4821 -14.2236 
-2.3615 -3.5515 -2.186 -2.6165 -4.6265 
-4.9845 -5.3175 -3.5105 -6.5015 
-6.0165 -6.69 -7.323501 
-7.419 -9.1165 
-10.7177 
