-4.759 
n/a 
n/a 
n/a 
n/a 
-4.759 
n/a 
n/a 
n/a 
n/a 
-4.759 
n/a 
n/a 
n/a 
n/a 
-4.759 
n/a 
n/a 
n/a 
n/a 
-9.77 
n/a 
n/a 
n/a 
n/a 
-4.721 -7.190001 
-8.616 
n/a 
n/a 
n/a 
-9.77 0 -3.1435 -5.1845 -4.179 0 0 -5.4455 -3.2295 0 
-9.77 -3.1435 -8.783 -9.3915 -4.179 0 -5.4455 -7.278 -3.2295 
-13.1331 -8.783 -13.2124 -9.3915 -4.179 -5.4455 -7.278 -7.278 
-18.7726 -13.2124 -13.2124 -9.3915 -10.1855 -7.278 -7.278 
-23.202 -13.2124 -13.2124 -15.6374 -12.683 -7.278 
-4.721 -7.190001 
-8.616 
n/a 
n/a 
n/a 
