-4.759 
n/a 
n/a 
n/a 
n/a 
-4.759 
n/a 
n/a 
n/a 
n/a 
-4.759 
n/a 
n/a 
n/a 
n/a 
-4.759 
n/a 
n/a 
n/a 
n/a 
-3.5125 -3.644 -4.347 -6.8925 -3.277 -3.277 0 -4.891 -3.8655 -4.657 -1.934 -1.4985 -4.232 -3.4425 
-7.1905 -8.461 -9.592 -8.6455 -6.74 -3.277 -4.891 -7.451 -9.021501 -5.156 -2.6125 -5.198501 -6.721001 
-12.1665 -12.2571 -10.7235 -12.6055 -6.74 -7.741 -7.451 -13.1664 -9.486501 -5.8715 -6.289001 -7.776 
-15.9626 -14.7961 -14.3625 -12.7945 -11.558 -11.1264 -13.1664 -13.6314 -10.6115 -9.617001 -8.731001 
-18.5016 -19.1185 -14.8159 -17.9045 -14.9434 -16.8418 -13.6314 -14.7564 -14.357 -12.1676 
-3.5125 -4.6525 -2.3335 -4.3105 -5.038 -3.1385 -2.8645 -3.1125 -3.8245 -1.934 -4.3105 -5.213 -2.7455 -4.3435 -6.482 -3.277 0 
-7.138 -7.0255 -7.0275 -6.8765 -6.236 -6.3865 -3.5345 -6.041 -4.7245 -6.008 -7.534 -8.2605 -7.566 -10.4855 -10.368 -3.277 
-8.915 -12.0291 -9.0515 -8.417001 -8.877501 -7.093 -6.721 -6.4465 -9.3145 -10.096 -10.5035 -13.4158 -14.2148 -14.3715 -10.368 
-13.9608 -14.0531 -9.3295 -10.66 -9.3415 -10.044 -7.0745 -11.3401 -13.7263 -13.4671 -15.6588 -20.0646 -18.1008 -14.3715 
-15.9848 -14.3311 -12.5891 -11.7276 -12.3207 -10.6655 -12.1339 -15.7519 -17.0974 -18.6224 -22.3076 -23.9506 -18.1008 
-3.5125 -3.644 -2.3335 -2.5195 -2.5195 -6.482 -3.277 0 -4.3105 -5.2135 -3.511 -1.934 -1.4985 -3.8655 -3.873 
-7.1905 -4.989501 -5.569 -6.101501 -9.613 -10.368 -3.277 -4.3105 -8.677 -8.231 -4.582 -2.6125 -6.342 -7.5535 
-8.132501 -7.942 -9.0185 -13.5462 -14.078 -10.368 -7.8795 -8.677 -11.8919 -8.726 -5.3785 -7.541 -10.459 
-10.7575 -11.7221 -16.6406 -18.0112 -14.078 -15.1405 -12.446 -11.8919 -12.3869 -9.342 -10.31 -11.7984 
-14.5376 -19.3442 -21.1056 -18.0112 -18.8505 -19.707 -15.6609 -12.3869 -13.0029 -14.3411 -14.5674 
-4.3105 -4.9225 -2.4945 -6.8925 -3.5905 -2.925 -2.4945 -3.8245 -3.3715 -3.277 -1.934 -3.8655 0 
-8.5315 -6.9525 -9.705 -10.317 -6.564 -3.7675 -5.751 -7.654 -4.9255 -4.8125 -4.9135 -3.8655 
-10.459 -13.737 -13.281 -13.9864 -7.166 -6.812 -9.392501 -8.815001 -6.3525 -7.691501 -4.9135 
-17.2435 -18.1958 -16.9297 -14.5884 -10.2695 -10.2535 -10.224 -9.2565 -9.095 -7.691501 
-21.7023 -21.7057 -17.5317 -17.6919 -13.711 -11.225 -10.9053 -11.9566 -9.095 
