-4.759 
n/a 
n/a 
n/a 
n/a 
-4.759 
n/a 
n/a 
n/a 
n/a 
-4.759 
n/a 
n/a 
n/a 
n/a 
-4.759 
n/a 
n/a 
n/a 
n/a 
-1.934 -6.4185 -3.4795 -12.16972 0 -5.17 -6.7585 -1.756 -5.359 -3.152 -4.4695 -1.934 -6.6585 0 -3.5455 -12.16972 -2.4265 -2.7415 -3.383 -4.4695 -4.1975 -4.2335 -3.115 -9.7025 0 -4.366 0 -4.7495 0 -1.756 -9.2725 0 
-7.367 -6.943 -16.69602 -12.16972 -5.17 -7.9125 -7.712 -6.782 -7.951 -7.1025 -6.4835 -7.809 -6.6585 -3.5455 -17.14502 -14.59622 -3.681 -4.8365 -6.6995 -8.912001 -9.1705 -7.0125 -13.5931 -9.7025 -4.366 -4.366 -4.7495 -4.7495 -1.756 -10.3285 -9.2725 
-7.751 -20.56912 -16.69602 -17.33972 -7.9125 -8.8935 -13.1124 -9.234 -12.2017 -8.446 -12.9571 -7.809 -9.951 -17.14502 -19.57152 -15.85072 -5.63 -8.35 -11.4984 -14.1814 -12.3887 -17.7312 -13.5931 -14.1411 -4.366 -8.243501 -4.7495 -6.2155 -10.3285 -10.3285 
-21.53112 -20.56912 -21.86602 -20.08222 -8.8935 -14.4049 -15.5644 -13.5521 -13.5452 -15.2358 -12.9571 -10.328 -23.44272 -19.57152 -20.82602 -17.79972 -9.5755 -13.7317 -16.7678 -17.3996 -23.1074 -17.7312 -18.0317 -14.1411 -8.243501 -8.243501 -6.2155 -15.7406 -10.3285 
-21.53112 -25.73912 -24.60852 -21.06322 -14.4049 -16.8569 -19.8825 -14.8956 -20.335 -15.2358 -15.4761 -23.81972 -25.86922 -20.82602 -22.77502 -21.74522 -14.961 -19.0011 -19.986 -28.1183 -23.1074 -22.1698 -18.0317 -18.0186 -8.243501 -8.727501 -15.7406 -15.7406 
-2.5195 -1.4985 -4.5735 -3.4795 -6.6585 -2.7415 -4.4695 -2.0935 -2.4265 -2.229 -4.9155 -5.187 0 -5.17 -6.4775 -1.756 -5.359 0 -3.5455 -5.866 -3.8405 -2.4265 -2.7415 -3.9205 -2.0935 -2.4265 -2.229 -6.1355 0 -4.366 0 -4.7495 -1.756 -5.2555 -3.993 -4.9535 0 
-3.1695 -5.271 -7.4725 -10.884 -9.5905 -6.768001 -5.6265 -4.488 -3.3415 -6.8165 -7.1905 -5.187 -5.17 -8.271 -7.922501 -6.782 -5.359 -3.5455 -8.344 -8.658501 -6.119 -3.681 -5.733 -5.033 -4.488 -3.3415 -8.226501 -6.1355 -4.366 -4.366 -4.7495 -6.2155 -6.616 -10.504 -6.947001 -4.9535 
-6.6455 -8.041 -15.3192 -13.816 -13.7134 -7.016 -7.3895 -5.949 -8.2625 -9.3245 -7.1905 -11.0145 -8.271 -9.471001 -13.3151 -6.782 -9.300501 -8.344 -11.3631 -10.0995 -7.0545 -6.602 -6.5975 -6.991 -5.949 -10.159 -8.226501 -8.817 -4.366 -8.243501 -6.2155 -8.76 -12.2027 -13.458 -6.947001 
-9.016 -16.1929 -18.2512 -17.9389 -13.9614 -8.933001 -7.5215 -10.2185 -11.0033 -9.3245 -13.4988 -14.1155 -9.471001 -15.0332 -13.3151 -11.1009 -14.1728 -11.3631 -12.8041 -10.2195 -9.360001 -7.938001 -8.795501 -7.0725 -12.6873 -10.159 -11.3996 -8.817 -8.243501 -8.727501 -8.76 -14.6303 -15.1567 -13.458 
-17.3371 -19.1249 -22.3741 -18.1869 -15.8784 -9.177 -11.9764 -12.9593 -11.0033 -15.8426 -16.5998 -15.3155 -15.0332 -15.0332 -17.634 -15.9732 -17.1919 -12.8041 -12.9241 -13.1452 -11.0264 -9.974501 -8.9645 -14.0992 -12.6873 -13.5991 -11.3996 -13.3847 -8.727501 -9.01 -14.6303 -17.5843 -15.1567 
-6.6585 -2.9705 -2.186 -4.4695 -2.0935 -5.187 0 -6.4775 -1.756 -5.359 -3.5455 -4.2235 -3.4795 0 -2.8645 -3.7905 -4.4695 -2.0935 -3.0435 -4.9535 -3.115 -5.418 -4.6155 0 -4.366 0 -4.7495 -1.756 -5.2555 0 
-9.857 -3.89 -6.053 -5.6265 -7.562 -5.187 -6.4775 -7.922501 -6.782 -9.300501 -8.244 -8.494 -3.4795 -2.8645 -4.816 -6.660501 -5.6265 -4.811 -8.731501 -7.172501 -7.844 -7.2435 -4.6155 -4.366 -4.366 -4.7495 -6.2155 -6.616 -5.2555 
-10.4 -7.449501 -6.184 -10.233 -7.562 -12.6499 -7.922501 -13.3151 -11.1009 -14.0728 -13.1703 -8.494 -6.693 -4.816 -7.166 -7.1455 -9.7045 -11.043 -11.7639 -12.5891 -10.6215 -7.2435 -8.895 -4.366 -8.243501 -6.2155 -8.76 -6.616 
-13.9595 -7.5505 -10.9925 -10.233 -15.4267 -14.0949 -13.3151 -17.634 -15.8732 -18.9991 -13.1703 -12.2627 -8.4855 -7.166 -7.293 -11.6471 -16.0393 -14.0754 -17.1805 -15.3666 -10.6215 -9.566501 -8.895 -8.243501 -8.727501 -8.76 -8.76 
-14.0605 -12.665 -10.9925 -18.2333 -16.8717 -19.4875 -17.634 -22.4063 -20.7995 -18.9991 -16.939 -14.0552 -10.9727 -7.293 -12.1828 -17.9819 -19.0717 -19.492 -19.958 -15.3666 -12.9445 -9.566501 -13.1187 -8.727501 -9.01 -8.76 
-2.5195 -4.5735 -2.95 0 -4.628 -4.743 -2.186 -5.091 -2.0935 -5.187 0 -5.076 0 -1.756 -5.359 -1.756 -3.5455 -1.4985 -2.95 -1.7565 -5.866 0 -2.4265 -4.3195 -4.4695 -2.0935 -3.993 -4.9535 -3.115 -5.2075 -4.5145 0 -4.366 -4.5145 0 -4.7495 0 -1.756 -5.2555 0 
-6.318501 -7.4445 -2.95 -4.628 -4.7515 -7.074 -6.483001 -6.4505 -7.562 -5.187 -5.076 -5.076 -1.756 -6.782 -6.5785 -5.4885 -3.91 -3.9285 -4.3785 -6.9965 -5.866 -2.4265 -5.45 -6.7285 -5.6265 -5.5695 -6.947001 -7.172501 -8.015501 -7.3155 -4.5145 -4.366 -6.601501 -4.5145 -4.7495 -4.7495 -1.756 -6.616 -5.2555 
-8.429501 -7.4445 -8.3065 -4.7515 -7.087 -11.7496 -7.007 -12.7336 -7.562 -9.765501 -5.076 -6.861 -6.782 -7.96 -11.061 -5.8975 -5.9385 -4.676 -8.852 -6.9965 -8.356 -5.45 -8.3275 -7.27 -9.9609 -8.3985 -8.476501 -12.7606 -10.1505 -7.3155 -8.196501 -6.601501 -6.601501 -9.3745 -4.7495 -6.2155 -6.616 -6.616 
-8.429501 -13.1454 -8.639 -7.087 -11.7692 -12.2736 -13.5931 -12.7336 -12.5423 -9.765501 -6.861 -10.0155 -7.96 -12.7545 -11.47 -7.6035 -6.481 -8.9385 -8.852 -8.936501 -10.634 -8.3275 -8.844 -11.8404 -12.7899 -9.885 -14.359 -14.8956 -10.1505 -11.5283 -9.673 -6.601501 -10.7575 -9.3745 -6.2155 -8.76 -6.616 
-14.5234 -13.4779 -10.041 -11.7692 -12.2932 -18.8597 -13.5931 -17.7139 -12.5423 -10.5255 -10.0155 -11.2855 -12.7545 -13.1635 -13.176 -8.288 -9.885 -8.9385 -10.7575 -11.4563 -13.5115 -8.844 -13.9058 -14.6694 -14.2764 -15.7821 -16.494 -14.8956 -14.4459 -13.0048 -9.673 -10.7575 -10.7575 -11.0909 -8.76 -8.76 
