-4.759 
n/a 
n/a 
n/a 
n/a 
-4.759 
n/a 
n/a 
n/a 
n/a 
-4.759 
n/a 
n/a 
n/a 
n/a 
-4.759 
n/a 
n/a 
n/a 
n/a 
-2.3335 -9.6315 -3.855 -1.8085 -3.815 -2.3335 -2.186 0 -3.098 -2.857 -3.956 -2.186 -2.857 -4.121 -3.098 0 
-13.1558 -13.7233 -4.8755 -4.818 -6.0975 -3.7085 -2.186 -3.098 -6.1335 -6.5725 -5.8235 -4.678 -5.2375 -7.324 -3.098 
-17.2476 -14.7438 -9.110001 -6.55 -7.219501 -3.7085 -4.5535 -6.1335 -9.803 -8.2565 -8.2345 -7.1175 -8.467501 -7.324 
-18.2681 -18.9783 -11.6262 -7.535 -7.219501 -6.1575 -7.1975 -9.803 -11.7744 -10.218 -11.148 -10.674 -8.467501 
-22.5026 -21.4945 -12.6112 -7.535 -10.0125 -8.286 -11.5328 -11.7744 -13.7359 -13.1315 -14.7045 -10.674 
-2.9805 -4.098 -5.7235 -2.0935 -2.9805 -4.424 -3.098 -2.3345 -3.091 -4.121 0 
-5.505 -10.254 -6.5015 -5.6085 -5.500501 -7.575001 -5.214 -4.9475 -5.304 -4.121 
-12.3612 -11.2008 -10.322 -8.2735 -8.48 -9.989 -7.1265 -6.706 -5.304 
-13.308 -15.0213 -13.2432 -10.6215 -10.9894 -12.1173 -9.396 -6.706 
-17.1285 -17.9425 -15.5912 -13.1309 -13.1177 -14.3868 -9.396 
-2.9805 -2.8645 -3.7555 -1.4985 -5.7235 -3.091 -3.956 -2.186 -3.768 -3.098 -2.3345 -3.091 -4.121 
-4.3245 -5.647 -4.843 -7.3645 -9.1835 -5.4375 -5.8235 -4.7835 -6.4255 -5.214 -4.9475 -5.304 
-6.893001 -6.856 -9.972 -9.6855 -11.7554 -7.208 -8.5235 -6.742001 -7.619 -7.1265 -6.706 
-7.921 -12.2542 -12.4986 -12.9974 -13.5259 -10.1888 -10.243 -8.104 -9.752001 -9.396 
-13.4448 -14.7808 -15.8105 -14.7679 -16.5067 -11.9083 -11.605 -10.7595 -12.2353 
-1.4985 -4.2245 -2.186 -3.098 -4.19 -2.5195 -3.091 -4.121 -3.8805 0 -2.6165 -1.7695 -3.769 0 
-5.219 -5.901 -4.5535 -7.39 -6.5665 -4.8225 -5.304 -8.775001 -3.8805 -2.6165 -4.153 -5.104 -3.769 
-7.0785 -8.075001 -9.1 -10.4945 -8.7475 -6.838 -10.218 -8.775001 -6.892 -4.153 -7.627501 -5.104 
-9.583 -13.2735 -10.6345 -12.9957 -11.0044 -12.0844 -10.218 -12.0003 -8.204 -7.627501 -7.627501 
-15.0241 -14.808 -13.3575 -15.2526 -16.2508 -12.0844 -13.4433 -13.3123 -11.8991 -7.627501 
