-4.759 
n/a 
n/a 
n/a 
n/a 
-4.759 
n/a 
n/a 
n/a 
n/a 
-4.759 
n/a 
n/a 
n/a 
n/a 
-4.759 
n/a 
n/a 
n/a 
n/a 
-4.278 -3.718 -2.186 -5.3945 -1.934 -3.948 -5.5025 
-8.870001 -5.353 -6.6085 -6.554 -5.024 -8.104 
-10.177 -10.298 -7.42 -9.6385 -9.048501 
-15.3154 -11.1095 -10.389 -13.6946 
-16.1269 -14.0785 -14.4451 
-2.7455 -5.675 -6.653 -2.229 -3.5125 -1.934 -2.645 -5.5025 -6.6565 -2.8645 -3.1125 -3.8535 
-8.47 -10.523 -9.3055 -5.187 -5.445 -4.899 -8.672001 -13.145 -9.908501 -3.5345 -5.3765 
-13.6172 -13.1755 -12.4789 -6.832 -8.55 -10.7175 -16.6037 -16.397 -10.537 -5.735 
-16.2697 -16.3489 -14.1239 -9.8085 -14.7271 -18.6492 -19.8557 -17.0255 -12.7375 
-19.4431 -17.9939 -17.1004 -16.2934 -22.6588 -21.9012 -20.4842 -19.226 
-4.278 -2.229 -2.7455 -3.5125 -1.7565 -3.3715 -4.088 -1.7695 -3.685 -1.4985 -6.6565 0 
-6.414001 -5.119 -6.0965 -4.312 -4.845 -5.932 -4.9205 -4.9795 -5.283 -8.826 -6.6565 
-10.1505 -8.900001 -7.2535 -7.815001 -7.974 -7.054 -9.174001 -6.857 -13.3071 -8.826 
-14.4349 -10.3498 -11.2785 -10.634 -9.091001 -11.4233 -11.5793 -15.1633 -13.3071 
-15.8847 -14.3748 -14.0975 -11.751 -13.5353 -13.8286 -19.8856 -15.1633 

n/a 
n/a 
n/a 
n/a 
