-4.759 
n/a 
n/a 
n/a 
n/a 
-4.759 
n/a 
n/a 
n/a 
n/a 
-4.759 
n/a 
n/a 
n/a 
n/a 
-4.759 
n/a 
n/a 
n/a 
n/a 
-2.5045 -3.0835 -4.176 -3.2955 -1.4985 -5.5105 -4.6555 -5.302 -3.737 -5.043 -3.711 -3.4515 -3.034 -1.4985 -3.158 -1.7565 -5.0275 -8.526001 -1.756 -5.1525 0 
-4.934 -6.7305 -8.432501 -4.8715 -6.779 -11.3946 -10.9075 -8.441 -9.764001 -10.9075 -7.4375 -6.1355 -3.947 -4.178 -4.71 -7.117001 -12.2745 -9.447001 -7.6305 -5.1525 
-9.432 -11.814 -10.2385 -9.8105 -13.0891 -17.6466 -14.0465 -14.815 -15.6609 -14.634 -10.7493 -7.0385 -7.593 -5.562 -9.493 -15.915 -14.6338 -10.261 -7.6305 
-14.8153 -13.62 -15.1775 -16.1656 -19.3411 -20.7856 -20.4205 -20.7119 -19.3874 -17.9458 -11.6523 -10.717 -8.887501 -9.790001 -18.3188 -17.1995 -16.4902 -10.7814 
-16.6213 -18.559 -21.5326 -22.4176 -22.4801 -27.1596 -26.3174 -24.4384 -22.6992 -18.8488 -15.3308 -12.0115 -13.2585 -18.6158 -19.6033 -19.0559 -16.4902 
-1.934 -3.288 -5.0275 0 -4.176 -2.9645 -8.255501 -3.7015 -1.4985 -5.238 -1.756 -5.1525 -6.405 -3.711 -2.229 -4.3365 0 
-4.9715 -7.4225 -5.0275 -4.176 -8.302 -10.4945 -12.3896 -4.3435 -7.6125 -7.0445 -7.6305 -12.2251 -11.08 -6.455501 -6.342 -4.3365 
-8.2945 -7.4225 -8.7005 -8.302 -16.208 -14.6286 -13.0316 -10.76 -9.13 -8.380501 -15.0465 -16.9001 -13.8245 -9.531 -6.342 
-8.2945 -10.586 -13.0455 -16.208 -20.3421 -15.2706 -19.4481 -12.2775 -9.316501 -16.0549 -19.7215 -19.6446 -16.9 -9.531 
-11.8052 -14.931 -20.9515 -20.3421 -20.9841 -21.6871 -20.9656 -12.464 -17.9993 -20.7299 -22.466 -22.7201 -16.9 
-1.934 -5.0275 -3.288 0 -5.238 -1.756 -5.1525 -4.176 -3.9535 -5.5035 -1.7695 -2.9645 -5.5105 -4.809 -1.7695 -5.0125 -4.372 0 
-6.3965 -7.922 -3.288 -5.238 -7.0445 -7.6305 -9.1765 -9.1005 -8.956 -7.008 -3.812 -7.7305 -11.1355 -6.198 -6.134501 -10.504 -4.372 
-8.197001 -7.922 -7.640501 -7.0445 -8.380501 -11.9979 -14.1136 -14.3616 -10.5805 -9.3555 -8.672501 -14.1153 -12.5245 -11.0958 -12.3904 -10.504 
-8.197001 -13.3493 -8.925 -8.380501 -13.0063 -16.935 -19.3747 -15.9861 -12.928 -14.3118 -15.2755 -15.5043 -17.4223 -17.3517 -12.3904 
-15.4075 -14.6338 -10.7814 -13.0063 -17.9434 -22.1961 -20.9992 -18.3336 -17.8843 -20.9148 -16.6645 -20.4021 -23.6782 -17.3517 
-4.176 -1.7695 -2.9645 -1.4985 -7.860001 -3.898 -2.5045 -5.5945 -1.756 -5.1525 
-6.693 -3.812 -3.957 -9.311501 -12.408 -6.302 -8.6675 -7.5755 -7.6305 
-9.436001 -4.58 -12.0892 -14.0525 -14.812 -12.9384 -10.419 -13.9042 
-10.4685 -12.8672 -16.8302 -16.4565 -21.4484 -14.6899 -16.7477 
-18.7557 -17.6082 -19.2342 -23.0929 -23.1999 -21.0186 
