-4.759 
n/a 
n/a 
n/a 
n/a 
-4.759 
n/a 
n/a 
n/a 
n/a 
-4.759 
n/a 
n/a 
n/a 
n/a 
-4.759 
n/a 
n/a 
n/a 
n/a 
-1.8085 -3.264 -1.7565 -4.3685 -4.449 -4.331 -1.8085 -4.1665 -2.0935 -1.4985 -3.8145 -1.7695 -6.733 -2.5195 -3.9995 -4.125 -1.756 -3.7905 0 -2.5045 -2.4265 -3.251 -3.1125 -1.8085 -4.153 -4.253 0 -3.1435 -3.5205 -4.6025 -5.209 
-4.241 -3.6125 -5.836501 -9.705 -8.156501 -5.886001 -5.588 -5.4735 -2.9725 -4.691 -5.9245 -6.9315 -7.186501 -6.0315 -4.1335 -5.8735 -5.3495 -3.7905 -2.5045 -4.228 -4.8545 -4.28 -4.4415 -5.4815 -7.430501 -4.253 -3.1435 -4.573 -8.276001 -7.810501 
-4.2885 -8.2295 -10.2535 -10.497 -9.548501 -7.6305 -6.936 -6.3305 -5.9175 -6.542 -10.368 -7.353 -9.7605 -6.0845 -5.882 -9.4655 -5.3495 -6.375 -4.228 -6.366 -5.5485 -5.6805 -8.461 -7.574 -7.430501 -7.883 -4.573 -9.634001 -10.621 
-8.378 -10.5035 -10.512 -10.5215 -10.1735 -8.903501 -7.7495 -9.413501 -7.568 -10.513 -10.3935 -9.812 -9.763 -7.4665 -9.465501 -9.4655 -7.707 -8.2165 -6.366 -6.8625 -6.558001 -9.252501 -9.581 -7.574 -10.1305 -10.304 -9.634001 -10.623 
-10.5035 -10.5195 -10.528 -10.5765 -10.5125 -9.623501 -10.2975 -10.4865 -10.5135 -10.529 -10.5465 -9.815001 -10.3095 -10.3215 -9.465501 -10.599 -9.447001 -10.243 -6.8625 -8.296 -9.538 -9.614 -9.581 -10.1585 -10.6805 -10.6835 -10.623 
-3.5445 -5.4945 -1.756 -5.5025 -8.114 -3.1495 -7.717 -4.7275 -2.4945 -7.226 -4.5495 -2.0935 -4.4695 -4.7275 0 
-9.399 -8.040501 -7.3455 -14.4247 -12.0795 -12.1617 -10.575 -6.472001 -11.1415 -10.884 -7.0165 -7.182 -7.339 -4.7275 
-12.1846 -13.9602 -16.5599 -18.3902 -21.0917 -15.0197 -12.3195 -15.44 -14.7995 -13.351 -12.9438 -9.6635 -7.339 
-18.1043 -23.1746 -20.5254 -27.4024 -23.9497 -16.7642 -21.2875 -19.098 -17.2665 -19.2783 -15.4253 -9.6635 
-27.3187 -27.1401 -29.5376 -30.2604 -25.6942 -25.7322 -24.9455 -21.565 -23.1938 -21.7598 -15.4253 
-1.4985 -3.5445 -5.098 -1.756 -5.632 -8.282001 -2.4945 -1.4985 -3.8195 -3.972 -3.0695 -4.3195 -3.874 -3.6605 -3.7865 -1.934 -1.4985 -3.9195 -1.7565 -4.637 -8.288 -3.0695 -2.7415 -1.4985 -11.154 -3.9875 -2.264 -3.5155 -4.57 -4.3225 -1.756 -3.8195 -4.019 0 
-5.5845 -9.18 -6.769 -7.443501 -14.8378 -11.2735 -3.9315 -4.771 -6.698501 -6.535 -5.9925 -7.725 -7.184 -8.175 -5.4965 -2.6125 -4.631001 -4.7565 -5.8135 -12.2655 -11.8655 -4.6395 -4.063 -11.431 -14.9302 -6.0465 -4.979 -8.602 -7.583 -5.6365 -5.5935 -7.035501 -4.019 
-12.0424 -10.9576 -13.0723 -17.1095 -17.8293 -12.7105 -8.111 -7.198 -8.651501 -9.2635 -10.3165 -12.3064 -12.1677 -10.228 -6.5775 -5.191 -4.871 -10.3765 -15.1349 -17.8392 -13.4355 -5.8275 -14.1667 -17.2907 -17.413 -8.8135 -10.6095 -12.1354 -8.765 -7.901 -8.549 -7.035501 
-13.82 -17.2609 -22.7383 -20.101 -19.2663 -16.89 -10.411 -9.935 -11.601 -13.8333 -14.7885 -17.2901 -14.2207 -11.553 -8.199 -5.239 -10.2795 -18.426 -19.2678 -19.4092 -14.6235 -15.7796 -19.9096 -19.3497 -20.18 -14.5088 -14.1421 -13.3174 -11.1953 -11.5685 -8.549 
-20.1233 -26.9269 -25.7298 -21.538 -23.4458 -19.19 -13.148 -12.8845 -16.1708 -18.3053 -19.7722 -19.3431 -15.5457 -13.1745 -8.240001 -11.0695 -18.491 -23.0333 -20.8378 -20.5972 -24.8322 -21.1907 -21.9686 -22.1167 -25.8753 -18.0414 -15.3241 -15.7477 -14.8628 -11.5685 

n/a 
n/a 
n/a 
n/a 
-4.759 
n/a 
n/a 
n/a 
n/a 
