-4.759 
n/a 
n/a 
n/a 
n/a 
-4.759 
n/a 
n/a 
n/a 
n/a 
-4.759 
n/a 
n/a 
n/a 
n/a 
-4.759 
n/a 
n/a 
n/a 
n/a 
-3.0365 -2.4945 -3.3715 -3.8435 -4.328 -4.06 -1.934 -3.345 -3.1715 0 
-3.688 -4.846 -6.946501 -7.629001 -7.424 -4.483 -4.618 -5.613501 -3.1715 
-4.8765 -8.099001 -10.0675 -10.3545 -7.6975 -7.191501 -6.176 -5.613501 
-8.114 -11.535 -12.9678 -10.43 -10.3815 -8.343 -6.176 
-11.5568 -14.4353 -13.0433 -13.6528 -11.533 -8.343 
-2.8965 -3.1575 -2.3615 -3.345 -3.1715 -3.7445 -3.5435 -3.8435 -4.536 
-4.4055 -5.4355 -6.708 -5.613501 -6.2795 -7.528 -7.638 -6.6485 
-6.295 -9.0325 -9.279 -9.995501 -9.3795 -12.1125 -9.803 
-10.374 -11.6947 -13.923 -13.0955 -14.1442 -14.2775 
-13.0362 -16.3387 -17.023 -17.8602 -16.3092 
-3.1495 -4.1485 -2.3335 -3.468 -2.674 -3.5435 -3.8435 -4.536 0 
-7.6885 -5.245 -5.961 -5.5775 -7.2025 -7.638 -6.6485 -4.536 
-9.009 -9.169001 -7.379 -9.491 -11.7418 -9.803 -6.6485 
-13.1016 -11.0924 -11.6889 -14.4017 -13.9068 -9.803 
-15.025 -15.4023 -16.5996 -16.5667 -13.9068 
-2.8965 -3.1575 -2.3335 0 -1.934 -3.345 -3.1715 -8.236 -9.785501 -4.536 -2.4945 -3.074 -3.333 
-4.4055 -4.92 -2.3335 -1.934 -4.618 -5.613501 -10.4765 -18.3665 -14.4223 -6.476 -4.4205 -4.8285 
-5.692 -4.92 -4.468 -4.618 -6.176 -13.8119 -20.607 -23.0033 -16.3623 -8.2305 -5.442 
-5.692 -6.402 -6.892 -6.176 -14.7234 -23.9424 -25.2438 -24.9433 -18.1168 -9.767 
-7.5655 -9.4055 -8.952001 -14.7234 -24.8539 -28.5792 -27.1838 -26.6978 -19.6533 
