-4.759 
n/a 
n/a 
n/a 
n/a 
-4.759 
n/a 
n/a 
n/a 
n/a 
-4.759 
n/a 
n/a 
n/a 
n/a 
-4.759 
n/a 
n/a 
n/a 
n/a 
-3.1015 -2.7835 -2.7295 -4.0745 -3.691 -2.8645 -1.8085 -3.383 -3.535 -4.225 -4.257 -3.9665 0 
-5.328 -4.405 -6.06 -8.358 -6.076 -3.9785 -4.1695 -5.298 -8.344 -7.036 -7.689 -3.9665 
-6.5325 -7.133501 -10.0315 -10.757 -7.211 -5.7375 -5.706 -10.2645 -11.7076 -11.3612 -7.689 
-9.113 -10.513 -12.6455 -13.1916 -8.8255 -7.3815 -10.5635 -13.6281 -16.0328 -11.3612 
-12.6569 -13.127 -15.0801 -14.8061 -10.2755 -12.368 -13.9271 -17.9533 -16.0328 
-2.4265 -2.229 -4.0745 -1.7695 -6.0115 -2.229 -6.943 -3.515 -3.535 -2.871 0 
-3.3415 -6.904 -5.6095 -8.357 -9.188001 -8.653 -10.784 -7.774 -6.4075 -2.871 
-9.443501 -8.416 -12.7972 -10.6735 -15.7328 -12.8176 -15.043 -11.1461 -6.4075 
-11.0377 -15.8297 -15.1137 -17.2183 -19.8974 -17.0766 -18.4151 -11.1461 
-18.4514 -18.1462 -21.6585 -21.3829 -24.1564 -20.4487 -18.4151 
-3.383 -3.628 -9.628 -1.934 -3.691 
-5.1625 -14.4288 -11.0145 -4.8225 
-16.9091 -15.8153 -13.903 
-18.2956 -18.7038 
-21.1841 
-8.3895 -4.2085 -4.225 -4.257 -2.186 -2.871 -3.9225 -1.4985 -5.217 0 
-14.3975 -8.166 -7.036 -6.2325 -4.247 -6.554 -4.463 -5.402 -5.217 
-16.0665 -11.546 -10.2085 -8.265 -7.502501 -7.095 -7.7815 -5.402 
-19.7735 -14.7185 -12.241 -11.9613 -7.971 -10.702 -7.7815 
-22.946 -16.751 -15.9373 -12.4298 -11.831 -10.702 
