-4.759 
n/a 
n/a 
n/a 
n/a 
-4.759 
n/a 
n/a 
n/a 
n/a 
-4.759 
n/a 
n/a 
n/a 
n/a 
-4.759 
n/a 
n/a 
n/a 
n/a 
-2.855 -3.5585 -4.19 -3.2615 -2.985 -4.0795 -2.7415 -4.6295 -2.925 -1.934 -12.16972 -4.299 
-6.847 -8.266001 -6.3335 -5.5625 -6.5135 -6.2865 -6.059 -5.5385 -4.436501 -15.11012 -16.46872 
-11.9971 -10.31 -8.698 -8.538 -8.007 -9.3295 -7.2375 -5.884501 -18.10122 -19.40912 
-14.0411 -12.6745 -10.5135 -9.17 -9.894 -10.689 -7.392 -20.29022 -22.40022 
-16.4056 -14.49 -11.1455 -11.176 -11.6531 -10.713 -22.12872 -24.58922 
-12.16972 -4.297 -4.6105 -2.855 -3.5585 -4.424 
-16.46672 -7.033 -7.357 -6.847 -8.046 
-19.20272 -10.4115 -12.0044 -11.7771 
-22.58122 -15.0589 -16.9345 
-27.22862 -19.989 
-2.855 -3.5585 -1.934 -1.4985 -4.297 -4.424 -3.5455 -4.299 -2.264 -12.16972 
-6.847 -4.9155 -2.6125 -5.24 -9.166 -6.5725 -7.758 -5.322001 -15.46572 
-8.195 -5.5505 -6.872 -9.593 -11.3999 -11.4118 -8.873501 -19.08812 
-8.887 -9.592 -11.448 -11.8947 -16.2392 -12.5273 -22.69722 
-13.0259 -14.168 -13.7497 -16.734 -17.3547 -26.35102 
-1.934 -12.16972 -4.299 0 -2.855 -3.5585 -3.152 -4.424 -1.934 -4.297 0 
-15.11012 -16.46872 -4.299 -2.855 -6.847 -5.675 -8.638 -5.195 -6.725 -4.297 
-19.40912 -16.46872 -7.397 -6.847 -8.6925 -11.8512 -9.485001 -9.724501 -6.725 
-19.40912 -19.56672 -11.7954 -8.6925 -15.0091 -12.6982 -14.2163 -9.724501 
-22.50712 -23.96512 -13.6409 -15.0091 -15.8561 -17.4295 -14.2163 
