-4.759 
n/a 
n/a 
n/a 
n/a 
-4.759 
n/a 
n/a 
n/a 
n/a 
-4.759 
n/a 
n/a 
n/a 
n/a 
-4.759 
n/a 
n/a 
n/a 
n/a 
-1.934 -1.4985 -4.0415 -4.319 0 -3.091 -5.9575 -4.2245 -4.165 -4.5385 -1.756 -4.481 -9.5485 -4.424 0 
-2.6125 -4.9725 -8.6005 -4.319 -3.091 -6.9175 -6.438001 -7.202001 -7.7435 -6.518001 -5.862 -14.9799 -14.0889 -4.424 
-5.753 -9.009001 -8.6005 -7.1115 -6.9175 -7.1215 -8.767 -9.389 -9.572001 -9.706501 -16.5189 -19.5203 -14.0889 
-10.078 -9.009001 -11.5944 -11.436 -7.1215 -9.008 -10.4265 -10.486 -12.7503 -20.3722 -21.0593 -19.5203 
-10.078 -12.2033 -15.9189 -11.64 -9.008 -10.7569 -11.5235 -13.6643 -23.416 -24.9126 -21.0593 
-3.5005 -3.091 -5.054 -4.2245 -4.165 -5.7045 0 -4.481 -7.891 -3.152 -4.424 -1.934 -2.3615 -4.0415 -4.299 
-6.139 -7.0235 -7.245501 -7.202001 -8.703 -5.7045 -4.481 -10.8215 -10.389 -8.638 -5.195 -3.539 -7.127501 -7.2155 
-9.951 -8.004001 -9.627001 -10.223 -8.703 -10.802 -10.8215 -13.3195 -15.875 -9.485001 -7.3915 -8.337001 -9.969501 
-11.0451 -9.869 -12.7954 -10.223 -14.3373 -17.1425 -13.3195 -18.8055 -16.722 -11.8833 -12.7553 -11.3866 
-12.9101 -13.1126 -12.7954 -15.8573 -20.6778 -19.6405 -18.8055 -19.6525 -19.1203 -17.2471 -15.8049 
-3.5445 -2.3615 -3.091 -5.054 -4.2245 -4.165 -5.7045 0 -3.091 -4.481 -10.462 -3.074 -4.424 -1.934 -1.4985 -4.3685 -3.7015 -4.257 0 
-5.179 -6.5885 -7.0235 -7.245501 -7.202001 -8.703 -5.7045 -3.091 -5.676 -15.8934 -13.536 -6.9425 -5.195 -2.6125 -5.106 -6.005 -7.7535 -4.257 
-9.743501 -10.4185 -8.004001 -9.627001 -10.223 -8.703 -9.175501 -5.676 -17.3582 -18.9674 -17.4045 -7.4525 -6.055501 -6.0625 -6.516 -10.3345 -7.7535 
-13.7983 -11.6952 -9.869 -12.7954 -10.223 -12.7108 -11.8095 -17.3582 -20.4322 -22.8359 -17.9145 -7.948 -8.014501 -6.8965 -11.2197 -10.3345 
-15.075 -13.5602 -13.1126 -12.7954 -14.2308 -15.3448 -23.4917 -20.4322 -24.3007 -23.3459 -18.41 -9.959001 -9.383 -11.8058 -11.2197 

n/a 
n/a 
n/a 
n/a 
