-4.759 
n/a 
n/a 
n/a 
n/a 
-4.759 
n/a 
n/a 
n/a 
n/a 
-4.759 
n/a 
n/a 
n/a 
n/a 
-4.759 
n/a 
n/a 
n/a 
n/a 
-3.5725 -3.1015 0 -1.4985 -3.809 -3.6385 -5.5785 -5.2235 -2.7455 -3.091 -3.3975 -3.499 -1.756 -4.33 -3.4945 -4.077 -1.934 -3.97 0 
-7.305 -3.1015 -1.4985 -4.9045 -5.3645 -9.2235 -10.985 -8.576 -5.024 -5.146 -5.114501 -4.9 -6.5685 -7.126 -9.134001 -4.43 -5.607 -3.97 
-7.305 -4.7205 -4.9045 -6.05 -11.5971 -14.6868 -14.3375 -11.1925 -7.1555 -7.096 -6.047 -9.283001 -9.620501 -13.2403 -10.3685 -7.0295 -5.607 
-8.7335 -7.856 -6.05 -12.631 -17.0604 -18.0393 -16.954 -13.324 -9.439 -8.0395 -9.755501 -12.4748 -15.7242 -14.4748 -13.2642 -7.0295 
-11.9346 -8.723001 -12.631 -18.0943 -20.4129 -20.6558 -19.0855 -15.6075 -10.349 -10.238 -13.0201 -18.5785 -16.9587 -17.3705 -13.2642 
-4.732 -3.321 -5.5785 -2.7415 -1.8085 -4.0905 -3.4945 -2.9995 -3.9655 -4.3235 -2.8965 -3.1575 -3.7345 -3.2615 -3.595 -1.756 -3.091 -3.3975 0 
-6.606 -9.425501 -7.358 -3.891 -5.857 -7.321001 -4.9185 -6.25 -6.925 -7.316 -4.4055 -6.8255 -5.9915 -6.0585 -4.8 -4.2995 -5.146 -3.3975 
-13.1435 -10.5545 -8.3245 -7.6565 -9.25 -9.22 -8.1175 -9.735001 -10.2865 -7.7425 -8.113001 -8.6125 -7.864501 -7.0195 -5.904 -5.779 -5.146 
-14.2725 -11.521 -12.286 -11.3771 -10.758 -12.6086 -11.8795 -13.0965 -10.713 -11.755 -9.896001 -10.5975 -8.7325 -8.429501 -6.7815 -5.779 
-15.239 -15.4825 -16.0066 -12.8851 -14.1466 -16.3706 -15.241 -13.523 -14.7255 -13.538 -11.7476 -11.9483 -9.382501 -9.684 -6.7815 
-2.5045 -2.3335 -2.95 -5.5785 -2.7415 -2.664 -3.809 -3.6385 0 -1.756 -2.9805 -1.756 -3.091 -3.3975 -3.4405 -2.6165 -3.3785 -2.7455 -1.4985 -3.97 0 
-4.744 -4.8245 -9.029 -7.358 -4.6625 -7.8795 -5.3645 -3.6385 -1.756 -4.3555 -5.160501 -4.2995 -5.146 -6.9425 -3.7415 -4.9585 -4.6985 -3.637 -5.476 -3.97 
-5.158 -10.199 -9.981501 -9.052501 -9.739 -9.1055 -5.3645 -5.0765 -4.3555 -6.5245 -5.597 -5.779 -8.312 -7.259 -5.9475 -6.301 -5.497 -7.1245 -5.476 
-10.3475 -11.1515 -11.676 -14.314 -10.589 -9.1055 -6.7045 -6.746 -6.5245 -6.9905 -6.6985 -9.152 -8.5965 -8.737 -7.322001 -6.9495 -9.057501 -7.1245 
-11.3 -12.846 -16.9375 -15.164 -10.589 -10.7335 -8.014 -8.976501 -6.9905 -8.0725 -10.381 -9.531501 -9.667 -9.824 -7.956 -10.6272 -9.057501 
-4.732 -2.3615 -2.95 0 -2.9805 -3.251 -4.4625 -3.2615 -4.33 -1.756 -3.091 -3.3975 -3.4945 -3.7875 -2.9995 -3.7895 -1.934 -3.97 0 
-6.851001 -4.4645 -2.95 -2.9805 -4.429 -6.583 -6.096 -7.395 -5.514 -4.2995 -5.146 -7.021 -5.246 -6.027 -5.9495 -4.5695 -5.607 -3.97 
-8.2845 -4.4645 -5.2005 -4.429 -7.4455 -8.344501 -9.161501 -8.2735 -6.351 -5.779 -8.412001 -8.497001 -7.022 -8.179001 -6.3695 -7.208001 -5.607 
-8.2845 -6.157001 -6.578 -7.4455 -9.439001 -10.6345 -9.8835 -9.099501 -7.217501 -9.1855 -10.054 -10.396 -9.546 -8.301001 -9.0695 -7.208001 
-9.935 -7.51 -9.485001 -9.439001 -11.741 -11.3565 -10.764 -9.792001 -9.846001 -10.8903 -11.504 -12.92 -9.602501 -11.334 -9.0695 
