-4.759 
n/a 
n/a 
n/a 
n/a 
-4.759 
n/a 
n/a 
n/a 
n/a 
-4.759 
n/a 
n/a 
n/a 
n/a 
-4.759 
n/a 
n/a 
n/a 
n/a 
-17.369 -3.7905 -1.8085 -5.178 -3.9725 -6.7145 -7.5975 
-22.5175 -4.255 -7.1995 -9.417001 -9.193001 -15.0742 
-22.55 -10.4035 -12.1059 -14.7193 -17.9303 
-29.9967 -16.1995 -17.4082 -23.4566 
-35.7927 -21.5018 -26.1455 
-1.934 -10.6505 -10.318 -4.3195 -1.4985 -6.864 -3.9725 0 
-13.1394 -20.6426 -14.7349 -5.1515 -7.8675 -8.775001 -3.9725 
-23.8068 -25.2833 -15.5669 -12.2695 -9.040001 -8.775001 
-28.2237 -26.1153 -22.6849 -13.442 -9.040001 
-29.0557 -33.2333 -23.8574 -13.442 
-1.934 -4.788 -3.9055 -10.318 -2.7415 -1.4985 -6.864 -3.9725 
-7.816 -8.6115 -14.7985 -13.1569 -4.063 -7.8675 -8.775001 
-9.729001 -19.7699 -17.6374 -14.4784 -10.4505 -9.040001 
-20.9082 -22.6088 -18.9589 -20.8659 -11.623 
-23.7471 -23.9303 -25.3464 -22.0384 
-1.934 -4.747 -4.788 -12.16972 -4.3195 -3.9725 
-6.006001 -9.397 -17.59932 -16.48922 -7.114 
-11.1035 -22.09312 -21.91882 -19.28372 
-23.94202 -26.74702 -24.71332 
-28.26152 -29.54152 
