-4.759 
n/a 
n/a 
n/a 
n/a 
-4.759 
n/a 
n/a 
n/a 
n/a 
-4.759 
n/a 
n/a 
n/a 
n/a 
-4.759 
n/a 
n/a 
n/a 
n/a 
-2.4265 -3.644 -2.3335 -3.1495 -4.0135 -1.7565 -4.5995 -3.4635 -4.361 -4.0925 -3.152 -3.458 -1.4985 -4.2695 -1.756 -4.1645 0 -1.756 -3.458 -1.4985 -3.639 -3.6455 0 -3.5485 -1.756 -2.8965 -9.52 -3.937 -3.1495 0 
-5.2615 -4.989501 -4.8015 -6.39 -4.201 -5.5905 -8.348001 -7.696501 -6.5535 -7.017 -6.587501 -4.063 -5.444 -5.3715 -5.9245 -4.1645 -1.756 -5.54 -4.063 -5.385 -6.107 -3.6455 -3.5485 -4.869 -3.751 -13.5617 -13.6632 -6.467 -3.1495 
-6.271 -7.388 -7.945001 -6.4125 -8.896501 -9.179501 -12.963 -10.6224 -8.8685 -9.644501 -7.303 -7.7665 -6.538 -8.001 -5.9245 -5.322001 -5.54 -6.216 -7.9725 -8.398001 -6.107 -7.725501 -4.869 -7.144 -14.9864 -17.7049 -16.1932 -6.467 
-8.717501 -10.1505 -7.961 -11.678 -12.6909 -13.9581 -15.8889 -12.9374 -11.5776 -10.0265 -11.6005 -8.295501 -9.0045 -8.001 -7.48 -8.751 -6.216 -10.485 -10.382 -8.398001 -10.01 -9.231001 -7.144 -19.0676 -19.1296 -20.2349 -16.1932 
-11.6246 -10.1745 -13.2973 -15.4724 -17.4695 -16.884 -18.2039 -15.6465 -11.9596 -14.324 -12.1295 -10.4675 -9.0045 -9.354 -9.724501 -9.561501 -10.485 -12.8945 -10.382 -12.7042 -10.603 -11.7002 -19.0676 -23.2108 -21.6596 -20.2349 
-3.1495 -4.0305 -1.7565 -4.4935 -4.182 -3.152 -3.251 -3.458 -1.4985 -9.02 -1.756 -2.985 -4.573 0 -3.711 -3.0695 -3.152 -5.1635 -1.756 -3.5485 -2.356 -2.8965 -3.5485 0 
-6.9455 -4.6115 -5.791 -9.109501 -6.7065 -7.278001 -7.2725 -4.063 -9.881001 -9.769001 -4.2025 -6.7035 -4.573 -3.711 -5.3125 -4.8015 -8.065001 -6.421 -4.8465 -5.4035 -4.4085 -5.901 -3.5485 
-6.978 -9.127001 -10.1505 -11.8132 -11.3327 -9.561501 -8.433001 -12.7665 -10.23 -10.9755 -8.013 -6.7035 -7.0425 -5.3125 -6.503 -9.2465 -9.047 -10.66 -6.641 -8.278501 -6.797501 -5.901 
-11.9147 -13.6493 -13.0458 -16.4394 -13.6162 -10.161 -17.9967 -14.0978 -11.711 -12.0565 -8.013 -10.281 -10.2085 -6.503 -10.609 -10.9639 -13.408 -12.4545 -9.4335 -9.423 -6.797501 
-16.437 -16.5446 -17.672 -18.7229 -14.2157 -19.7247 -18.6042 -15.662 -14.1691 -12.7169 -11.6953 -13.447 -11.399 -10.609 -12.3264 -15.3249 -15.2025 -15.247 -10.412 -9.423 
-2.3615 -3.319 -1.7565 -4.4935 -3.8315 -2.742 -3.8535 -2.3345 -1.4985 -4.1455 -4.1645 -1.7695 -2.985 -8.977 0 -3.135 -4.8275 -3.937 -2.356 -2.8965 -4.8275 
-4.9575 -4.165 -5.791 -5.732 -7.252001 -7.897 -5.069 -3.233 -5.503 -7.257 -5.719501 -4.281 -13.3266 -8.977 -3.135 -8.8065 -10.5535 -6.0535 -4.4085 -7.936501 
-5.092 -8.335 -7.55 -9.041 -12.6918 -8.631001 -5.785 -7.233 -8.691001 -8.929501 -7.9075 -14.857 -13.3266 -12.3526 -8.8065 -14.6291 -12.67 -8.537001 -9.5175 
-9.4595 -9.826 -10.264 -14.5644 -13.4258 -9.857 -9.546 -10.275 -10.467 -11.2471 -18.9707 -14.857 -16.7022 -18.0241 -14.6291 -16.7456 -15.1535 -13.8764 
-10.761 -12.54 -15.9454 -15.2984 -14.6518 -13.618 -12.632 -12.051 -12.7846 -22.3103 -18.9707 -18.2326 -22.3737 -23.8467 -16.7456 -19.2291 -20.4929 
-1.934 -2.3615 0 -2.4265 -2.186 -3.264 -2.3335 -2.3615 -3.319 -1.7565 -4.4935 -3.8315 -3.152 -4.683 -3.458 -1.4985 -4.5655 -2.356 -2.985 -4.1455 -4.0745 0 -3.383 -3.639 -3.1385 -3.5445 -4.2315 -1.756 -4.1105 -2.356 -2.8965 -4.1105 0 
-3.539 -2.3615 -2.4265 -3.292 -5.316 -4.533 -4.2805 -4.9575 -4.165 -5.791 -5.732 -7.369 -7.033 -7.528 -4.063 -6.2545 -6.462 -4.4615 -6.59 -7.3805 -4.0745 -3.383 -5.513 -7.333 -6.3555 -6.9085 -5.332 -5.9565 -5.788001 -4.4085 -6.5065 -4.1105 
-3.539 -5.3335 -3.292 -5.862 -6.1675 -6.34 -6.618001 -5.092 -8.335 -7.55 -9.165001 -11.5704 -9.692501 -8.1295 -8.306 -8.432 -8.5 -7.828 -9.2875 -7.3805 -8.024 -5.513 -9.179001 -11.238 -10.2535 -7.705 -10.7565 -7.962 -9.221001 -8.5555 -6.5065 
-7.0505 -6.0025 -5.862 -6.1755 -7.758 -8.667001 -6.6385 -9.4595 -9.826 -10.3955 -13.4224 -14.2299 -10.3765 -12.5529 -11.1457 -10.3745 -12.1113 -10.6255 -9.2875 -11.6218 -10.7495 -9.179001 -13.3414 -15.136 -11.05 -13.2665 -12.762 -11.6014 -13.634 -8.5555 
-7.5925 -8.349501 -6.1755 -7.763 -9.826 -8.677 -11.1142 -10.761 -12.6715 -14.6529 -16.0819 -14.9139 -14.7999 -15.3926 -13.0882 -13.9858 -14.9088 -10.6255 -13.6894 -14.3473 -14.4155 -13.3414 -17.2394 -15.9325 -16.6115 -15.272 -16.4014 -16.0144 -13.634 
