-4.759 
n/a 
n/a 
n/a 
n/a 
-4.759 
n/a 
n/a 
n/a 
n/a 
-4.759 
n/a 
n/a 
n/a 
n/a 
-4.759 
n/a 
n/a 
n/a 
n/a 
-1.934 -3.5035 -3.333 -2.7295 -2.7765 -2.6165 -3.8905 -1.4985 -4.1105 -2.229 -3.2895 -2.186 -3.0365 -1.934 -3.8735 -3.433 -2.4265 -2.186 -4.221 -3.2895 -4.64 -3.5035 -2.186 -1.934 -3.8475 0 
-5.1175 -5.6815 -6.007501 -4.065 -4.9255 -5.9085 -5.052 -5.1575 -5.194 -5.268 -6.002 -4.5415 -5.238 -4.885 -7.416 -4.4115 -3.292 -5.4275 -6.037 -8.296501 -8.158001 -5.432 -4.0835 -5.531 -3.8475 
-7.801 -9.310501 -7.564001 -6.0195 -7.218 -6.8265 -8.2225 -6.0855 -7.474 -7.621 -8.422001 -6.658501 -8.4165 -7.8345 -8.415501 -5.0845 -7.041 -8.621 -10.647 -12.5875 -10.9153 -7.2415 -8.3765 -5.531 
-11.8318 -11.098 -9.1675 -8.4135 -8.2135 -9.7685 -9.945001 -8.208 -9.707001 -9.995001 -9.948 -9.491001 -11.672 -8.8955 -9.01 -8.971001 -9.9775 -13.6304 -14.938 -15.3448 -12.7248 -12.0445 -8.3765 
-13.6193 -12.7015 -11.7675 -9.580501 -11.5383 -11.4908 -12.0675 -11.0026 -12.1106 -11.5416 -13.8085 -12.9817 -12.733 -9.508501 -12.9909 -11.8213 -15.2253 -17.9214 -17.6953 -17.1543 -17.5278 -12.0445 
-2.7295 -3.581 -5.651501 -3.6785 -2.3335 -4.8275 -3.152 -4.3285 -2.3345 -3.5035 -3.433 -1.4985 -4.1865 -3.5035 -2.186 -3.43 -2.264 -4.3705 -4.4445 0 
-7.683001 -8.243 -7.3335 -4.529 -8.481001 -9.607 -6.834001 -5.082 -4.959 -6.622001 -4.3795 -5.177 -6.743 -5.432 -4.64 -5.2935 -6.332001 -7.038 -4.4445 
-10.1375 -11.8755 -9.533001 -10.004 -13.4153 -13.4162 -7.313 -6.833 -8.0695 -7.426001 -8.299 -7.894001 -8.815001 -7.851501 -6.4985 -9.39 -9.5135 -7.038 
-11.3605 -11.541 -15.5102 -15.1503 -17.2245 -13.8952 -9.093 -9.0695 -8.96 -11.6303 -11.1028 -9.939501 -11.3447 -9.911 -10.564 -13.0039 -9.5135 
-13.116 -17.3264 -20.7027 -18.9595 -17.7035 -15.6752 -11.5019 -10.228 -13.2425 -14.4341 -13.1483 -12.4692 -13.4042 -14.3567 -14.1779 -13.0039 
-2.7295 -2.7765 -3.8905 -2.3335 -1.4985 -3.9005 -3.2895 -1.7565 -3.5485 -3.152 -2.6165 -3.0415 -4.3285 -3.433 -1.4985 -3.5435 -1.934 -3.8735 -2.186 -3.325 -1.4985 -3.2 -1.7565 -4.3705 -3.84 0 
-4.065 -5.1555 -5.9705 -3.3515 -4.797 -6.5505 -4.9075 -4.837 -5.807 -4.6295 -4.822001 -7.8375 -7.423 -4.3795 -4.2755 -5.3395 -4.885 -5.949 -5.2405 -3.898 -4.259 -4.722 -5.572001 -7.9775 -3.84 
-6.487 -6.522501 -7.052 -6.674 -7.2665 -7.343501 -6.5955 -7.292 -7.1465 -6.5825 -8.602501 -9.6785 -8.316 -6.6485 -5.969 -7.981 -6.6635 -8.7345 -6.0125 -7.107 -5.342 -8.050501 -8.8795 -7.9775 
-7.8585 -7.539501 -10.5903 -8.8435 -7.493 -9.102 -9.0795 -8.8365 -9.279 -9.823501 -9.832001 -11.0589 -10.322 -8.865 -8.768001 -9.045 -9.451501 -9.731 -9.296 -7.931 -9.238001 -11.9718 -8.8795 
-8.625 -11.1594 -12.7598 -9.0305 -9.2215 -11.7162 -10.3225 -11.0842 -12.5888 -11.1762 -11.6542 -13.0649 -12.5385 -11.7682 -9.927501 -12.1374 -10.323 -13.0031 -10.3105 -12.116 -13.2121 -11.9718 
-2.4265 -2.7765 -2.6165 -2.489 -3.264 -2.3335 -3.4765 -2.3345 -3.5035 0 -12.16972 -3.2895 -2.4945 -3.4625 -4.3285 -3.433 -1.934 -3.8735 -2.4265 -2.186 -4.2655 -3.402 -3.3975 -3.5035 -2.3335 -2.186 -1.934 -3.9665 0 
-4.346 -4.9255 -3.82 -5.406 -4.533 -5.155 -6.013 -4.959 -3.5035 -12.16972 -15.45922 -5.4165 -4.7105 -5.513 -7.423 -5.6305 -4.885 -6.455 -3.292 -6.976501 -7.2025 -6.9755 -5.365 -5.564 -3.7085 -4.0835 -5.4155 -3.9665 
-6.474 -5.4595 -7.0905 -6.1485 -6.986 -7.9895 -9.2875 -4.959 -16.90942 -15.45922 -17.58622 -7.201 -7.6675 -9.1955 -9.745001 -8.752501 -6.8275 -6.9335 -8.1375 -9.1525 -10.4185 -9.051001 -8.465 -6.651 -5.576 -6.5115 -5.4155 
-6.7735 -7.796501 -7.7285 -8.598001 -9.9005 -11.4192 -9.2875 -19.04552 -20.19892 -17.58622 -19.37072 -8.7665 -10.078 -11.7477 -12.8808 -9.981 -7.3015 -12.1156 -10.238 -12.4845 -12.494 -12.58 -9.425501 -8.4595 -7.581501 -6.5115 
-8.572001 -8.844001 -10.543 -11.3865 -13.3212 -11.4192 -23.48062 -22.33502 -22.32592 -19.37072 -20.93622 -11.25 -12.8704 -14.8835 -14.1093 -10.233 -12.5362 -14.2161 -13.57 -14.56 -16.023 -13.5405 -11.423 -9.492001 -7.581501 
