-4.759 
n/a 
n/a 
n/a 
n/a 
-4.759 
n/a 
n/a 
n/a 
n/a 
-4.759 
n/a 
n/a 
n/a 
n/a 
-4.759 
n/a 
n/a 
n/a 
n/a 
-1.4985 -3.7075 -1.7565 -8.110001 -1.934 -3.873 -4.2695 -6.738 -6.3085 -1.756 -5.5785 -4.39 -2.186 -4.6505 -1.934 -2.3335 -3.7955 0 
-4.625 -4.51 -9.84 -9.989501 -5.96 -6.527 -12.1287 -6.7865 -7.78 -7.555501 -10.8399 -6.238 -6.0075 -5.5835 -4.359 -6.1875 -3.7955 
-4.9135 -13.7449 -11.7667 -14.0057 -9.837501 -14.8154 -12.1772 -8.377501 -9.057 -13.1247 -12.6879 -10.082 -6.4285 -8.096001 -7.0855 -6.1875 
-14.6246 -15.6716 -15.7829 -17.8832 -18.1993 -14.8639 -13.7682 -10.702 -14.7116 -14.9727 -16.5319 -10.457 -9.319 -11.1999 -7.0855 
-16.5513 -19.6878 -19.6604 -26.245 -18.2478 -16.4549 -16.0927 -16.3566 -16.5596 -18.8167 -16.9069 -13.3475 -12.4761 -11.1999 
-1.934 -1.4985 -3.7955 -10.4215 -8.110001 -2.8645 -4.972 -3.043 -1.7695 -3.613 -4.2285 -2.356 -6.738 -6.3085 -1.756 -7.3435 -2.7415 -3.1125 -4.6505 -4.394 0 
-2.6125 -4.78 -15.3766 -11.0805 -10.622 -6.6765 -7.9265 -3.528 -4.563 -6.6575 -5.959001 -8.751 -6.7865 -7.78 -9.058001 -8.6705 -7.131001 -6.7045 -7.604 -4.394 
-5.797501 -16.6563 -16.0356 -13.5925 -14.434 -10.543 -9.1575 -5.898 -7.331501 -7.3255 -12.8342 -8.7615 -8.377501 -10.504 -10.323 -13.1742 -10.7025 -9.198501 -7.604 
-17.9456 -17.3153 -18.5476 -17.4045 -18.3005 -12.2328 -11.7369 -9.975 -7.673501 -14.5849 -12.8447 -10.0255 -11.1885 -11.769 -14.8267 -16.7457 -13.1965 -9.198501 
-18.6046 -19.8273 -22.3596 -21.271 -19.9903 -14.8122 -15.8139 -10.218 -15.1291 -14.5954 -14.1087 -12.8365 -12.4535 -16.2727 -18.3982 -19.2397 -13.1965 
-1.934 -10.4215 0 -2.4265 -2.186 -4.6505 -3.043 -1.4985 -5.629 -3.918 -4.2285 -2.356 -6.738 -6.3085 -1.756 -10.005 -2.7415 -8.213 -4.394 0 
-13.3619 -10.4215 -2.4265 -3.292 -6.0075 -6.2235 -4.41 -6.9575 -10.1855 -7.152 -5.959001 -8.751 -6.7865 -7.78 -12.7696 -12.7853 -9.329 -13.4566 -4.394 
-13.3619 -13.0984 -3.292 -7.205 -8.142 -7.0385 -9.970001 -11.7358 -13.4195 -7.555 -12.8342 -8.7615 -8.377501 -19.2874 -15.5499 -19.3728 -14.6084 -13.4566 
-16.0388 -13.9639 -7.205 -8.263 -8.835501 -12.6851 -14.7483 -14.9698 -13.8225 -14.5742 -12.8447 -10.0255 -19.9719 -22.0677 -22.1374 -24.6522 -14.6084 
-16.9043 -17.8769 -8.263 -8.894501 -14.5863 -17.4634 -17.9823 -15.3728 -20.8417 -14.5847 -14.1087 -21.6199 -22.7522 -28.6552 -27.4168 -24.6522 
-1.934 -1.4985 -3.8195 -12.16972 0 -8.110001 -5.3765 -1.4985 -3.873 -4.2695 -3.0695 -3.918 -3.8805 -2.356 -6.738 -6.3085 -1.756 -7.3435 0 
-2.6125 -4.771 -17.04662 -12.16972 -8.110001 -13.9329 -6.907 -4.7405 -6.527 -6.02 -6.2075 -8.703501 -5.8605 -8.751 -6.7865 -7.78 -9.058001 -7.3435 
-5.7325 -18.49832 -17.04662 -20.27972 -13.9329 -15.4634 -10.068 -7.606501 -8.0755 -9.5915 -10.4265 -9.301001 -12.6451 -8.7615 -8.377501 -10.504 -9.058001 
-19.57562 -18.49832 -25.15662 -26.10262 -15.4634 -18.6244 -13.125 -9.1195 -11.7522 -14.0013 -11.024 -16.2612 -12.6556 -10.0255 -11.1885 -10.504 
-19.57562 -26.60832 -30.97952 -27.63312 -18.6244 -21.6814 -14.638 -12.8604 -16.162 -14.5988 -17.9842 -16.2717 -13.9196 -12.8365 -11.1885 
