-4.759 
n/a 
n/a 
n/a 
n/a 
-4.759 
n/a 
n/a 
n/a 
n/a 
-4.759 
n/a 
n/a 
n/a 
n/a 
-4.759 
n/a 
n/a 
n/a 
n/a 
-3.873 -6.32 -1.7565 -3.873 -3.4715 -3.9535 -1.756 -4.1115 -3.518 -3.299 -2.186 -4.142 -1.7565 -3.2495 -6.32 -3.6065 0 
-7.683001 -8.1365 -5.002 -6.3595 -7.844501 -5.6 -5.7375 -5.3935 -6.173 -6.4075 -7.558001 -5.3145 -4.5605 -10.298 -10.5367 -3.6065 
-9.134501 -11.515 -7.4745 -11.5897 -9.634501 -9.1575 -6.9145 -8.631001 -9.307501 -12.1801 -8.4215 -8.005501 -11.7426 -14.5147 -10.5367 
-12.5666 -13.9875 -13.4253 -13.3797 -13.2192 -10.7869 -10.5035 -12.2479 -15.2733 -13.0436 -11.3087 -15.9302 -15.9593 -14.5147 
-15.0391 -19.9383 -15.2153 -16.9644 -14.8486 -14.3759 -14.1204 -18.2137 -16.1368 -15.9308 -19.2334 -20.1469 -15.9593 
-4.975 -5.112 -2.186 -4.96 -1.7565 -4.2335 -3.2775 -2.5045 -5.454 -5.535 0 -7.658 0 -5.0605 0 -6.422 -1.756 -6.4285 0 -2.9705 -2.5685 -4.4035 -4.596 -3.639 -1.7695 -1.4985 -4.1365 0 -4.912 -5.596 -2.5045 -2.871 -4.6175 -6.115 
-8.355 -6.703501 -5.5865 -5.1815 -5.64 -6.743 -3.678 -8.139001 -7.885001 -5.535 -7.658 -7.658 -5.0605 -5.0605 -6.422 -7.329 -7.5935 -6.4285 -2.9705 -5.563001 -7.299 -8.335501 -6.852 -4.539 -2.7955 -4.6595 -4.1365 -4.912 -10.9315 -8.3545 -4.7085 -7.062 -8.376 
-9.953501 -9.004001 -5.648 -9.1305 -7.99 -6.766 -8.764001 -10.2645 -7.885001 -9.551001 -7.658 -10.123 -5.0605 -9.861 -7.329 -8.184501 -7.5935 -8.807501 -5.563001 -9.607501 -11.7512 -10.4185 -7.1145 -5.105 -5.583 -4.6595 -8.509001 -10.9315 -13.69 -10.4765 -7.38 -9.6985 
-12.254 -9.132501 -9.632 -11.7327 -8.0105 -9.793 -10.4945 -10.2645 -10.3605 -9.551001 -10.123 -10.123 -9.861 -10.1845 -8.184501 -8.184501 -9.4635 -11.5518 -9.607501 -14.1167 -13.8342 -10.4805 -7.46 -6.9645 -5.583 -8.644501 -14.9305 -13.69 -15.812 -13.148 -9.709001 
-12.3825 -10.7505 -12.3492 -11.7532 -11.1915 -11.5235 -10.4945 -12.74 -10.3605 -12.433 -10.123 -15.0127 -10.1845 -10.4535 -8.184501 -9.972001 -12.2486 -15.5963 -14.1167 -16.1997 -13.8962 -10.5915 -9.259501 -6.9645 -9.1075 -15.1534 -17.689 -15.812 -18.4835 -15.477 
-1.934 -3.873 -1.4985 -3.42 -2.3335 -5.808 -1.4985 -3.873 -1.756 -3.4715 -1.756 -1.4985 -4.142 -1.7565 -3.7515 -4.1115 -3.518 -2.4945 -1.4985 -3.2495 -2.3335 -5.808 -5.9385 -4.678 0 
-5.96 -5.7185 -4.6695 -5.717 -6.877001 -6.3845 -4.7405 -5.114 -4.8875 -4.7575 -3.0405 -5.4315 -5.3145 -6.2335 -5.758 -5.3935 -6.2075 -3.9315 -4.1915 -6.2155 -6.877001 -12.6399 -7.173 -4.678 
-8.061501 -9.403001 -6.4445 -8.003 -7.287001 -8.805 -5.849 -6.0645 -6.3835 -6.135 -6.8605 -5.589 -9.161 -9.701501 -5.761 -8.049001 -7.5835 -6.1025 -6.8915 -9.5075 -14.0099 -13.8744 -7.173 
-11.9548 -11.2938 -8.3795 -8.3805 -9.242001 -10.0995 -7.1915 -7.739 -7.650001 -9.403 -7.1845 -9.884501 -12.975 -9.8205 -8.57 -9.514001 -9.590501 -7.9705 -10.3399 -17.21 -15.2444 -13.8744 
-13.8456 -13.2288 -8.795 -10.5439 -11.1677 -11.5606 -8.944 -8.628 -11.0384 -9.759501 -11.7004 -13.9487 -13.094 -12.7645 -9.771501 -11.5578 -11.5465 -11.8181 -18.0424 -18.4445 -15.2444 
-1.4985 -4.1115 -3.518 -1.756 -1.4985 -4.1365 -3.42 -4.2775 -1.4985 -3.8245 -5.164 
-4.843 -5.3935 -5.105 -3.0405 -4.6595 -7.4075 -8.056 -5.8015 -5.1915 -6.658 
-6.882 -6.6335 -6.24 -6.6305 -7.844501 -12.4249 -9.1875 -8.975 -7.959001 
-8.12 -7.7805 -9.352501 -8.9405 -13.0207 -13.5564 -12.678 -12.4211 
-8.976 -10.6215 -12.0375 -14.2013 -14.1522 -17.0469 -16.1241 
