-4.759 
n/a 
n/a 
n/a 
n/a 
-4.759 
n/a 
n/a 
n/a 
n/a 
-4.759 
n/a 
n/a 
n/a 
n/a 
-4.759 
n/a 
n/a 
n/a 
n/a 
-2.5195 -1.4985 -4.193 -1.7565 -1.4985 -4.602 -4.153 -1.4985 -4.3105 -3.59 -2.7415 -4.5085 -1.7695 -2.5045 -4.5175 0 -4.5175 0 0 -3.5155 -4.8425 -1.756 -5.058 -1.756 -1.4985 -5.6025 -3.152 -3.9205 -2.5045 0 -5.3815 0 0 -5.3815 0 0 
-3.1695 -4.594501 -4.7225 -2.4195 -5.3995 -5.112 -5.544001 -4.977 -7.3725 -6.039001 -5.9995 -4.58 -4.8865 -8.114 -4.5175 -4.5175 -4.5175 0 -3.5155 -6.6225 -5.966001 -5.7825 -6.4315 -3.0405 -6.838 -7.5065 -6.2435 -4.449 -2.5045 -5.3815 -5.3815 0 -5.3815 -5.3815 0 
-5.4985 -4.7895 -5.081 -5.785501 -5.5865 -6.514 -9.006001 -8.427501 -10.7913 -9.617001 -6.179 -5.027 -10.0035 -8.114 -7.319 -4.5175 -4.5175 -3.5155 -6.6225 -6.673 -7.0795 -7.1505 -7.8585 -8.226 -8.2005 -10.2135 -6.8855 -4.449 -8.216001 -5.3815 -5.3815 -5.3815 -5.3815 -5.3815 
-6.04 -5.1135 -6.959001 -5.842 -6.66 -9.894 -12.5985 -12.2727 -14.3693 -9.64 -7.002501 -10.071 -10.0035 -11.1559 -7.319 -4.5175 -8.671501 -6.6225 -6.673 -7.418 -8.335 -8.410501 -13.247 -9.386001 -11.0017 -11.1161 -6.8855 -9.502501 -8.216001 -5.3815 -7.4595 -5.3815 -5.3815 
-6.29 -6.985001 -6.988501 -6.8735 -9.977501 -13.5809 -16.4437 -15.8507 -14.3923 -10.198 -12.2729 -10.071 -13.127 -11.1559 -7.319 -8.671501 -11.8861 -6.673 -7.418 -8.681001 -9.566501 -13.9152 -14.407 -12.1954 -11.9043 -11.1161 -12.0878 -9.502501 -8.216001 -7.4595 -7.4595 -5.3815 
-1.934 -1.4985 -2.9965 -4.184 -4.153 0 -3.9875 -1.4985 -3.59 -1.756 -4.0435 -1.4985 -3.59 -2.7415 -3.849 -2.5045 -4.5175 -1.756 -3.074 -3.1385 -3.152 -3.849 -2.5045 -5.3815 
-2.6125 -5.3455 -5.8575 -5.8855 -4.153 -3.9875 -4.653 -4.268 -5.017 -5.541 -4.6045 -4.268 -6.039001 -5.431 -6.305 -8.114 -6.4525 -4.566 -6.719501 -5.219 -5.9565 -6.305 -8.216001 
-6.4505 -6.4255 -6.35 -5.8855 -8.3585 -4.653 -7.175 -5.4655 -8.3625 -6.0365 -6.6615 -6.347 -8.633 -7.509501 -12.0181 -9.329 -9.264001 -7.849501 -8.911501 -8.095501 -8.2095 -12.1201 
-7.251 -6.606 -6.35 -9.9175 -8.9245 -7.175 -8.0045 -8.526501 -8.959001 -7.477 -9.123501 -8.943001 -10.7301 -13.7104 -13.2331 -12.2701 -12.7759 -9.975 -11.8686 -10.254 -14.1606 
-7.303 -6.606 -10.5612 -10.3385 -11.6241 -8.0045 -9.464001 -9.078501 -9.349501 -10.2375 -11.8509 -11.0567 -16.931 -14.9254 -16.1742 -15.782 -14.9014 -12.9321 -14.0271 -16.4121 
-1.934 -1.4985 -4.193 -1.7565 -4.602 -4.153 0 -3.8655 -2.7415 -3.849 -2.5045 -4.5175 -1.934 -4.051 -1.756 -4.303 -3.959 0 -5.6025 -2.4945 -3.849 -5.3815 -1.934 -3.815 
-2.6125 -4.594501 -4.7225 -6.552001 -5.112 -4.153 -3.8655 -6.652 -5.431 -6.305 -8.114 -6.703501 -5.608 -5.867 -5.9405 -7.467 -3.959 -5.6025 -6.914001 -5.410501 -8.965501 -7.8325 -5.2245 
-5.558001 -4.7895 -8.221001 -6.637001 -5.112 -7.817501 -6.652 -9.686001 -7.509501 -12.0181 -9.8085 -10.9779 -7.6225 -8.2215 -9.883 -7.467 -9.33 -6.914001 -10.259 -10.575 -11.5277 -11.5634 
-6.0865 -8.319501 -8.338 -6.637001 -8.734 -9.463 -9.686001 -11.9309 -13.7104 -13.7126 -14.4583 -12.9924 -10.228 -12.6082 -9.883 -13.1846 -9.962501 -10.259 -15.4235 -13.5568 -15.2586 
-8.946501 -8.444 -8.338 -9.701 -10.2925 -12.5178 -11.9309 -18.1318 -15.4049 -18.3624 -16.4728 -15.5979 -14.8155 -12.6082 -15.62 -13.8171 -13.5107 -15.4235 -18.4053 -17.2877 
-2.5045 -1.4985 -4.193 -1.7565 -4.602 -4.153 0 -2.925 -3.849 -3.8655 -2.5045 -4.5175 -1.934 -4.326 0 -5.3815 -1.934 -2.8965 -9.171 
-3.1915 -4.594501 -4.7225 -6.552001 -5.112 -4.153 -2.925 -5.966001 -8.2705 -6.387 -8.114 -6.703501 -5.986 -4.326 -5.3815 -7.8325 -4.391 -10.1595 
-5.0525 -4.7895 -8.221001 -6.637001 -5.112 -6.734 -5.966001 -10.6095 -11.2172 -10.647 -9.8085 -11.3559 -5.986 -10.2705 -7.8325 -10.7299 -12.5224 
-5.154 -8.319501 -8.338 -6.637001 -7.796 -9.323001 -10.6095 -13.5562 -15.4772 -12.3415 -14.8363 -11.3559 -12.5509 -12.9079 -10.7299 -18.8613 
-8.860001 -8.444 -8.338 -9.9055 -10.609 -14.5091 -13.5562 -17.8162 -17.1717 -17.3693 -14.8363 -17.9208 -15.1883 -15.8053 -18.8613 
