-4.759 
n/a 
n/a 
n/a 
n/a 
-4.759 
n/a 
n/a 
n/a 
n/a 
-4.759 
n/a 
n/a 
n/a 
n/a 
-4.759 
n/a 
n/a 
n/a 
n/a 
-2.3615 -2.186 -1.4985 -4.4665 -3.8275 -3.275 -7.034 -4.58 0 
-3.5005 -3.339 -4.729 -8.201 -7.3525 -10.361 -10.361 -4.58 
-4.3105 -5.893 -8.349001 -12.2898 -15.1123 -13.688 -10.361 
-6.8575 -9.684 -12.5752 -20.0496 -18.4393 -13.688 
-10.597 -13.9696 -20.335 -23.3766 -18.4393 
-3.2615 -2.3335 -5.503 -3.8405 -3.875 -5.213 -3.6135 -3.8275 -1.934 -2.3335 -3.5015 0 
-5.0495 -7.604 -9.943001 -8.4055 -8.166 -9.502501 -7.495501 -5.2615 -4.359 -5.909 -3.5015 
-10.426 -12.504 -14.5776 -13.0687 -13.0047 -13.4467 -8.7155 -7.7695 -6.7955 -5.909 
-15.326 -17.1386 -19.2408 -17.9074 -16.9489 -14.6667 -11.5427 -10.586 -6.7955 
-19.9606 -21.8018 -24.0795 -21.8516 -18.1689 -17.4939 -14.3592 -10.586 
-3.2615 -7.034 -2.4265 -4.1675 -3.115 -3.6135 -3.8275 
-9.816501 -9.923 -4.8995 -4.664 -6.328 -7.495501 
-12.8475 -12.5368 -5.1585 -8.1195 -10.733 
-15.4613 -12.7958 -8.7495 -12.9015 
-15.7203 -16.3868 -13.6607 
-2.3615 -2.7415 -1.4985 -4.4665 -3.8275 -3.2615 -1.4985 -3.8405 -1.7565 -5.503 0 
-4.455 -4.063 -4.729 -8.201 -6.7565 -4.032 -4.7545 -4.563 -6.6485 -5.503 
-5.3025 -6.414001 -8.349001 -11.6938 -7.287 -6.9355 -5.365 -9.649 -6.6485 
-7.646 -9.7685 -11.9792 -12.2243 -10.7809 -7.233 -9.8295 -9.649 
-11.1737 -13.5661 -12.5097 -15.7182 -11.0784 -11.9961 -9.8295 
