-4.759 
n/a 
n/a 
n/a 
n/a 
-4.759 
n/a 
n/a 
n/a 
n/a 
-4.759 
n/a 
n/a 
n/a 
n/a 
-4.759 
n/a 
n/a 
n/a 
n/a 
-4.686 -2.4945 -4.251 -4.617 -2.5195 -4.1115 -3.518 0 -1.934 -2.9705 -3.493 -4.3295 -5.4785 0 -8.5535 -4.227 0 -7.9835 -4.8565 0 -2.186 -3.9725 -1.4985 -3.188 -2.229 -5.1495 -5.021 -4.0875 -4.067 -2.7035 -3.6505 -1.756 -4.518 -1.8085 -4.617 -4.3425 -1.7565 -7.769 -4.8565 -2.4285 -8.663501 -4.227 0 
-6.6225 -5.2365 -7.725501 -6.174 -6.382 -5.3935 -3.518 -1.934 -4.051 -5.451 -8.3035 -6.507 -5.4785 -7.89 -11.1495 -4.227 -7.328 -11.014 -4.8565 -2.186 -6.08 -5.952 -3.619 -4.279 -6.1615 -9.2535 -9.103001 -6.9715 -6.736001 -5.271 -5.0785 -6.254 -5.67 -6.525001 -7.826 -5.2755 -9.211 -11.7095 -6.775 -11.122 -11.833 -4.227 
-9.095 -8.3625 -9.386001 -9.145 -7.2415 -5.3935 -5.322001 -4.051 -5.4565 -10.9695 -10.7516 -6.507 -9.595 -8.693501 -8.693501 -9.729 -8.9655 -8.9655 -7.193 -6.08 -7.768001 -8.298 -4.3695 -6.681001 -10.9707 -13.5065 -12.356 -8.8855 -8.3795 -6.8265 -9.1005 -7.211 -9.953501 -8.868 -8.455 -12.364 -12.2915 -12.0663 -14.9806 -13.7866 -10.1635 
-10.75 -9.9835 -10.75 -9.177 -7.2415 -7.1365 -7.419001 -5.4565 -10.9956 -13.4176 -10.7516 -10.0415 -9.927501 -8.693501 -9.9525 -10.018 -8.9655 -10.4855 -11.3436 -7.768001 -9.915501 -8.9285 -6.8165 -11.7638 -15.2237 -16.7595 -14.27 -9.4685 -9.700001 -10.5035 -9.754001 -11.7333 -10.1855 -8.993501 -12.9355 -11.1865 -12.6665 -20.4893 -17.1938 -13.7866 
-10.7775 -10.754 -10.7775 -9.177 -8.986501 -9.906 -8.324 -10.9956 -13.4437 -13.4176 -14.2861 -10.249 -9.927501 -9.942 -10.262 -10.018 -10.4855 -14.6361 -13.0316 -9.915501 -10.8442 -10.0685 -12.0285 -16.0168 -18.4767 -18.6735 -14.853 -11.2328 -13.4574 -11.157 -14.5551 -11.9653 -10.2255 -13.53 -13.2545 -12.77 -20.9753 -22.5993 -17.1938 
-3.995 -1.7565 -5.3225 -1.7695 -3.383 -4.906 -3.4045 -4.4385 -1.7695 -3.2495 -4.088 -1.7565 -5.4785 -1.7695 -7.9835 -4.142 -1.756 -8.2805 -9.6155 -4.1115 -7.548 -4.653 -5.6605 0 
-6.804 -7.5715 -6.6515 -5.849 -8.481 -8.4445 -8.404 -6.268001 -5.112 -6.3205 -5.4975 -6.915 -7.7545 -9.629001 -11.8575 -5.7175 -10.382 -18.6048 -13.9382 -11.7085 -12.472 -11.2703 -5.6605 
-13.1618 -9.262 -10.504 -11.4282 -12.0417 -14.7226 -10.564 -9.826 -8.091001 -8.127 -11.7712 -8.948501 -15.8629 -14.4374 -13.9716 -15.2801 -20.7063 -22.9275 -21.9774 -18.0862 -19.7253 -11.2703 
-14.8523 -13.1047 -16.0832 -14.9889 -18.3198 -16.8826 -14.122 -12.9338 -9.2425 -14.5209 -13.8047 -17.2721 -21.2132 -16.5515 -23.5342 -25.6044 -25.029 -30.9667 -27.9129 -24.7035 -19.7253 
-18.695 -18.6839 -19.6439 -21.267 -20.4798 -20.4406 -17.2298 -14.0853 -16.5164 -16.5544 -22.1283 -22.6224 -22.9169 -26.1141 -33.8585 -29.9271 -33.0682 -36.9022 -34.5302 -24.7035 
-3.995 -1.934 -3.383 -4.0865 -4.07 -4.4385 -3.2495 -3.5015 -5.6855 0 -4.1115 -1.934 -7.9835 -6.3855 0 -2.4285 -5.0605 -2.4265 -4.809 0 -4.1115 -1.934 -7.548 -3.2785 -2.8635 0 0 
-5.975 -5.5185 -8.9995 -8.0975 -7.070001 -8.031501 -7.332 -9.828001 -5.6855 -4.1115 -6.1155 -10.108 -14.3303 -6.3855 -2.4285 -9.207001 -9.449 -8.953501 -4.809 -4.1115 -6.1155 -9.7065 -11.0225 -5.1775 -2.8635 0 
-9.286 -11.811 -13.4241 -10.382 -10.4595 -12.253 -13.9927 -9.828001 -9.969501 -6.1155 -15.4717 -18.1109 -14.7407 -9.184501 -9.207001 -13.1643 -16.2882 -8.953501 -8.6095 -6.1155 -15.1824 -14.9409 -13.7981 -5.1775 -2.8635 
-15.8623 -16.2356 -15.7086 -13.7715 -14.681 -18.9137 -13.9927 -14.3024 -12.7937 -15.4717 -22.8844 -18.1109 -17.5397 -16.0768 -13.1643 -20.0035 -16.2882 -12.9772 -11.5621 -15.2876 -19.7736 -17.0805 -13.7981 -5.1775 
-20.2869 -18.5201 -19.0981 -17.993 -21.3417 -18.9137 -18.4671 -17.1266 -22.1499 -22.8844 -22.8844 -20.9099 -24.432 -20.0341 -20.0035 -20.0035 -20.3119 -15.9298 -20.7342 -19.7736 -21.9132 -17.0805 -13.7981 
-5.4785 -4.147 -7.9835 -4.8565 -4.142 -1.756 -8.2805 -4.579 -2.5195 -4.1115 -7.548 -4.653 -4.142 
-8.2965 -12.1095 -11.014 -7.836 -5.7175 -10.382 -13.5683 -7.0305 -6.382 -11.7085 -12.472 -8.0725 
-15.4489 -12.0965 -12.294 -9.146501 -15.2801 -15.6698 -16.0198 -11.2786 -14.3602 -18.0862 -16.5275 
-17.4872 -15.8954 -13.6741 -18.7887 -20.5679 -18.1213 -20.2679 -19.997 -21.0359 -21.5057 
-20.8853 -17.2059 -23.3163 -24.0765 -23.0194 -22.3694 -28.9863 -25.9325 -24.4554 
