-4.759 
n/a 
n/a 
n/a 
n/a 
-4.759 
n/a 
n/a 
n/a 
n/a 
-4.759 
n/a 
n/a 
n/a 
n/a 
-4.759 
n/a 
n/a 
n/a 
n/a 
-5.1845 -4.4935 -4.245 -4.4605 -1.8085 -4.703 -3.9825 
-9.7535 -7.591001 -8.3815 -5.447001 -5.545 -6.0655 
-13.4688 -12.0809 -9.364 -6.791 -6.205 
-17.9587 -13.0634 -10.4275 -6.8275 
-18.9412 -14.1269 -10.578 
-4.4935 -4.245 -3.074 -2.674 -3.699 -3.5015 -1.934 -5.1845 0 
-7.591001 -7.394501 -4.7925 -6.3895 -6.8615 -4.704 -6.564 -5.1845 
-10.4945 -9.706501 -7.769501 -10.31 -7.21 -9.375501 -6.564 
-12.8065 -12.9005 -11.7594 -10.378 -12.2773 -9.375501 
-16.0005 -16.8904 -11.8274 -15.4453 -12.2773 
-1.4985 -4.0695 -5.87 -2.186 -2.871 -1.7565 -1.4985 -3.17 -3.699 -3.681 -1.934 -5.1845 
-5.1695 -10.396 -8.176001 -4.247 -3.5385 -2.4195 -3.7115 -4.663 -5.8595 -5.219 -6.564 
-12.355 -12.702 -10.123 -4.411 -3.7675 -4.4355 -4.8395 -6.369 -6.913 -10.564 
-14.661 -14.649 -10.305 -4.5655 -4.622 -5.4575 -6.4635 -7.3675 -12.91 
-16.608 -14.831 -10.4275 -5.2395 -5.5735 -6.6555 -7.4565 -13.3943 
-1.934 -5.1845 -4.558 -3.6885 -3.882 -3.699 -3.9825 0 
-6.564 -10.543 -8.001 -7.4635 -7.693501 -5.406 -3.9825 
-12.5347 -13.986 -12.4052 -11.5956 -10.1543 -5.406 
-15.9777 -18.3902 -16.5373 -14.0564 -10.1543 
-20.3819 -22.5223 -18.9981 -14.0564 
