-4.759 
n/a 
n/a 
n/a 
n/a 
-4.759 
n/a 
n/a 
n/a 
n/a 
-4.759 
n/a 
n/a 
n/a 
n/a 
-4.759 
n/a 
n/a 
n/a 
n/a 
-3.17 -3.699 -4.2125 -5.4525 -4.3465 -1.4985 -3.815 
-4.663 -6.494 -10.4765 -9.470001 -5.372001 -5.1705 
-7.3855 -13.5274 -14.494 -10.7615 -8.1955 
-14.3149 -17.5449 -15.7855 -13.585 
-18.3324 -18.8364 -18.609 
-4.3235 -1.4985 -5.5885 -1.7565 -4.4015 -8.4095 -1.756 -4.8905 -2.9905 -4.278 -1.934 -2.882 -3.9035 -1.7565 -3.091 -5.005 -4.746 -4.5545 0 
-5.594 -7.2775 -6.942501 -6.2955 -13.8414 -9.928 -6.3005 -5.1545 -8.014001 -6.962501 -4.9435 -8.708501 -4.616 -4.0655 -9.277 -10.543 -9.5565 -4.5545 
-11.51 -8.153501 -10.564 -16.1564 -15.3599 -14.5409 -6.8255 -10.168 -10.292 -9.737 -9.260501 -9.026501 -6.874 -10.4185 -15.0396 -15.3535 -9.5565 
-12.386 -11.8956 -20.9033 -17.6749 -19.9728 -15.0659 -12.2478 -12.446 -13.0665 -14.2342 -9.309001 -11.4763 -13.7506 -16.1811 -19.8501 -15.3535 
-16.1281 -22.2349 -22.4218 -22.2878 -20.4978 -20.4882 -14.5258 -15.2205 -17.5637 -14.2827 -11.948 -18.3529 -19.5132 -20.9916 -19.8501 
-4.4015 -8.274501 -2.229 -4.934 -2.7455 -4.278 -2.186 -4.0645 -1.934 -3.3715 -3.9035 0 
-13.7064 -10.66 -6.6875 -6.937 -5.083 -5.364 -5.0415 -4.619 -4.622 -5.995 -3.9035 
-16.0919 -15.1185 -8.988001 -10.6345 -8.8545 -10.2645 -5.442 -7.719501 -6.2565 -5.995 
-20.5504 -17.419 -12.9507 -14.406 -12.866 -10.665 -8.675501 -9.8505 -6.2565 
-22.8509 -21.3817 -16.7222 -18.4175 -13.2665 -13.8985 -10.468 -9.8505 
-12.16972 -8.4095 -1.934 -3.2225 -2.7455 -4.278 -2.9805 -4.4155 -1.934 -5.005 -3.378 -4.5545 -2.5045 -2.9805 -4.4155 -2.882 -3.5215 -3.757 0 
-20.57922 -10.6743 -5.823 -5.0915 -5.083 -8.040501 -6.335501 -5.054 -6.968 -9.109 -8.969501 -7.212501 -4.5965 -6.335501 -7.361 -7.882 -7.3435 -3.757 
-22.84402 -14.5633 -7.4705 -9.79 -9.7635 -11.5895 -7.898001 -9.774 -11.7104 -14.9671 -11.8143 -9.507501 -7.983 -10.0345 -10.5745 -12.1356 -7.3435 
-26.73302 -16.2108 -12.9884 -14.6107 -13.4977 -13.152 -13.2148 -14.543 -17.5685 -17.8119 -14.1093 -12.9348 -11.7778 -12.8908 -15.2453 -12.1356 
-28.38052 -21.7287 -17.8091 -18.3449 -15.0602 -18.4688 -17.9838 -20.4011 -20.4133 -20.1069 -17.5366 -16.7296 -14.6341 -17.5616 -15.2453 
