-4.759 
n/a 
n/a 
n/a 
n/a 
-4.759 
n/a 
n/a 
n/a 
n/a 
-4.759 
n/a 
n/a 
n/a 
n/a 
-4.759 
n/a 
n/a 
n/a 
n/a 
-1.934 -5.1845 -3.6085 -8.624001 -2.186 -3.301 0 -2.9805 -4.0385 -3.135 -5.8205 -3.6245 
-6.564 -7.3795 -11.142 -11.0145 -4.8405 -3.301 -2.9805 -5.479 -6.593 -8.7425 -9.056001 
-9.3155 -15.984 -13.5325 -13.669 -4.8405 -6.211 -5.479 -7.703001 -10.3475 -12.1698 
-18.161 -18.3745 -16.187 -13.669 -7.3805 -8.928 -7.703001 -10.6735 -13.7748 
-20.5515 -21.029 -16.187 -16.209 -10.0815 -10.1425 -10.6735 -14.1008 
-1.4985 -3.4155 -4.245 -1.7565 -5.1845 -1.756 -6.589001 -4.0385 -4.8735 0 
-4.4155 -7.1245 -6.1035 -6.580501 -7.2435 -8.807501 -9.4095 -8.932501 -4.8735 
-8.521501 -8.5845 -10.2865 -8.677001 -10.7525 -10.226 -13.5015 -8.932501 
-8.835501 -13.2099 -12.383 -12.28 -12.9155 -14.799 -13.5985 
-13.4935 -15.3064 -15.986 -14.5615 -17.405 -14.799 
-2.9805 -2.8645 -1.4985 -3.2825 -6.9515 -5.5925 -7.933001 -3.5155 -5.1845 0 -3.6085 -1.756 -2.9805 -4.33 -5.227 -1.756 -3.43 -3.135 -4.6035 0 
-4.3245 -4.3545 -3.712 -8.9595 -13.2236 -14.4255 -11.136 -8.699 -5.1845 -3.6085 -5.232 -4.3555 -6.051001 -8.782001 -7.029 -5.055 -5.608 -7.429501 -4.6035 
-5.9285 -5.8565 -9.054501 -15.5608 -22.0566 -17.6285 -16.3195 -8.699 -7.3795 -5.232 -7.910001 -7.224 -9.5635 -10.75 -9.359 -6.8465 -10.7335 -7.429501 
-7.486501 -11.5768 -15.7624 -24.3938 -25.2596 -22.812 -16.3195 -11.5522 -9.0795 -7.910001 -10.718 -10.609 -11.4793 -13.08 -11.2561 -12.0724 -10.7335 
-13.5246 -18.2847 -24.5954 -27.5968 -30.4431 -22.812 -19.1727 -13.2522 -12.1555 -10.718 -14.103 -12.5248 -13.8093 -14.9771 -16.482 -12.0724 
-2.9805 -2.186 -2.6165 -3.098 -1.8085 -3.301 -6.4655 -1.934 -3.5155 -3.6085 -1.756 -5.1845 -2.872 -3.074 -4.0385 -4.4605 -1.934 -3.5155 -7.521501 -5.7485 -3.564 -8.915001 -3.074 -5.2185 -4.619 -1.934 -3.1495 -4.4605 0 
-4.1635 -3.5105 -4.283 -4.5555 -4.019 -8.359 -8.015 -4.6585 -6.3965 -5.232 -7.0085 -8.627001 -4.5415 -6.2365 -8.015 -5.843 -4.6585 -9.818501 -13.8622 -8.935 -9.849001 -10.0575 -7.579 -9.870001 -5.5825 -4.5395 -7.3195 -4.4605 
-5.4975 -5.3935 -5.7985 -7.17 -8.467501 -10.2135 -10.31 -6.5635 -6.4415 -8.3225 -9.835501 -10.181 -8.4165 -8.875 -9.522 -8.174001 -10.1595 -16.2324 -17.0487 -15.4514 -11.7635 -14.795 -12.4609 -10.8891 -8.010501 -8.454 -7.3195 
-7.264501 -6.1775 -7.504001 -11.7529 -10.2805 -12.5085 -12.215 -6.585001 -8.858 -11.5031 -11.3895 -14.1652 -11.089 -10.4265 -11.8906 -13.9486 -16.5734 -19.4189 -23.5651 -17.6117 -16.4003 -19.9007 -13.48 -13.3171 -10.61 -8.454 
-7.875501 -7.835001 -12.2179 -13.5659 -12.5755 -14.4135 -12.2365 -8.894 -12.6392 -13.0571 -15.3737 -16.8377 -12.6405 -12.7951 -17.6652 -20.3625 -19.7599 -25.9353 -25.7254 -22.1687 -21.506 -20.9198 -15.908 -15.9166 -10.61 
