-4.759 
n/a 
n/a 
n/a 
n/a 
-4.759 
n/a 
n/a 
n/a 
n/a 
-4.759 
n/a 
n/a 
n/a 
n/a 
-4.759 
n/a 
n/a 
n/a 
n/a 
-3.6705 -2.688 -3.5435 -4.5485 -1.934 -3.5455 -1.756 -3.502 -3.9535 -1.7695 -4.2765 -7.4885 0 -1.934 -4.1545 -1.7565 -2.985 -5.413 0 -2.925 -4.4785 -7.4885 -5.7305 -1.756 -2.925 -4.3465 -4.6195 -1.7695 -1.4985 -7.4885 -1.934 -2.985 -4.0965 0 -2.7835 -1.4985 -7.4885 -4.331 0 
-6.828501 -5.966001 -7.586 -5.4015 -4.8495 -5.364501 -5.1085 -8.56 -5.098001 -4.5005 -12.9646 -7.4885 -1.934 -4.9385 -4.9435 -3.9355 -7.7765 -5.413 -2.925 -6.85 -13.0116 -13.8462 -6.351 -4.2585 -5.7895 -8.948501 -5.89 -2.7955 -8.1875 -9.125 -4.111 -7.458 -4.0965 -2.7835 -3.7575 -8.1875 -12.4467 -4.331 
-9.812501 -8.764 -8.432 -8.486 -6.7225 -5.759501 -10.243 -9.531 -8.530001 -13.411 -12.9646 -9.125 -4.9385 -4.9735 -7.004 -8.783501 -7.7765 -8.216001 -6.85 -15.9827 -19.3693 -14.4667 -9.437 -6.826 -10.674 -9.075001 -6.9525 -9.755 -9.337501 -11.5716 -8.657001 -7.458 -7.223001 -3.7575 -10.9309 -13.5423 -12.4467 
-12.7579 -9.396501 -11.7903 -10.757 -6.8885 -10.411 -11.214 -13.0474 -17.6395 -13.411 -14.6011 -12.3991 -4.9735 -7.107501 -12.225 -8.783501 -9.7885 -12.278 -15.9827 -22.3404 -19.9898 -17.5527 -12.1145 -12.0737 -10.8005 -9.349501 -14.4914 -10.8974 -11.8845 -16.1176 -8.657001 -10.1765 -8.125001 -10.9309 -16.2857 -13.5423 
-13.3904 -12.8676 -14.0613 -10.923 -12.3876 -11.382 -14.7304 -22.1569 -17.6395 -15.0475 -17.8752 -12.4341 -7.107501 -12.4737 -12.225 -10.4265 -13.8505 -21.4107 -22.3404 -22.9609 -23.0758 -20.2302 -17.3622 -12.2002 -11.075 -17.044 -15.6338 -13.4444 -16.4305 -16.1176 -11.5447 -11.2179 -15.7264 -16.2857 -16.2857 
-4.426 -1.7565 -1.4985 -3.0835 -4.7285 -4.1555 -5.081 -3.5455 -1.756 -3.502 -2.688 -3.8755 -7.7425 -3.9725 -4.2765 -2.3335 0 -2.872 -3.091 -4.1955 0 -7.7425 -4.2085 -4.574 -3.115 -1.7695 -3.213 -2.356 -3.277 -7.7425 -3.9725 -4.3165 -2.186 -3.7855 
-5.47 -2.4195 -3.535 -6.042 -8.4455 -7.401 -7.693501 -5.364501 -5.1085 -6.5195 -7.0775 -12.7104 -10.9575 -9.5815 -6.448501 -2.3335 -2.872 -5.351 -7.061501 -4.1955 -7.7425 -12.4718 -9.337001 -7.5205 -3.974 -4.1345 -4.4165 -4.76 -12.0535 -10.9575 -9.034 -6.2495 -4.9225 
-5.9535 -4.6785 -6.335501 -9.523001 -11.844 -10.429 -9.007501 -5.759501 -7.912001 -12.2348 -16.334 -15.9254 -16.5665 -11.8667 -6.448501 -5.219501 -5.351 -9.751501 -7.061501 -13.2186 -12.4718 -17.6003 -12.4485 -8.4405 -6.131001 -4.8795 -6.271 -13.6807 -15.2685 -16.019 -11.6204 -10.0575 
-8.021 -7.476501 -10.0095 -13.006 -14.6037 -13.5712 -10.0395 -9.114 -14.5591 -21.4913 -19.549 -21.5344 -18.8517 -11.8667 -8.410501 -7.866 -9.751501 -9.751501 -16.7598 -17.9479 -17.6003 -20.7118 -13.3685 -10.9897 -6.7485 -6.6355 -15.4719 -16.8957 -20.33 -18.6054 -15.4284 
-9.983001 -11.3061 -13.6025 -15.7657 -17.3427 -13.7387 -13.675 -15.1475 -23.8156 -24.7063 -25.158 -23.8196 -18.8517 -13.8287 -11.2052 -12.4023 -9.751501 -19.4868 -21.4891 -23.0764 -20.7118 -21.6318 -15.9177 -11.6072 -8.5015 -15.8912 -18.6869 -21.9572 -22.9164 -22.4134 
-3.4765 -3.929 -2.688 -4.6555 -4.5485 -1.934 -3.5455 -1.756 -3.502 -3.8055 -3.8515 -6.864 -4.6805 0 -5.6235 -4.4785 -9.46 -4.004 -1.756 -4.3465 -5.6625 -1.7695 -3.45 -4.5055 -3.0695 -3.152 -4.626 -1.7695 -3.213 -3.325 -3.277 
-4.589 -7.245501 -7.7275 -8.601501 -5.4015 -4.8495 -5.364501 -5.1085 -8.6595 -6.1805 -11.6343 -8.916 -4.6805 -5.6235 -10.622 -14.9831 -13.7124 -5.4795 -5.466001 -10.9075 -7.4975 -4.5965 -9.423 -6.7945 -4.8015 -6.131001 -4.685501 -4.1345 -5.79 -6.6045 
-7.813001 -12.568 -10.0605 -9.381001 -8.486 -6.7225 -5.759501 -9.986 -11.1863 -14.5013 -13.6863 -8.916 -10.8415 -10.622 -21.1266 -19.2355 -15.1879 -9.168 -12.2822 -12.7425 -9.597 -11.0105 -11.7272 -9.612 -7.066 -6.1565 -6.2135 -6.6325 -8.7755 
-13.3139 -14.901 -11.1804 -12.5567 -10.757 -6.8885 -10.1595 -12.5128 -19.5071 -16.5533 -13.6863 -15.2756 -15.84 -21.1266 -25.379 -20.711 -18.8764 -16.1782 -14.1172 -14.842 -16.2734 -13.3147 -14.5447 -11.8765 -7.090001 -7.7475 -8.5515 -9.4125 
-15.6469 -16.0209 -14.3561 -14.8277 -10.923 -12.1361 -12.6863 -20.8336 -21.5591 -16.5533 -20.0459 -20.2741 -26.3446 -25.379 -26.8545 -24.3995 -25.8866 -18.0132 -16.2167 -21.5184 -18.5776 -16.1322 -16.8092 -11.9005 -8.341001 -10.213 -11.5825 
-1.4985 -2.688 -3.84 -1.7565 -3.5455 -1.756 -3.502 -5.448 -7.081501 -4.6805 0 -1.7695 -4.1545 -2.985 -6.4185 -4.7155 -2.925 -12.16972 -3.288 -4.004 -1.756 -5.3175 -1.4985 -5.765 -3.0695 -4.331 -1.7695 -3.213 -1.934 -2.985 -4.1 
-3.702 -5.5635 -4.881 -4.8635 -5.364501 -5.1085 -10.316 -13.4533 -12.5228 -4.6805 -1.7695 -5.7055 -6.594 -9.3815 -10.5865 -7.545001 -17.09692 -15.45772 -8.1945 -5.4795 -6.7295 -6.4995 -6.55 -7.635 -5.337 -4.593 -4.1345 -4.4465 -4.111 -7.1315 
-5.964 -6.526501 -9.130501 -6.719 -5.759501 -12.3743 -18.3213 -18.8946 -12.5228 -6.9875 -5.7055 -7.219501 -13.7569 -13.4873 -13.416 -21.95052 -20.38492 -20.36422 -9.3325 -11.4106 -7.77 -12.408 -8.372001 -10.2087 -5.460001 -6.7605 -5.2645 -6.6405 -8.569 
-6.726 -11.612 -11.6598 -6.8205 -13.3475 -20.3796 -23.7626 -18.8946 -14.8298 -10.749 -7.219501 -14.547 -17.8627 -16.3168 -27.82152 -25.23852 -25.29142 -21.50222 -16.0512 -12.4511 -13.8585 -14.23 -11.0851 -10.3317 -7.4245 -7.773 -7.2335 -11.6213 
-12.0725 -14.1413 -11.7613 -15.1405 -21.3528 -25.8209 -23.7626 -21.2016 -18.5913 -12.263 -14.547 -18.6528 -20.6922 -30.72232 -31.10952 -30.14502 -26.42942 -28.22092 -17.0917 -18.5396 -15.6805 -16.9431 -11.2081 -12.2962 -8.235001 -10.0955 -12.3243 
