-4.759 
n/a 
n/a 
n/a 
n/a 
-4.759 
n/a 
n/a 
n/a 
n/a 
-4.759 
n/a 
n/a 
n/a 
n/a 
-4.759 
n/a 
n/a 
n/a 
n/a 
-6.920001 -4.424 -2.264 -3.5315 -7.677001 -2.5045 -1.4985 -3.7515 -1.7565 -3.643 -1.934 -7.467 0 
-10.523 -5.6385 -4.8735 -10.757 -9.960001 -3.1915 -4.705501 -4.6045 -5.8945 -6.208 -8.9685 -7.467 
-11.7375 -7.3545 -9.621 -10.672 -10.687 -5.443 -4.844501 -7.654 -7.725 -13.6227 -8.9685 
-13.4535 -11.05 -11.007 -11.3915 -11.1355 -5.454 -7.788501 -8.98 -15.7173 -13.6227 
-17.3058 -12.8368 -11.456 -11.9915 -11.138 -7.843 -9.028501 -17.1001 -15.7173 
-6.920001 -4.424 -3.034 -2.9805 -2.7415 -3.643 -3.277 -3.5905 -2.264 -3.5315 -2.543 0 -5.134 0 
-10.523 -6.3945 -4.4605 -4.004 -6.52 -6.4015 -4.7035 -6.5815 -4.8735 -5.572001 -2.543 -5.134 -5.134 
-12.4935 -7.1305 -5.2415 -8.236501 -7.872 -7.079 -6.963 -8.3815 -6.5465 -5.572001 -7.728001 -5.134 
-13.2295 -7.244 -8.925 -8.7615 -8.330501 -9.6565 -8.47 -9.9895 -6.5465 -8.646501 -7.728001 
-13.343 -10.2375 -9.535001 -8.807501 -10.6215 -11.3077 -10.0995 -9.9895 -9.044001 -8.646501 
-6.920001 -4.424 -2.264 -4.4485 -3.5315 -5.134 -1.934 -3.091 -6.037 -3.7515 -2.5045 -7.467 
-10.523 -5.6385 -6.474501 -6.761 -7.7965 -7.087 -4.2105 -8.110001 -10.504 -5.7695 -8.771001 
-11.7375 -8.9145 -7.9525 -10.6095 -8.932501 -9.205 -9.189501 -13.4492 -13.1498 -13.1466 
-15.0135 -9.975 -12.086 -11.7455 -11.1589 -14.2632 -15.0349 -16.095 -20.5269 
-16.074 -14.2733 -13.222 -13.9719 -16.2171 -20.1086 -17.6807 -23.4721 
-1.934 -8.597501 
-10.1855 
n/a 
n/a 
n/a 
