-4.759 
n/a 
n/a 
n/a 
n/a 
-4.759 
n/a 
n/a 
n/a 
n/a 
-4.759 
n/a 
n/a 
n/a 
n/a 
-4.759 
n/a 
n/a 
n/a 
n/a 
-7.475501 -2.229 -4.649 -5.041 -1.756 -4.649 -3.5125 
-9.941001 -6.066 -7.874001 -6.261001 -6.436 -6.9205 
-14.3934 -9.047501 -8.8175 -7.8075 -7.666 
-17.3749 -9.2825 -10.5975 -7.889 
-17.6099 -12.2239 -10.679 
-4.944 -3.275 -1.756 -3.5125 -1.7565 -3.275 -1.7565 -7.475501 0 
-8.851501 -5.3045 -5.334 -4.312 -5.536 -5.893 -9.521501 -7.475501 
-11.1812 -9.861 -6.051 -7.9665 -8.701 -14.3038 -9.521501 
-15.7377 -10.9332 -10.2325 -11.6449 -17.2098 -14.3038 
-16.8099 -15.1147 -13.9109 -20.1537 -17.2098 
-10.2105 -2.229 -4.649 -5.041 -1.756 -3.1435 -3.5125 
-12.8837 -6.066 -7.874001 -6.261001 -4.1365 -5.852 
-16.7207 -9.047501 -8.8175 -9.691 -6.805 
-19.7022 -9.2825 -12.6879 -12.4283 
-19.9372 -14.3143 -15.4252 
-7.475501 -2.229 -10.6255 -2.229 -1.756 -4.649 -3.5125 
-9.941001 -13.4495 -12.8545 -4.366 -6.436 -6.9205 
-21.7769 -15.6785 -14.9915 -9.426001 -7.666 
-24.0059 -17.8155 -20.0515 -10.7876 
-26.1429 -22.8755 -21.4131 
