-4.759 
n/a 
n/a 
n/a 
n/a 
-4.759 
n/a 
n/a 
n/a 
n/a 
-4.759 
n/a 
n/a 
n/a 
n/a 
-4.759 
n/a 
n/a 
n/a 
n/a 
-4.834 -3.299 -3.949 -3.6115 -3.8875 -2.186 -4.961 0 -3.1435 -1.934 -5.3885 -3.098 
-8.453 -7.1875 -8.232 -7.940001 -6.015 -8.1385 -4.961 -3.1435 -6.168 -6.4035 -9.1035 
-12.6083 -12.8381 -12.8765 -9.4145 -10.688 -8.1385 -8.925001 -6.168 -11.1335 -9.574 
-18.2589 -17.4826 -14.351 -14.1315 -10.688 -12.3297 -12.0563 -11.1335 -14.304 
-22.9034 -18.9571 -19.068 -14.1315 -14.8792 -15.461 -17.0218 -14.304 
-3.188 -2.229 -3.6115 -4.1735 -3.8875 -4.961 -3.8875 0 -2.186 -1.934 -5.3885 
-4.279 -5.314 -5.7235 -8.1455 -7.1195 -7.358001 -3.8875 -2.186 -4.0835 -6.4035 
-6.474501 -6.226 -9.394001 -12.0389 -8.925501 -7.358001 -6.015 -4.0835 -9.22 
-6.6895 -10.1635 -13.6728 -13.8449 -8.925501 -9.2495 -8.031 -9.22 
-10.575 -14.4423 -15.4788 -13.8449 -10.3225 -11.5665 -13.4283 
-1.4985 -3.188 -3.6115 -4.1735 -6.0515 -2.186 -7.579 -6.0515 -1.756 -2.4265 -2.186 -4.06 -1.934 -5.3885 0 
-3.619 -7.173 -5.7235 -10.4265 -7.923 -10.3225 -14.1325 -7.460001 -3.949 -3.292 -4.672 -4.483 -6.4035 -5.3885 
-7.627501 -9.063001 -12.6187 -12.298 -16.4183 -16.876 -15.541 -9.550501 -4.7355 -5.963 -5.13 -8.426001 -6.4035 
-9.133 -16.0486 -14.4902 -20.7933 -22.9718 -18.2845 -17.6315 -10.2605 -7.5505 -6.4835 -9.308001 -8.426001 
-16.1332 -17.9201 -22.9855 -27.3468 -24.3803 -20.375 -18.3415 -13.0755 -7.9205 -10.8999 -9.308001 
-1.4985 -3.188 -2.229 -3.6115 -5.1495 -4.1115 -4.675 -2.186 -4.961 -2.9705 -2.186 -1.934 -5.3885 
-3.619 -4.279 -5.314 -7.101501 -8.551001 -6.957001 -6.864 -8.1385 -7.849501 -3.89 -4.0835 -6.4035 
-4.3695 -6.474501 -7.998 -10.7595 -12.2099 -9.005501 -13.1659 -11.2542 -8.3225 -5.7145 -9.22 
-6.5325 -8.595 -11.9602 -14.4184 -14.2584 -15.343 -16.2816 -11.7272 -9.9455 -10.6215 
-8.635 -12.867 -15.6191 -16.4669 -20.5959 -18.4587 -16.7546 -13.3502 -15.1573 
