-4.759 
n/a 
n/a 
n/a 
n/a 
-4.759 
n/a 
n/a 
n/a 
n/a 
-4.759 
n/a 
n/a 
n/a 
n/a 
-4.759 
n/a 
n/a 
n/a 
n/a 
-3.508 -9.1505 -5.274 -4.4455 -7.729001 -5.274 -4.648 -2.5045 -4.445 -1.7565 -4.7235 
-11.9695 -10.038 -9.110001 -13.0449 -13.3422 -9.6635 -5.8555 -6.2825 -5.5545 -6.2155 
-13.4675 -14.192 -18.0078 -18.6581 -17.7317 -11.0832 -8.637 -6.8005 -8.672501 
-17.6285 -23.0898 -23.621 -23.0476 -19.1514 -13.8647 -8.928 -10.2925 
-26.5263 -28.703 -28.0105 -24.4673 -21.9329 -14.1557 -12.5172 
-3.508 -11.0095 -5.274 -2.229 -4.4455 -4.281 -12.16972 -7.561501 -3.251 -3.1125 -4.645 -2.5045 -3.757 -1.7565 -3.691 
-13.7756 -13.7356 -6.5975 -5.7415 -7.439501 -16.76732 -19.73122 -10.7665 -4.28 -6.2285 -6.168001 -5.468 -4.5665 -4.930501 
-17.1721 -15.0591 -8.661 -9.370501 -20.17802 -24.32882 -22.93622 -11.7955 -7.1855 -7.29 -7.354001 -5.918 -8.2985 
-18.4956 -17.1226 -12.7248 -22.35702 -27.73952 -27.53382 -23.96522 -14.701 -8.342501 -8.512501 -7.685001 -9.812 
-20.5591 -21.1864 -25.71132 -29.91852 -30.94452 -28.56282 -26.87072 -15.858 -9.675501 -8.692 -11.8862 
-3.508 -3.1475 0 -7.988501 -5.274 -2.229 -4.4455 -12.16972 -5.274 -2.7415 -3.917 -2.5045 -1.4985 -3.757 -1.7565 -6.581 0 
-5.383 -3.1475 -7.988501 -9.925501 -6.5975 -5.7415 -17.48562 -17.44372 -7.507 -5.6245 -5.6565 -3.583 -4.5435 -4.5665 -8.6665 -6.581 
-5.383 -11.6666 -9.925501 -11.249 -8.661 -19.21282 -22.75962 -19.67672 -10.204 -6.3145 -6.196 -6.264 -5.3175 -12.1347 -8.6665 
-15.1031 -13.6036 -11.249 -13.3125 -22.56712 -24.48682 -24.99262 -22.37372 -11.0096 -6.6975 -9.2665 -6.673501 -13.2841 -12.1347 
-17.0401 -14.9271 -13.3125 -27.21862 -27.84112 -26.71982 -27.68962 -23.17932 -11.3926 -9.6315 -9.535501 -14.6115 -13.2841 
-3.508 -3.1475 -7.4935 -2.688 -3.757 -2.7415 -3.429 -4.1495 -2.3345 -6.879 -5.274 -4.4455 -1.7565 -6.003 -5.274 
-5.383 -11.1716 -10.3165 -5.955 -6.271 -7.1625 -5.9855 -6.291 -9.687 -12.8614 -9.110001 -5.924001 -7.3255 -6.307 
-14.6081 -13.9946 -13.5835 -8.0135 -11.0876 -9.943001 -8.644001 -14.2927 -15.7552 -16.6974 -9.539001 -9.435501 -7.4605 
-17.4311 -17.2616 -15.642 -13.1603 -13.8681 -12.3977 -16.7053 -20.3609 -19.5912 -17.1264 -9.861 -9.8885 
-20.6981 -19.3201 -20.7888 -15.9408 -16.3228 -20.459 -22.7735 -24.1969 -20.0202 -17.4484 -10.409 
