-4.759 
n/a 
n/a 
n/a 
n/a 
-4.759 
n/a 
n/a 
n/a 
n/a 
-4.759 
n/a 
n/a 
n/a 
n/a 
-4.759 
n/a 
n/a 
n/a 
n/a 
-3.531 -2.7035 -12.16972 -10.2775 -10.526 -4.7115 
-5.6645 -15.04522 -22.44722 -20.8913 -15.2375 
-19.07722 -25.32272 -33.06102 -25.6028 
-29.35472 -35.93652 -37.77252 
-39.96852 -40.64802 
-3.531 -2.7035 -12.16972 -12.16972 0 -4.3435 -4.7115 
-5.6645 -15.04522 -24.33944 -12.16972 -4.3435 -7.738 
-19.07722 -27.21494 -24.33944 -16.51322 -7.738 
-31.24694 -27.21494 -28.68294 -19.90772 
-31.24694 -31.55844 -32.07744 
-3.5195 -2.7035 -11.0905 -12.16972 0 -4.1265 -4.7115 
-5.609 -13.966 -23.26022 -12.16972 -4.1265 -9.3155 
-17.9767 -26.13572 -23.26022 -16.29622 -9.3155 
-30.14642 -26.13572 -27.38672 -21.48522 
-30.14642 -30.26222 -32.57572 
-3.531 -2.7035 0 -10.8685 -12.16972 0 -4.3435 -4.7115 
-5.6645 -2.7035 -10.8685 -23.03822 -12.16972 -4.3435 -7.738 
-5.6645 -13.744 -23.03822 -23.03822 -16.51322 -7.738 
-17.776 -25.91372 -23.03822 -27.38172 -19.90772 
-29.94572 -25.91372 -27.38172 -30.77622 
