-4.759 
n/a 
n/a 
n/a 
n/a 
-4.759 
n/a 
n/a 
n/a 
n/a 
-4.759 
n/a 
n/a 
n/a 
n/a 
-4.759 
n/a 
n/a 
n/a 
n/a 
-2.872 -2.264 -4.978 -1.7695 -2.3615 -3.909 0 -1.934 -5.7105 -5.9185 0 -1.4985 -5.116 -2.186 -2.5045 -2.871 -3.7575 -1.7565 -2.4265 0 
-5.33 -7.951 -5.3075 -3.736 -5.6025 -3.909 -1.934 -8.05 -6.078 -5.9185 -1.4985 -5.823501 -7.055 -4.660501 -4.905 -5.3005 -4.4575 -4.305 -2.4265 
-9.616001 -8.440001 -7.0955 -6.995501 -5.6025 -5.8995 -8.05 -8.6385 -6.078 -7.507 -5.823501 -7.608001 -8.9405 -7.283501 -7.176001 -5.794 -6.594501 -4.305 
-10.545 -10.298 -10.028 -6.995501 -7.1465 -12.6405 -8.6385 -8.6385 -7.63 -12.3004 -7.608001 -9.729 -11.7903 -9.286 -7.4905 -7.678 -6.594501 
-12.403 -13.2305 -10.028 -8.4315 -14.2687 -13.229 -8.6385 -10.4185 -12.5216 -14.0849 -9.729 -12.7202 -13.7928 -9.5395 -9.370001 -7.678 
-2.872 0 -1.934 -5.7105 -5.9185 -2.3615 -2.186 -3.6065 -2.5045 -5.2915 -2.186 -4.3725 -3.9615 -2.871 -4.315 0 
-2.872 -1.934 -8.05 -6.078 -8.285001 -3.5005 -5.206 -6.330501 -8.852 -6.972 -5.3785 -6.915501 -6.7935 -6.5315 -4.315 
-4.659 -8.05 -8.6385 -8.425 -9.324 -6.437 -7.385 -13.1226 -10.435 -9.101501 -7.85 -8.942 -8.999001 -6.5315 
-11.4568 -8.6385 -11.2425 -9.451501 -12.5067 -9.165 -14.6017 -14.7056 -12.8675 -10.6215 -9.8345 -10.703 -8.999001 
-12.0453 -11.2425 -12.269 -12.629 -15.2347 -16.5941 -16.1847 -17.1381 -14.3875 -12.606 -11.9757 -10.703 
-2.872 -2.264 -4.978 -1.7695 -2.3615 0 -1.934 -7.641 0 -1.4985 -5.3315 -2.186 -2.5045 -2.871 -1.7565 -3.1435 -4.6525 0 
-5.33 -7.951 -5.3075 -3.736 -2.3615 -1.934 -10.0925 -7.641 -1.4985 -6.016001 -7.2225 -4.660501 -4.905 -3.5385 -4.124 -7.1095 -4.6525 
-9.616001 -8.440001 -7.0955 -3.736 -4.886 -10.0925 -10.0925 -8.9335 -6.016001 -7.713 -9.223001 -7.283501 -5.5505 -5.486 -7.7475 -7.1095 
-10.545 -10.298 -7.0955 -6.646 -13.6853 -10.0925 -11.385 -14.1614 -7.713 -10.0885 -11.9168 -7.9385 -7.302001 -8.2165 -7.7475 
-12.403 -10.298 -9.072001 -15.6543 -13.6853 -11.385 -16.6129 -15.8584 -10.0885 -12.8105 -12.5718 -9.113501 -9.945001 -8.2165 
-2.872 0 -3.7015 -2.3335 -5.7105 -5.9185 -5.3315 -4.06 -1.934 -2.871 -3.7575 0 
-2.872 -3.7015 -6.119 -8.5635 -6.078 -9.409 -8.682 -4.483 -4.2805 -5.3005 -3.7575 
-6.77 -6.119 -12.7646 -9.2025 -9.437 -13.4509 -8.9725 -6.713 -7.426001 -5.3005 
-8.648001 -12.7646 -13.4036 -12.8619 -13.4759 -13.7414 -11.3435 -9.7515 -7.426001 
-15.54 -13.4036 -17.063 -16.9008 -13.7664 -16.1124 -14.382 -9.7515 
