-4.759 
n/a 
n/a 
n/a 
n/a 
-4.759 
n/a 
n/a 
n/a 
n/a 
-4.759 
n/a 
n/a 
n/a 
n/a 
-4.759 
n/a 
n/a 
n/a 
n/a 
-3.17 -1.7565 -1.4985 -5.1845 -4.9225 -3.152 -4.7815 -1.934 -3.8905 -4.3065 0 
-4.179 -2.4195 -6.5205 -9.13 -7.4025 -6.8585 -5.9345 -5.5175 -7.043 -4.3065 
-4.497 -7.2335 -9.6245 -11.7446 -11.3594 -9.104501 -7.403 -8.578 -7.043 
-9.278501 -10.264 -12.3121 -15.7015 -13.6054 -10.7532 -10.6335 -8.578 
-12.4076 -12.9516 -16.269 -17.9475 -15.2541 -13.9837 -10.6335 
-6.4735 -3.251 -3.1125 -5.2585 -3.8905 -4.7615 -1.934 -2.985 -3.3435 0 
-8.791 -4.28 -6.547501 -8.863501 -7.6005 -6.368001 -4.111 -5.5965 -3.3435 
-9.540501 -7.785501 -10.7435 -13.6037 -9.3065 -8.181001 -6.3295 -5.5965 
-13.1212 -12.0987 -15.4837 -15.3097 -11.2811 -10.8375 -6.3295 
-17.4344 -16.8389 -17.1897 -17.2843 -13.9376 -10.8375 
-3.17 -5.1845 -3.1385 -2.8645 -4.8135 -1.934 -3.8905 0 
-9.133 -7.4095 -6.3865 -8.7995 -5.637001 -5.5175 -3.8905 
-10.2815 -10.0345 -12.5753 -9.125 -6.758501 -5.5175 
-12.9065 -16.2277 -12.9008 -10.3615 -6.758501 
-19.0997 -16.5532 -14.1373 -10.3615 
-8.27 -3.152 -3.45 -3.1385 -3.0695 -3.757 -3.251 -4.3065 -1.934 -3.8905 0 
-10.2755 -6.167 -5.45 -4.286 -6.251 -5.709001 -7.097 -5.317501 -5.5175 -3.8905 
-13.2905 -8.2145 -6.0005 -7.5795 -7.7025 -8.368501 -7.377501 -6.522 -5.5175 
-15.338 -8.879001 -8.4705 -9.3725 -10.1035 -8.553 -8.606501 -6.522 
-16.0025 -11.4264 -10.2425 -11.8449 -10.4485 -10.025 -8.606501 
