-4.759 
n/a 
n/a 
n/a 
n/a 
-4.759 
n/a 
n/a 
n/a 
n/a 
-4.759 
n/a 
n/a 
n/a 
n/a 
-4.759 
n/a 
n/a 
n/a 
n/a 
-3.9615 -10.0625 -3.4425 -2.3615 -7.637001 -4.696 -3.499 -3.931 -4.424 0 
-14.7856 -13.505 -6.175 -10.674 -10.4855 -7.9275 -8.385 -8.9895 -4.424 
-18.2281 -16.2375 -14.9981 -13.5225 -13.717 -13.1625 -14.3317 -8.9895 
-20.9606 -25.0606 -17.8466 -16.754 -18.952 -19.1092 -14.3317 
-29.7837 -27.9091 -21.0781 -21.989 -24.8987 -19.1092 
-5.2965 -3.545 0 -3.3155 -4.3435 -4.696 -4.269 -3.152 -4.424 0 
-9.1355 -3.545 -3.3155 -7.173501 -7.5585 -8.5425 -6.461 -8.638 -4.424 
-9.1355 -6.1225 -7.173501 -10.3415 -10.1635 -9.948 -10.4035 -8.638 
-11.9784 -9.642 -10.3415 -12.9465 -11.569 -13.9323 -10.4035 
-15.4979 -13.3002 -12.9465 -14.352 -15.5533 -13.9323 
-3.717 -2.985 -3.53 -3.034 -5.2165 0 -1.756 -2.925 -2.742 -2.489 -4.1935 -2.356 -2.985 -3.9945 
-6.2205 -6.749001 -6.3285 -6.26 -5.2165 -1.756 -4.2585 -4.3725 -3.301 -5.2925 -5.5925 -4.4615 -7.105 
-8.061001 -8.597501 -7.387 -6.26 -7.5455 -4.2585 -5.55 -4.932 -5.6595 -6.3085 -7.481 -8.6315 
-9.835501 -10.2755 -7.387 -7.9235 -10.155 -5.55 -6.244 -7.797 -6.543 -8.0425 -12.2096 
-11.4577 -10.2755 -8.8085 -10.586 -11.4465 -6.244 -8.9785 -8.2285 -8.2155 -13.0381 
-1.4985 -3.9615 -2.3345 -5.2965 -3.4425 -1.934 -2.9705 -2.645 -3.1575 -4.696 -3.1385 -3.152 -4.493 0 
-5.2175 -6.346 -7.7875 -7.8125 -5.1105 -4.051 -6.282001 -3.72 -6.7685 -7.2425 -5.219 -5.593 -4.493 
-7.5955 -12.2992 -10.7173 -9.488501 -7.409 -6.8825 -6.62 -6.8985 -8.213 -8.72 -6.315001 -5.593 
-13.7361 -15.229 -12.3933 -12.276 -10.504 -7.08 -9.7565 -8.251 -9.613501 -9.216001 -6.315001 
-16.6659 -16.905 -15.1808 -15.371 -10.734 -10.0085 -10.445 -9.655001 -9.937 -9.216001 
