-4.759 
n/a 
n/a 
n/a 
n/a 
-4.759 
n/a 
n/a 
n/a 
n/a 
-4.759 
n/a 
n/a 
n/a 
n/a 
-4.759 
n/a 
n/a 
n/a 
n/a 
-3.7075 -3.9115 -2.186 -3.7075 -3.307 -3.486 -2.5045 -6.693501 0 -3.098 0 
-9.312 -5.939 -6.785501 -7.528 -7.943501 -4.737 -9.352 -5.9495 -3.098 -3.098 
-11.4369 -11.1151 -11.2958 -12.9545 -8.875001 -11.108 -9.5345 -10.4505 -3.098 
-16.613 -15.6254 -16.7223 -13.886 -16.1994 -11.8116 -14.2161 -10.4505 
-21.1233 -21.0519 -17.6538 -21.2104 -16.1994 -16.4932 -14.2161 
-1.4985 -3.9115 -1.7565 -1.4985 -3.7075 -4.179 -2.186 -2.7455 -6.693501 0 -1.7565 -4.365 -3.2 0 
-5.244 -5.1855 -2.4195 -4.6235 -7.6225 -5.351 -4.686 -9.037001 -5.9495 -1.7565 -5.782001 -5.4195 -3.2 
-5.598 -5.659 -5.468501 -7.7095 -8.611 -7.776501 -10.1635 -8.940001 -8.1505 -5.782001 -7.427501 -5.4195 
-5.9415 -9.199 -8.5535 -8.701 -11.1945 -12.9309 -9.607 -10.044 -13.63 -7.427501 -7.427501 
-9.446 -12.3752 -9.880501 -11.2821 -16.3489 -12.9309 -10.9978 -15.8179 -15.2755 -7.427501 
-4.2105 -2.0935 -2.7455 -7.335 0 -1.7565 -1.4985 -3.5085 -4.2105 -1.7565 -1.4985 -4.365 -3.2 0 
-5.3895 -4.987 -10.6505 -6.9825 -1.7565 -2.4195 -4.4755 -6.647 -5.477 -2.4195 -5.4465 -5.4195 -3.2 
-6.7275 -10.9685 -9.706 -9.041 -2.4195 -5.126 -6.960001 -7.0465 -6.114 -6.103001 -5.913 -5.4195 
-11.052 -9.844001 -9.741 -9.276 -5.126 -7.693 -7.190501 -7.4845 -8.535501 -6.460001 -5.913 
-9.851001 -9.847501 -9.7565 -10.2245 -7.693 -7.981501 -7.529001 -9.535001 -8.564 -6.460001 
-8.835501 -3.9115 -1.756 -12.16972 -3.5445 -8.925501 -6.693501 0 
-12.9364 -5.3975 -14.93432 -15.71422 -13.7002 -15.0418 -5.9495 
-14.4224 -19.51802 -18.47882 -25.86992 -19.8165 -15.0418 
-28.54292 -23.06252 -28.63452 -31.98622 -19.8165 
-32.08742 -33.21822 -34.75082 -31.98622 
