-4.759 
n/a 
n/a 
n/a 
n/a 
-4.759 
n/a 
n/a 
n/a 
n/a 
-4.759 
n/a 
n/a 
n/a 
n/a 
-4.759 
n/a 
n/a 
n/a 
n/a 
-3.6055 -5.213 -2.186 -4.3725 -2.264 -2.3615 -5.481 0 
-6.838 -6.983 -5.3785 -5.023001 -3.8255 -7.8085 -5.481 
-8.963501 -10.7595 -5.9165 -6.709001 -8.897 -7.8085 
-13.0324 -11.2975 -7.698 -12.2473 -8.897 
-13.5704 -13.079 -13.5213 -12.2473 
-3.6055 -5.213 -2.186 -4.3725 -2.264 -2.3615 -4.8155 0 
-6.838 -6.983 -5.3785 -5.023001 -3.8255 -9.1665 -4.8155 
-8.963501 -10.7595 -5.9165 -6.709001 -11.2647 -9.1665 
-13.0324 -11.2975 -7.698 -14.615 -11.2647 
-13.5704 -13.079 -15.889 -14.615 
-2.5685 -5.5025 -2.4945 -3.0365 -1.934 -2.3335 -4.8155 -3.098 0 
-6.9175 -7.4915 -4.952001 -5.238 -4.359 -8.4075 -7.948 -3.098 
-8.744 -9.321 -6.545001 -7.075001 -10.7495 -11.9118 -7.948 
-10.8743 -10.5045 -8.805501 -13.5267 -14.2538 -11.9118 
-12.0578 -13.57 -15.3138 -17.031 -14.2538 
-3.345 -4.502 -4.0935 -1.8085 -5.213 
-7.002 -8.265 -4.9645 -6.431001 
-9.240001 -8.924001 -10.453 
-9.8835 -14.6353 
-15.933 
