-4.759 
n/a 
n/a 
n/a 
n/a 
-4.759 
n/a 
n/a 
n/a 
n/a 
-4.759 
n/a 
n/a 
n/a 
n/a 
-4.759 
n/a 
n/a 
n/a 
n/a 
-1.934 -3.458 -2.3615 -2.4265 -4.042 -4.4035 -7.448 
-5.207 -5.925 -5.3335 -7.914001 -7.634001 -10.181 
-7.257 -10.0155 -11.7002 -11.8636 -13.6801 
-11.6423 -16.353 -15.6498 -17.9097 
-17.9798 -20.3026 -21.6959 
-1.934 -3.458 0 -3.676 -3.251 -4.6165 -3.8565 -3.3825 0 
-5.207 -3.458 -3.676 -6.8255 -7.818501 -8.161501 -4.849 -3.3825 
-5.207 -7.226 -6.8255 -11.5728 -9.956 -9.297001 -4.849 
-9.444501 -11.8679 -11.5728 -13.7103 -11.7179 -9.297001 
-13.6764 -16.6152 -13.7103 -15.4722 -11.7179 
-3.1495 -3.458 -3.676 -3.956 -1.4985 -4.4295 -5.4075 0 
-8.0435 -7.226 -7.8095 -5.458 -7.218 -10.7025 -5.4075 
-11.9287 -12.8519 -9.621 -11.7309 -14.0132 -10.7025 
-17.5546 -14.6634 -16.1507 -18.5261 -14.0132 
-19.3661 -21.1931 -22.9459 -18.5261 
-1.934 -3.458 -2.3615 0 -3.676 -4.878 -9.7445 -1.7565 -4.042 0 
-5.207 -5.925 -2.3615 -3.676 -8.2745 -15.7267 -10.4035 -6.147501 -4.042 
-7.257 -5.925 -7.3065 -8.2745 -19.3838 -16.3857 -14.7945 -6.147501 
-7.257 -11.0262 -12.5542 -19.3838 -20.0428 -20.7767 -14.7945 
-12.653 -16.2739 -23.6635 -20.0428 -24.4338 -20.7767 
