-4.759 
n/a 
n/a 
n/a 
n/a 
-4.759 
n/a 
n/a 
n/a 
n/a 
-4.759 
n/a 
n/a 
n/a 
n/a 
-4.759 
n/a 
n/a 
n/a 
n/a 
-1.934 -5.696 0 -3.402 -2.264 -3.9675 0 -3.8655 -2.7415 -3.8825 -1.7695 -17.66272 
-7.0905 -5.696 -3.402 -3.793 -6.288 -3.9675 -3.8655 -6.652 -6.087 -4.5575 -21.02412 
-7.0905 -10.1945 -3.793 -8.054501 -6.288 -8.050501 -6.652 -9.8465 -6.339 -23.61712 
-12.0788 -10.251 -8.054501 -8.054501 -11.1758 -10.688 -9.8465 -9.9315 -24.56652 
-12.1353 -14.5125 -8.054501 -13.1763 -13.8133 -13.8825 -9.9315 -29.22042 
-1.934 -5.696 0 -5.6025 -3.9675 -5.0355 -1.7695 -12.2845 0 
-7.0905 -5.696 -5.6025 -9.608001 -9.7775 -6.0435 -15.6459 -13.6929 
-7.0905 -10.586 -9.608001 -15.9708 -10.7855 -20.8921 -15.9219 
-12.4703 -14.5915 -15.9708 -16.9788 -25.6341 -20.8921 
-16.4758 -20.9543 -16.9788 -31.8274 -25.6341 
-1.934 -5.696 -3.158 0 -6.0035 -3.9675 -4.7715 -17.66272 -4.598 0 
-7.0905 -9.783001 -3.158 -6.0035 -9.4455 -8.821001 -23.42262 -23.66912 -4.598 
-11.6673 -9.783001 -9.3655 -9.4455 -14.9484 -27.95132 -28.38922 -23.66912 
-11.6673 -16.2151 -13.1231 -14.9484 -34.07872 -32.54932 -28.38922 
-18.0994 -19.9727 -18.626 -34.07872 -38.67672 -32.54932 
-2.5195 -5.696 -1.4985 -3.9675 -1.7565 -3.8655 -2.7415 -3.8825 -1.7695 -1.4985 -3.9675 -1.7565 -11.264 -2.3345 -3.9005 0 
-8.087501 -7.4805 -5.356501 -5.258 -5.196 -6.652 -6.087 -4.5575 -2.7955 -5.356501 -5.258 -13.9174 -15.7944 -6.951 -3.9005 
-9.7795 -11.7157 -5.832 -8.571501 -7.745 -9.8465 -6.339 -5.1235 -6.66 -5.832 -17.0943 -17.5578 -20.5291 -6.951 
-14.1197 -12.1912 -9.456501 -10.688 -11.1029 -9.9315 -6.876 -9.263 -7.143001 -18.1187 -20.5377 -22.2925 -20.5291 
-14.5952 -15.8157 -11.6488 -14.0459 -11.1879 -10.583 -10.5975 -9.649501 -18.5661 -21.1541 -25.2724 -22.2925 
