-4.759 
n/a 
n/a 
n/a 
n/a 
-4.759 
n/a 
n/a 
n/a 
n/a 
-4.759 
n/a 
n/a 
n/a 
n/a 
-4.759 
n/a 
n/a 
n/a 
n/a 
-1.4985 -3.8385 -1.7565 -1.4985 -3.1715 -2.186 -3.9205 -2.5045 -4.466 -1.756 -1.4985 -3.8385 -1.7565 -1.4985 -5.0075 -2.186 -3.9205 -2.5045 -4.156 -4.328 0 
-4.778501 -4.716001 -2.4195 -3.994 -5.3485 -4.9645 -4.449 -7.171 -6.4265 -3.0405 -4.778501 -4.716001 -2.4195 -5.724501 -8.7045 -4.9645 -4.449 -5.844 -6.2095 -4.328 
-5.202 -5.204 -4.741 -5.8975 -7.917 -5.539 -8.861501 -8.557 -7.6965 -6.425 -5.202 -5.204 -6.501501 -9.449 -11.6024 -5.539 -8.4125 -7.9175 -6.2095 
-5.5205 -7.209001 -6.83 -8.507501 -8.452001 -10.586 -10.5385 -9.814501 -9.8545 -6.691 -5.5205 -8.312501 -10.7025 -12.4219 -12.1769 -10.022 -10.6095 -7.9175 
-7.4645 -9.009501 -9.311501 -9.107 -13.5998 -12.263 -11.796 -12.0381 -9.858001 -7.011 -8.706 -12.9641 -13.6754 -12.9964 -16.6599 -12.2478 -10.6095 
-4.156 -4.328 -2.186 -2.664 -4.144 -3.275 -1.934 -3.135 -3.468 -1.7565 -3.8735 -3.6115 -1.7695 -1.4985 -4.156 -4.328 -1.934 -3.3785 -3.895 -1.4985 -3.8685 -2.186 -3.7855 -1.7695 -1.8085 -3.4185 -1.7565 -1.4985 -4.794 -3.6825 -3.034 -1.4985 -3.5435 -2.186 -4.5485 -2.356 -1.4985 -3.2015 -1.7565 -3.948 -4.085 0 
-6.2095 -6.1995 -3.8555 -5.459 -6.818 -5.386 -4.4015 -5.750501 -4.7385 -5.112 -7.946501 -5.599 -2.7955 -4.9965 -6.2095 -6.0585 -4.5895 -5.738501 -5.5105 -4.916 -5.4355 -4.9225 -4.793 -3.41 -4.1435 -4.2475 -2.4195 -5.696 -7.6805 -6.578 -3.947 -4.2755 -5.2365 -5.5785 -6.2725 -3.1615 -4.9495 -4.706 -5.05 -6.845 -4.085 
-8.2215 -8.431001 -6.379001 -8.564 -10.389 -8.2745 -6.271501 -7.9705 -7.347001 -8.854 -10.155 -6.813001 -6.1415 -6.746 -8.0755 -9.4335 -6.646 -7.581 -8.840501 -6.356 -8.071501 -5.685 -6.1085 -6.2255 -4.5105 -4.482 -6.499001 -8.716001 -10.733 -7.443501 -6.385 -5.659 -8.002501 -7.073501 -6.879 -5.8245 -5.357 -7.54 -8.016001 -6.845 
-10.3955 -11.1697 -10.028 -12.6588 -13.7951 -10.3429 -8.239 -9.147 -11.5102 -11.4969 -11.553 -9.992001 -7.805501 -8.514501 -11.5461 -11.5844 -8.06 -11.2464 -9.515 -8.941501 -9.252501 -7.014 -8.0165 -6.521 -4.7285 -7.66 -9.359501 -12.0367 -11.5985 -9.992001 -7.455 -8.8575 -9.632 -7.900001 -8.835501 -5.9025 -8.196501 -10.304 -8.016001 
-13.1342 -14.8187 -14.1228 -16.0649 -15.8635 -12.3104 -9.26 -13.601 -14.1531 -12.8949 -14.732 -11.9372 -9.376 -12.1283 -13.697 -12.9984 -11.845 -11.9209 -12.3195 -9.986501 -10.234 -8.653501 -8.232 -6.7955 -7.9145 -10.7199 -12.6648 -12.9022 -14.147 -11.062 -10.218 -10.7898 -10.192 -10.5325 -8.9205 -8.711 -10.66 -10.304 

n/a 
n/a 
n/a 
n/a 
-3.1715 -3.5435 -3.8385 -2.186 -3.849 -4.466 -1.756 -3.892 -2.229 -3.8385 -2.186 -3.849 -4.156 -4.328 0 
-5.3835 -7.412001 -5.8535 -4.8565 -8.564501 -6.4265 -6.1275 -5.4595 -5.4125 -5.8535 -4.8565 -8.242001 -6.2095 -4.328 
-10.057 -10.674 -8.633 -9.844501 -10.2705 -11.741 -8.2045 -9.7015 -6.952 -8.633 -9.427 -10.075 -6.2095 
-13.0678 -13.4535 -13.8348 -11.5505 -15.585 -13.818 -12.6243 -11.4866 -9.734 -13.4173 -11.3874 -10.075 
-15.8473 -18.6553 -15.5408 -16.865 -17.662 -18.2378 -14.4094 -14.2686 -14.6317 -15.3777 -11.3874 
