-4.759 
n/a 
n/a 
n/a 
n/a 
-4.759 
n/a 
n/a 
n/a 
n/a 
-4.759 
n/a 
n/a 
n/a 
n/a 
-4.759 
n/a 
n/a 
n/a 
n/a 
-2.847 -2.871 -2.186 -7.071 -3.034 -2.4265 -4.066 -1.7695 -1.4985 -4.1385 -5.043 -4.1865 0 -2.7835 -2.3585 -5.346 -1.756 -5.495 -4.2745 0 -2.3585 -2.4945 -4.107 -2.0935 -3.135 -4.3755 -1.7565 -1.4985 -4.392 -2.3335 -2.186 -4.6285 -2.925 -1.934 -1.4985 -4.3355 0 -3.4765 -2.7835 -2.3585 -3.511 -4.565 -1.7565 -3.9165 -2.5195 -1.4985 -5.4975 0 
-4.4675 -4.751 -8.639 -9.5825 -4.3295 -4.728 -4.6735 -2.7955 -5.0575 -7.4725 -7.1615 -4.1865 -2.7835 -3.296 -6.7925 -6.8945 -6.456 -10.195 -4.2745 -2.3585 -3.538 -5.164001 -4.239501 -4.4665 -6.636001 -4.5345 -2.4195 -5.724501 -6.896501 -3.7085 -6.6165 -6.2815 -4.436501 -2.6125 -5.199 -4.3355 -3.4765 -4.429 -3.296 -5.2275 -8.2995 -4.631 -5.942 -4.974 -3.1695 -6.43 -5.4975 
-5.606 -10.054 -10.6605 -10.0765 -4.869 -4.8905 -5.648 -6.3785 -8.5515 -7.5085 -7.1615 -6.8205 -3.296 -7.710501 -7.847 -9.337 -11.7666 -10.195 -6.819 -3.538 -5.7725 -5.1975 -6.992001 -7.8555 -6.6915 -4.799 -6.686501 -8.017 -7.697001 -8.199 -8.1115 -6.7685 -4.967 -6.115 -5.199 -8.093 -4.429 -5.16 -5.822001 -9.5935 -8.391001 -6.587 -7.0745 -5.7145 -7.8565 -6.43 
-10.103 -12.0755 -11.1545 -10.0965 -4.904 -5.8905 -9.349501 -9.701501 -8.575001 -7.5085 -10.172 -7.3365 -7.710501 -10.5425 -10.9601 -14.7426 -11.7666 -12.8651 -8.040501 -5.7725 -5.7945 -7.964001 -9.1245 -7.87 -6.999001 -8.842501 -8.922501 -9.009501 -12.4977 -9.585001 -8.5315 -7.3135 -8.174001 -6.115 -8.362 -8.943001 -5.16 -7.561501 -10 -9.672 -8.638 -7.578 -7.581 -9.0775 -7.8565 
-12.1245 -12.5695 -11.1745 -10.106 -5.9065 -9.871 -12.9417 -9.720501 -8.575001 -10.3155 -10.55 -12.2066 -10.5425 -13.6556 -16.3657 -14.7426 -14.4367 -14.0866 -9.477501 -5.7945 -9.424001 -10.2745 -9.128501 -8.163501 -11.2221 -11.1855 -9.859 -13.9252 -13.8837 -9.952001 -8.950001 -9.438 -8.174001 -9.155001 -9.143001 -9.711 -7.561501 -10.2975 -10.068 -9.7425 -9.264501 -8.009501 -11.037 -9.0775 
-1.4985 -3.9745 -1.7565 -5.4805 -5.0395 -2.186 -1.7695 -4.299 -3.4945 -2.9995 -5.065 0 
-4.7475 -4.5865 -7.0955 -7.1245 -6.909 -3.8745 -5.4975 -7.412001 -4.9185 -8.48 -5.065 
-4.8625 -9.6625 -8.502501 -9.39 -8.5705 -7.4605 -8.4425 -8.803 -9.5915 -8.48 
-9.8695 -10.166 -10.4345 -11.1019 -10.0575 -10.6875 -9.7915 -13.6174 -9.5915 
-10.268 -12.4176 -12.1464 -12.5889 -13.4195 -12.0365 -14.6571 -13.6174 
-4.0995 -5.3815 -2.4945 -2.6165 -3.6845 -4.299 -4.898 0 -2.3335 -2.186 -1.4985 -4.0995 -5.3815 -3.909 0 
-8.752501 -7.0235 -3.8065 -5.3745 -9.4055 -8.578001 -4.898 -2.3335 -3.7085 -3.339 -5.3665 -8.752501 -10.533 -3.909 
-10.4945 -8.386001 -8.851001 -10.564 -13.8493 -8.578001 -6.7495 -3.7085 -4.897 -7.4775 -10.1945 -14.1198 -10.533 
-11.857 -13.7833 -14.1475 -15.524 -13.8493 -10.7025 -8.988501 -4.897 -8.8605 -12.5521 -15.5618 -14.1198 
-17.2543 -19.0798 -19.1075 -15.524 -15.9738 -12.9415 -9.625 -8.8605 -14.0495 -17.9194 -15.5618 
-1.4985 -8.092 -4.4325 -2.8645 -2.645 -4.2785 0 
-9.244 -12.9917 -6.9685 -5.2085 -7.465501 -4.2785 
-14.3217 -15.5277 -9.307501 -9.34 -7.465501 
-16.8577 -17.8667 -13.5606 -9.34 
-19.1967 -22.1198 -13.5606 
