-4.759 
n/a 
n/a 
n/a 
n/a 
-4.759 
n/a 
n/a 
n/a 
n/a 
-4.759 
n/a 
n/a 
n/a 
n/a 
-4.759 
n/a 
n/a 
n/a 
n/a 
-1.4985 -3.723 -3.7435 -1.7565 -4.541 -1.756 -4.2695 -3.8825 -2.5045 -1.8085 -3.7855 -2.95 -1.756 -1.8085 -3.7855 -3.5015 -2.186 -4.5085 -1.7695 -2.5045 -3.6615 -3.895 0 -4.764 -4.718 -2.186 -4.251 -3.2955 -1.7695 -3.99 -3.858 -3.8755 -4.541 -1.7565 -1.8085 -5.129 0 -2.4285 -2.664 -4.6875 -1.7565 -3.3195 -2.3335 -2.186 -2.6165 -3.908 0 -1.756 -4.122 -2.8645 -1.8085 0 -3.723 0 -4.718 0 
-4.636 -7.441 -4.905 -6.058001 -5.774 -5.3315 -8.373501 -5.4165 -3.913 -4.803 -5.7995 -4.287 -3.584 -4.803 -7.2875 -5.481 -5.704 -4.58 -4.8865 -6.601501 -7.183001 -3.895 -4.764 -9.641001 -6.2485 -5.193 -6.274501 -3.9425 -5.6025 -7.163 -7.356501 -7.278501 -6.0445 -3.2595 -6.358 -5.129 -2.4285 -4.6775 -6.147 -4.9665 -4.8675 -5.71 -3.7085 -3.5105 -5.498 -3.908 -1.756 -4.816 -6.46 -3.9785 -1.8085 -3.723 -3.723 -4.718 -4.718 
-8.576 -8.882001 -10.4185 -7.217 -9.23 -9.3345 -10.2925 -6.679 -6.053 -6.371 -6.981501 -6.191 -7.2405 -7.6215 -8.998 -8.898001 -5.734 -5.027 -8.527 -9.5745 -7.183001 -8.311001 -9.641001 -10.413 -9.149 -6.757 -6.937001 -6.8905 -7.9855 -10.411 -10.4425 -8.726501 -7.821001 -7.6625 -6.358 -7.2395 -4.6775 -8.134501 -6.319 -8.0565 -6.631001 -6.6685 -4.873 -5.791 -5.498 -5.276 -4.816 -6.8005 -7.160501 -3.9785 -4.9425 -3.723 -7.699 -4.718 
-9.696 -10.5865 -10.566 -10.238 -10.5435 -10.544 -10.5425 -8.483001 -6.679501 -7.559 -8.455001 -9.216001 -9.932501 -9.193501 -10.6345 -8.907001 -5.9255 -8.571 -10.5035 -9.5745 -11.9252 -13.2268 -10.413 -13.3135 -10.443 -7.319 -8.793501 -8.8195 -10.532 -10.5875 -10.5465 -10.19 -10.476 -7.6625 -7.883 -9.075001 -8.134501 -8.206 -9.3745 -9.4375 -7.587 -7.9995 -7.868001 -5.791 -7.218501 -8.547001 -6.8005 -7.5925 -7.160501 -7.0585 -4.9425 -7.699 -7.699 
-10.5885 -10.6055 -10.605 -10.5515 -10.5605 -10.561 -10.58 -9.037001 -7.7155 -9.130501 -9.786 -10.1345 -10.557 -10.6345 -10.6555 -9.282001 -9.745001 -10.553 -10.5035 -14.5273 -16.841 -13.9988 -13.3135 -14.6075 -10.6485 -8.958501 -10.5975 -10.647 -10.591 -10.606 -10.584 -10.561 -10.476 -8.362 -9.2255 -10.554 -8.206 -10.5035 -10.2045 -10.299 -8.8815 -11.2743 -7.868001 -7.5725 -9.403501 -10.504 -7.5925 -7.5925 -10.253 -7.0585 -8.8455 -7.699 
-2.5045 -1.4985 -3.486 -2.95 0 -3.4765 -7.411 -2.6165 -4.4695 0 -1.934 -1.4985 -3.158 -4.975 -4.165 -12.16972 -5.939 -3.4975 -4.4695 -3.3195 -3.819 -8.339001 -8.6575 -1.756 -3.5445 -5.075 -2.4945 -2.8965 -4.5235 -3.0695 -4.3465 -5.79 -3.3195 -1.756 -3.4975 -4.0445 
-3.1915 -3.5655 -4.563 -2.95 -3.4765 -8.2845 -9.925501 -7.317 -4.4695 -1.934 -2.6125 -4.178 -7.4305 -8.472 -17.27952 -18.10872 -10.6215 -8.2795 -7.267 -6.1505 -11.489 -17.4936 -10.0285 -5.205 -6.637 -8.007 -5.387 -6.3225 -6.111501 -5.789001 -11.0145 -9.0705 -4.768 -5.427 -7.637 
-4.538 -4.577 -4.563 -6.0885 -8.2845 -10.688 -14.6926 -7.317 -6.4835 -2.6125 -5.265 -8.288 -11.6091 -21.78792 -23.21852 -22.79122 -15.4035 -11.7024 -9.3385 -13.2418 -22.0497 -19.5794 -13.4775 -8.109 -9.781 -11.0277 -9.203001 -7.607 -9.432501 -12.7774 -14.295 -10.2045 -8.237 -9.675501 
-4.615 -4.577 -7.467 -10.7575 -10.688 -16.0895 -14.6926 -8.910501 -7.004 -5.265 -8.6785 -12.384 -24.92502 -27.72692 -27.90102 -27.57322 -18.8264 -13.7739 -16.763 -23.6303 -23.4207 -23.0284 -16.3815 -10.1855 -12.8387 -14.8437 -9.708 -11.3722 -16.4695 -16.0579 -15.429 -13.6735 -13.0619 
-4.615 -7.475501 -12.3054 -13.161 -16.0895 -16.0895 -16.2861 -9.4255 -10.1035 -8.6785 -12.8735 -25.69992 -30.86402 -32.40942 -32.68302 -30.99612 -20.8979 -21.1984 -26.9829 -25.0013 -26.8697 -25.9324 -18.458 -13.3166 -16.6547 -15.3487 -13.6728 -18.4092 -19.75 -17.1919 -18.898 -18.4984 
-2.264 -1.4985 -3.486 -2.95 -3.4765 -3.929 -2.6165 -3.0465 -4.7155 0 -1.934 -4.975 -7.725501 -4.775 -4.3845 -3.43 -1.8085 -3.4155 -3.4975 -3.9675 -1.756 -3.2345 -3.091 -2.5045 -3.3195 -4.9475 0 -4.3595 -7.281 0 -1.756 -6.697001 -5.075 -3.6845 -1.8085 -4.4265 -4.0445 -1.7695 -4.3665 -4.77 -3.3195 
-2.9195 -3.5655 -4.563 -6.0885 -4.589 -5.616 -5.122 -7.882501 -4.7155 -1.934 -6.301 -13.3311 -13.0837 -10.0445 -7.8865 -4.6595 -4.0495 -5.6475 -5.8 -4.9775 -4.5715 -5.758 -7.038 -6.371 -6.7095 -4.9475 -4.3595 -12.4881 -7.281 -1.756 -8.7735 -10.468 -9.0775 -4.7885 -5.3885 -7.5425 -4.6 -6.465001 -9.842001 -8.338 
-4.9505 -4.577 -7.467 -6.936 -7.151 -9.910501 -10.419 -7.882501 -6.294001 -6.301 -15.0457 -18.6893 -18.3532 -13.7861 -9.7995 -6.5055 -6.906 -8.8175 -6.8265 -8.1815 -7.166 -10.13 -11.2899 -9.31 -6.7095 -7.9495 -12.4881 -12.4881 -9.7005 -8.7735 -12.7265 -14.4705 -10.6605 -7.7485 -8.4265 -7.914001 -10.1305 -12.4767 -13.4948 
-7.553 -7.475501 -8.251 -9.5345 -11.6509 -15.4613 -10.419 -10.111 -10.476 -15.0457 -20.4039 -23.9588 -22.0948 -15.6991 -11.8199 -10.4265 -10.634 -10.7335 -9.8175 -10.9346 -11.7428 -14.3819 -14.2289 -9.31 -9.9895 -16.9015 -12.4881 -14.9076 -16.718 -12.7265 -16.729 -16.0535 -13.6205 -11.2455 -8.7535 -13.7107 -16.2902 -16.1295 
-10.8429 -8.2665 -10.8505 -14.1546 -17.2017 -15.4613 -12.6475 -14.293 -19.2207 -20.4039 -25.6734 -27.7004 -24.0078 -17.7195 -15.7409 -14.1545 -12.55 -13.7245 -12.6852 -15.5114 -15.9947 -17.3209 -14.2289 -12.7952 -19.1115 -16.9015 -14.9076 -21.9251 -20.671 -16.729 -18.312 -19.0135 -17.1175 -11.5725 -14.6116 -19.8704 -19.943 
-3.929 -4.796 -5.463 -2.5045 -1.4985 -2.95 0 -4.165 -5.751 -2.229 -3.213 -1.7565 -1.4985 -6.440001 -4.196 -3.595 -2.5045 -1.4985 -3.0835 -3.8175 -5.214 -4.9475 -1.934 -1.4985 -4.5475 -4.77 0 -2.8965 -7.193501 -3.2775 -2.5045 -4.3595 -5.743001 -1.756 -3.5445 -5.075 -3.8755 -2.664 -3.4975 -4.0445 -1.7695 -4.5475 -4.584 0 
-7.774 -7.3545 -7.721001 -3.1915 -3.9285 -2.95 -4.165 -7.1075 -7.932501 -4.994 -4.766 -2.4195 -7.170501 -10.1425 -7.4615 -5.227 -3.583 -3.535 -5.872 -6.5985 -8.601501 -6.9055 -2.6125 -5.662001 -7.1565 -4.77 -2.8965 -9.0705 -9.2395 -3.678 -6.9495 -7.4995 -7.254001 -5.205 -6.637 -9.088501 -5.72 -5.1135 -7.637 -4.6 -6.3485 -7.7875 -4.584 
-9.5015 -9.318 -8.0885 -4.5155 -3.9285 -7.5695 -7.1075 -8.778 -9.739 -7.1105 -5.346 -8.170501 -10.1505 -10.1745 -7.554 -6.2635 -5.4425 -6.174001 -8.0365 -11.245 -9.768001 -7.668 -6.630001 -7.285501 -7.1565 -8.236 -9.0705 -10.0415 -9.251 -7.7745 -9.613501 -8.805 -9.479001 -8.109 -9.794001 -10.1155 -8.644501 -8.9405 -7.9055 -8.2925 -9.490001 -7.7875 
-10.136 -9.436 -8.738001 -4.5155 -8.479 -9.615 -8.778 -10.1635 -10.1835 -8.082001 -10.038 -10.159 -10.1745 -10.1815 -8.481501 -8.073501 -7.767 -8.182 -12.082 -11.6695 -11.305 -9.448501 -8.0825 -7.285501 -10.0505 -10.168 -10.0415 -10.047 -10.1525 -9.830001 -9.934501 -9.693001 -9.701001 -10.155 -10.1455 -10.2555 -10.238 -9.177 -10.134 -10.1465 -9.490001 
-10.1425 -9.5985 -8.738001 -8.883 -10.089 -10.1245 -10.1635 -10.188 -10.191 -10.138 -10.1735 -10.1745 -10.1815 -10.1885 -9.7565 -9.969501 -9.468 -10.312 -10.1875 -10.21 -10.6705 -10.026 -8.0825 -10.092 -10.173 -10.175 -10.047 -10.162 -10.1595 -10.0995 -10.1525 -9.707001 -10.171 -10.1705 -10.258 -10.264 -10.2465 -10.2335 -10.1785 -10.1465 
