-4.759 
n/a 
n/a 
n/a 
n/a 
-4.759 
n/a 
n/a 
n/a 
n/a 
-4.759 
n/a 
n/a 
n/a 
n/a 
-4.759 
n/a 
n/a 
n/a 
n/a 
-3.0365 -2.4945 -3.3715 -4.1145 -3.459 -3.333 -2.0935 -3.45 -3.0695 -3.465 -1.7695 -3.5185 -2.985 -3.5205 -4.1145 0 -3.135 -3.672 -3.7495 -3.074 -5.3215 -3.53 -4.3285 -4.1145 -2.229 
-3.688 -4.846 -8.289001 -6.6615 -7.461 -4.2535 -4.440001 -4.273 -5.081 -3.665 -4.134 -5.8985 -4.257 -7.172501 -4.1145 -3.135 -6.639501 -5.481 -6.5425 -7.585501 -10.1133 -5.762 -8.93 -6.818501 
-4.8765 -9.602 -11.4732 -11.6903 -8.160501 -6.4805 -4.983 -5.826 -5.207 -5.8505 -6.259501 -5.9895 -7.9735 -7.172501 -7.9705 -6.639501 -8.226501 -8.533 -11.609 -13.0269 -12.3453 -9.163501 -12.0678 
-9.604001 -12.8996 -16.502 -12.3898 -10.3955 -6.877 -6.091001 -5.974 -7.311501 -8.0115 -6.3725 -9.2965 -7.9735 -10.4035 -11.895 -8.226501 -9.908501 -13.6785 -17.0504 -15.2589 -15.7468 -12.5055 
-12.903 -17.9284 -17.2015 -14.6248 -10.506 -7.91 -6.245501 -8.1995 -8.356 -8.055 -9.7115 -9.2965 -11.9213 -14.5686 -13.482 -9.908501 -15.1164 -19.1199 -19.2824 -18.6604 -19.0888 
-3.45 -3.0695 -4.331 -1.7695 -4.5055 -2.985 -3.5205 -4.1145 0 -3.0365 -2.186 -3.913 -4.017 0 -1.934 -2.9705 -3.0365 -2.4945 -3.135 -3.275 -1.756 -4.1445 0 -3.441 -3.354 -2.925 -2.0935 -3.72 
-4.273 -5.337 -4.593 -4.9495 -6.5575 -4.257 -7.172501 -4.1145 -3.0365 -3.66 -7.4685 -6.0795 -4.017 -1.934 -4.051 -5.543 -3.688 -4.575 -6.899 -4.1955 -5.9945 -4.1445 -3.441 -7.335501 -4.3775 -4.0665 -5.588 
-7.6915 -5.460001 -8.290001 -6.8995 -7.4455 -7.9735 -7.172501 -7.484 -3.66 -9.1105 -10.543 -6.0795 -5.85 -4.051 -6.049 -6.173501 -5.0805 -7.904 -7.680501 -6.9095 -5.9945 -8.148001 -7.335501 -7.856 -5.706 -7.656 
-7.779 -8.949501 -10.254 -7.822001 -11.6074 -7.9735 -10.0815 -7.9285 -9.1105 -12.4796 -10.543 -8.029 -7.2255 -6.049 -6.6965 -8.2075 -8.121 -8.2255 -10.27 -6.9095 -10.2805 -12.6875 -7.856 -9.367001 -9.512501 
-11.5899 -10.5865 -11.1765 -12.0151 -11.6074 -10.543 -10.886 -14.0696 -12.4796 -12.4796 -12.4925 -10.281 -9.824 -6.6965 -8.77 -11.3342 -8.264501 -11.6214 -10.27 -10.586 -14.82 -13.208 -9.367001 -13.4739 
-1.4985 -3.6765 -3.0695 -3.7895 -1.7695 -3.5185 -2.8705 -3.5205 -4.1145 -3.0365 -2.186 -3.135 -4.1145 -5.5125 -2.3615 -3.135 -1.7565 -3.277 -2.4945 -6.807 -1.7565 -3.277 -4.1885 -4.377 -4.1145 -3.4945 -3.3425 -4.5305 -3.9355 0 
-4.501 -4.7945 -8.1405 -5.132 -4.134 -6.5245 -4.817 -7.172501 -7.484 -3.66 -5.2115 -7.617001 -9.317 -6.9575 -6.285501 -3.9195 -4.25 -5.237 -10.507 -8.6475 -4.25 -7.392 -7.457001 -8.261001 -8.0975 -5.690001 -6.9305 -9.022001 -3.9355 
-5.3435 -10.7025 -9.731001 -8.178 -6.903 -6.952 -8.7085 -10.0815 -7.9285 -5.4775 -10.019 -13.9088 -11.14 -11.7 -7.1585 -5.3165 -5.3725 -11.5015 -10.0405 -10.2045 -8.469001 -10.9273 -11.9468 -13.3262 -10.089 -9.533001 -12.4542 -9.022001 
-11.4625 -12.293 -12.9086 -11.0514 -7.333 -10.389 -12.0193 -10.886 -9.523001 -10.532 -16.3876 -15.8875 -16.996 -13.1948 -8.376 -6.112 -11.6538 -12.6273 -11.109 -14.3875 -12.1171 -15.4171 -17.012 -15.3177 -14.1214 -15.4949 -12.4542 
-13.053 -15.4706 -15.782 -11.4814 -10.4665 -14.0596 -12.8238 -12.4805 -14.9379 -16.9006 -18.3663 -21.3563 -17.778 -14.2643 -9.0185 -12.3691 -12.6966 -13.2708 -15.3605 -17.9476 -16.6069 -20.4823 -19.0035 -19.3501 -20.0833 -15.4949 
-2.3335 -2.186 -5.675 -2.186 -3.383 -6.0525 0 -5.675 -5.251 0 -1.934 -2.3615 -3.613 -3.535 -1.4985 -5.675 -1.934 -1.4985 -3.898 0 
-3.7085 -8.135 -7.7935 -4.438 -11.1599 -6.0525 -5.675 -11.559 -5.251 -1.934 -3.539 -7.106501 -7.346001 -6.0655 -8.073 -8.1565 -2.6125 -5.0465 -3.898 
-10.298 -10.322 -9.613501 -12.7521 -11.1599 -12.8123 -11.559 -11.559 -6.669001 -3.539 -9.1885 -10.368 -11.2171 -13.1174 -10.66 -9.078 -6.362 -5.0465 
-12.485 -12.3244 -18.1824 -12.7521 -17.9197 -18.6963 -11.559 -12.977 -8.17 -9.1885 -12.3806 -15.6145 -18.269 -15.7044 -11.5815 -12.9165 -6.362 
-14.4874 -20.8933 -18.1824 -19.5119 -23.8037 -18.6963 -12.977 -14.478 -14.3251 -12.3806 -17.6271 -22.6664 -20.856 -16.6259 -15.42 -12.9165 
