-4.759 
n/a 
n/a 
n/a 
n/a 
-4.759 
n/a 
n/a 
n/a 
n/a 
-4.759 
n/a 
n/a 
n/a 
n/a 
-4.759 
n/a 
n/a 
n/a 
n/a 
-19.10672 -9.7335 -8.207001 -4.247 -10.8905 -12.16972 
-29.69282 -17.9893 -12.9962 -15.4271 -23.06022 
-37.94862 -22.7785 -24.1763 -27.59682 
-42.73782 -33.9586 -36.34602 
-53.91792 -46.12832 
-19.68422 -9.7335 -8.207001 -4.247 -10.8905 -12.16972 
-29.80872 -17.9893 -12.9962 -15.4271 -23.06022 
-38.06452 -22.7785 -24.1763 -27.59682 
-42.85372 -33.9586 -36.34602 
-54.03382 -46.12832 
-18.4285 -9.7335 -8.207001 -4.247 -10.8905 -12.16972 
-29.5726 -17.9893 -12.9962 -15.4271 -23.06022 
-37.8284 -22.7785 -24.1763 -27.59682 
-42.6176 -33.9586 -36.34602 
-53.7977 -46.12832 
-19.68422 -7.8075 -8.207001 -4.247 -12.16972 -12.16972 
-27.88272 -16.4535 -12.9962 -16.70632 -24.33944 
-36.52872 -21.2427 -25.45552 -28.87604 
-41.31792 -33.70202 -37.62524 
-53.77724 -45.87174 
