-4.759 
n/a 
n/a 
n/a 
n/a 
-4.759 
n/a 
n/a 
n/a 
n/a 
-4.759 
n/a 
n/a 
n/a 
n/a 
-4.759 
n/a 
n/a 
n/a 
n/a 
-2.5045 -2.3335 -2.95 -3.3715 -3.1385 -2.5195 -4.6845 -1.756 -4.4385 -4.663 -6.3215 -1.756 -4.196 -3.8355 0 -2.925 -4.3195 -1.934 -3.301 -3.275 -2.356 -8.194 -5.2875 0 
-4.744 -4.8245 -6.328 -4.712501 -5.074 -6.396 -6.1045 -6.509501 -9.105501 -9.8545 -8.1995 -5.8785 -7.8005 -3.8355 -2.925 -6.0105 -6.9585 -5.044 -6.9235 -5.832 -10.6345 -9.5605 -5.2875 
-5.158 -7.423 -7.4725 -6.818 -8.824 -7.707 -8.1555 -10.485 -14.7292 -10.625 -10.7025 -9.1815 -7.8005 -7.052501 -6.0105 -8.478001 -10.001 -8.304001 -7.2435 -14.7379 -12.001 -9.5605 
-7.7955 -8.576 -9.6715 -10.5635 -10.2335 -9.8065 -12.3372 -16.1087 -15.4997 -13.128 -14.0055 -9.1815 -11.6251 -9.854501 -8.478001 -11.6507 -13.8026 -8.656 -16.5234 -16.1044 -12.001 
-8.813001 -10.4585 -13.498 -11.973 -12.333 -14.096 -17.9609 -16.8792 -18.0027 -16.431 -14.0055 -13.2287 -14.4271 -12.322 -11.6507 -15.4523 -14.1546 -17.9469 -17.8899 -16.1044 
-2.925 -3.074 -3.251 -3.0435 -2.356 -5.731 -1.756 -7.457 0 
-4.9325 -5.3525 -7.265 -5.1645 -8.316501 -6.649001 -9.570001 -7.457 
-6.616 -9.1505 -8.609001 -11.8588 -9.012 -15.3554 -9.570001 
-10.586 -10.7505 -15.6595 -12.5543 -17.6332 -15.3554 
-12.186 -17.801 -16.355 -21.1755 -17.6332 
-2.925 -2.674 -3.8355 -2.356 -5.731 -1.756 -5.3875 
-4.1785 -7.597 -5.7615 -8.316501 -6.649001 -6.881001 
-9.1055 -9.2985 -12.6004 -9.012 -7.145 
-10.9188 -16.1974 -13.2959 -9.954 
-17.8177 -16.8929 -14.2379 
-2.925 -3.013 -3.0435 -2.356 -5.731 -1.756 -5.3875 
-4.609 -5.4445 -5.1645 -8.316501 -6.649001 -6.881001 
-6.911 -5.834001 -11.8588 -9.012 -7.145 
-7.6125 -12.9557 -12.5543 -9.954 
-15.1284 -13.6512 -13.4963 
