-4.759 
n/a 
n/a 
n/a 
n/a 
-4.759 
n/a 
n/a 
n/a 
n/a 
-4.759 
n/a 
n/a 
n/a 
n/a 
-4.759 
n/a 
n/a 
n/a 
n/a 
-6.557 -2.186 -4.4695 -2.0935 -2.4265 -2.229 -5.585 -5.7485 -1.4985 -6.9985 -4.791 -9.383501 -6.066 -1.756 -6.3045 -3.1715 -4.1215 -1.7695 -3.1495 -12.449 -3.8405 -2.229 -7.299 -7.3 -7.757 0 -7.680501 -3.8405 -2.229 -7.613 -5.459 -1.756 -5.585 -2.674 -3.1125 -4.3215 -2.5045 -3.188 -4.441 -4.761 0 
-8.833 -6.053 -5.6265 -4.488 -3.3415 -7.8065 -9.546 -6.2745 -7.8605 -9.933001 -13.0495 -17.2109 -7.164001 -7.6725 -10.9315 -7.3585 -6.4945 -4.7475 -12.793 -12.29 -6.5065 -10.0415 -15.3568 -11.117 -7.757 -7.680501 -9.217001 -6.5065 -11.117 -13.7852 -6.538 -6.84 -7.9325 -3.6315 -5.268001 -5.2675 -6.2815 -5.6375 -8.790501 -4.761 
-10.674 -6.184 -7.3895 -5.949 -9.584001 -12.0127 -10.69 -13.0055 -10.5035 -17.7665 -20.9619 -18.3089 -13.5099 -12.3401 -15.1185 -7.712 -9.0915 -14.6282 -14.7822 -15.2866 -15.0166 -18.1893 -19.1738 -11.117 -15.7909 -9.217001 -11.9972 -16.0921 -17.2892 -14.8642 -9.8065 -9.039001 -8.384501 -5.7945 -6.093 -9.304501 -7.694 -11.3352 -8.790501 
-10.741 -7.7865 -7.5215 -10.3545 -13.8814 -13.1567 -17.421 -15.6485 -18.1715 -24.6959 -22.0599 -24.6548 -18.1775 -16.5271 -15.472 -11.2494 -19.0192 -16.2934 -17.7788 -23.7967 -23.1644 -22.0063 -19.1738 -19.1509 -17.3274 -11.9972 -21.5828 -22.2643 -18.3682 -18.1327 -12.0055 -9.363501 -10.329 -6.4765 -10.3475 -10.6475 -13.8861 -11.3352 
-12.3435 -7.886 -10.749 -14.6519 -15.0254 -19.8877 -20.064 -23.3165 -25.1009 -25.7939 -28.4058 -29.3224 -22.3645 -16.8806 -19.0094 -21.1771 -20.6872 -19.29 -26.2889 -31.9445 -26.9814 -22.0063 -27.2077 -20.6874 -20.1076 -21.5828 -27.755 -23.3433 -21.6367 -20.3317 -12.33 -11.3244 -11.2114 -10.418 -11.6905 -16.8396 -13.8861 
-6.557 -2.186 -3.7875 -7.539001 -10.2105 -7.2185 -4.7265 -3.301 -1.756 -5.585 -2.4945 -3.383 -3.301 -1.756 -5.0775 -3.3235 -8.413 0 
-8.833 -5.4905 -12.6681 -18.7551 -17.6442 -12.5124 -8.887 -4.994 -6.84 -7.321 -4.732 -4.6415 -4.994 -6.712 -8.724501 -10.932 -8.413 
-12.2353 -14.9833 -23.8842 -26.1888 -22.9381 -16.6729 -10.8126 -11.154 -8.394 -9.407001 -6.205 -6.1305 -11.026 -10.575 -16.578 -10.932 
-21.7281 -26.1994 -31.3179 -31.4827 -27.0986 -18.5985 -16.9726 -12.708 -10.5975 -10.9558 -7.2115 -12.6655 -14.889 -18.4285 -16.578 
-32.9442 -33.6331 -36.6118 -35.6432 -29.0242 -24.7585 -18.5266 -14.9115 -12.1463 -11.9623 -13.9755 -16.5285 -22.7425 -18.4285 
-5.1845 -5.74 0 -7.539001 -3.9195 -2.4945 -3.699 -4.677 -3.098 -3.7555 -2.3615 -4.677 -2.8645 -3.135 -3.299 -5.0775 -2.9705 -4.174 -1.8085 -3.845 -1.7565 -10.9855 -3.852 -7.299 -3.6135 -4.677 -1.756 -10.201 -3.852 -7.613 -5.586 -5.585 -1.756 -3.188 -2.229 -3.699 -4.4525 0 
-5.7465 -5.74 -7.539001 -12.4641 -6.755 -5.304 -8.371 -8.317 -7.5925 -5.523 -6.895 -7.293 -5.203 -6.165501 -7.895 -7.469 -5.579 -5.27 -3.9645 -4.13 -13.8431 -16.3736 -12.3114 -10.0925 -8.408501 -6.0955 -12.9656 -14.053 -12.6254 -13.9122 -12.2968 -6.4485 -5.351 -4.279 -5.301 -7.6175 -4.4525 
-5.7465 -10.254 -12.4641 -15.2996 -9.1645 -10.6226 -12.4748 -13.0043 -10.0715 -10.757 -8.509501 -9.448 -8.253 -11.4799 -9.9125 -10.435 -6.607501 -7.184501 -4.156 -16.917 -18.43 -24.833 -15.1049 -10.0985 -9.706 -18.0351 -16.8176 -22.8264 -18.9246 -20.623 -13.1603 -9.8105 -7.373 -8.554001 -10.2673 -7.6175 
-10.292 -15.3693 -15.2996 -17.7091 -14.5229 -14.7264 -17.1621 -15.4833 -15.4367 -12.3715 -10.2695 -12.5484 -13.67 -13.4974 -12.8929 -11.4635 -8.250001 -7.2545 -17.3659 -21.4319 -26.8894 -27.6265 -15.1109 -11.396 -21.68 -21.8871 -25.591 -29.1256 -25.6354 -21.4865 -16.5223 -12.5217 -12.0258 -13.7919 -10.2673 
-15.5071 -18.2048 -17.7091 -23.0675 -18.6267 -19.4137 -19.6411 -20.8485 -17.0512 -14.1315 -13.3699 -17.9654 -15.6875 -16.4778 -13.9214 -13.106 -8.279501 -21.01 -21.4752 -29.8913 -29.6829 -27.6325 -16.4084 -23.37 -25.532 -30.6605 -31.8902 -35.8364 -26.4989 -24.8485 -19.2335 -17.1745 -17.2637 -13.7919 
-6.557 -2.186 -4.4695 -2.0935 -3.1435 -5.585 -2.9705 -4.91 -4.791 -3.4265 -2.3615 -5.585 -4.3185 -5.099 -6.3045 -1.756 -5.0775 -2.9705 -4.5955 -4.1215 -1.7695 -3.277 -9.315001 -7.830501 -7.757 -2.5045 -1.4985 -4.58 -1.7565 -7.4885 -1.756 -7.613 -5.521 -1.7565 -1.4985 -4.58 -1.7565 -9.758 -2.186 -4.1205 -1.7695 -2.489 -4.8165 -2.5045 -4.77 -4.761 
-8.833 -6.053 -5.6265 -4.568 -7.984 -7.8265 -6.351 -9.795501 -6.157001 -6.101 -9.5935 -9.4855 -9.509001 -12.5203 -7.1115 -6.712 -7.469 -6.3275 -7.796 -6.4945 -4.619 -13.626 -10.802 -10.016 -9.8055 -3.1915 -5.727 -5.440001 -9.320001 -8.7505 -9.679001 -13.8472 -6.622001 -2.4195 -5.727 -5.440001 -10.7335 -12.0518 -5.007 -5.1155 -3.1405 -5.949 -6.2845 -7.63 -9.271001 
-10.674 -6.184 -6.1935 -8.699 -10.1895 -11.5028 -11.4865 -11.1615 -8.495001 -13.6508 -13.612 -14.8242 -17.0137 -13.3273 -13.0061 -8.956 -11.1172 -9.5865 -8.113501 -8.791 -15.1542 -15.113 -12.9875 -12.0645 -10.4925 -8.247 -5.969 -13.6681 -10.2495 -17.0597 -15.9494 -14.9482 -7.3385 -6.446501 -5.969 -15.0816 -13.0273 -14.8728 -5.68 -5.2255 -6.754 -7.0245 -11.7014 -12.3742 
-10.741 -6.585 -9.009501 -10.7185 -13.9228 -16.6383 -12.8525 -13.4995 -16.3424 -17.6693 -18.9507 -22.3289 -17.8207 -19.2219 -15.2501 -12.7178 -14.3762 -9.8605 -11.2602 -19.509 -16.6412 -17.2985 -15.036 -12.7515 -15.548 -8.639501 -14.3685 -14.5976 -18.5587 -23.3301 -17.0504 -15.6647 -11.9109 -7.443501 -15.782 -17.3754 -15.8483 -15.5458 -5.763 -9.8155 -7.9315 -12.8082 -16.4456 
-11.142 -9.311 -11.12 -14.4518 -19.0583 -18.0043 -15.1905 -21.3469 -20.3609 -23.008 -26.4554 -23.1359 -23.7153 -21.4659 -19.0119 -15.9768 -14.6502 -13.1998 -21.9782 -20.996 -18.8267 -19.347 -15.723 -17.807 -15.9405 -17.2652 -15.298 -22.9068 -24.8291 -24.4311 -17.7669 -20.2371 -12.9079 -17.4501 -18.0758 -20.1964 -16.5213 -15.6288 -10.2535 -10.7355 -13.7978 -17.5524 
