-4.759 
n/a 
n/a 
n/a 
n/a 
-4.759 
n/a 
n/a 
n/a 
n/a 
-4.759 
n/a 
n/a 
n/a 
n/a 
-4.759 
n/a 
n/a 
n/a 
n/a 
-3.5895 -2.186 -5.089 -4.414 -1.7565 -12.16972 -3.5185 -1.4985 -6.557 -3.6785 -2.3335 -5.154 0 
-5.357 -6.54 -8.961 -5.851 -14.87542 -15.68822 -4.9765 -8.1955 -10.9249 -4.529 -8.0655 -5.154 
-10.479 -11.278 -10.2285 -19.62792 -18.39392 -17.14622 -12.1999 -13.074 -11.7754 -10.427 -8.0655 
-15.217 -12.5455 -24.00542 -23.14642 -19.85192 -24.36962 -17.0784 -13.9245 -17.6734 -10.427 
-16.4845 -26.32242 -27.52392 -24.60442 -27.07532 -29.24812 -17.9289 -19.8225 -17.6734 
-3.043 -3.3715 -7.6445 -4.7645 -2.3615 -3.188 0 -2.5685 -2.4945 -4.9095 -2.3345 -5.1845 0 -7.0785 -5.355 -1.4985 -5.154 0 -2.872 -6.557 -4.6095 -1.4985 -5.154 -1.7695 -4.23 -1.934 -3.3435 
-4.5235 -9.8675 -12.9924 -7.495 -5.2525 -3.188 -2.5685 -5.3665 -6.564 -7.039001 -7.449 -5.1845 -7.0785 -11.117 -6.5405 -5.884001 -5.154 -2.872 -10.784 -11.8559 -5.620501 -5.884001 -7.176001 -5.8215 -6.0855 -5.009501 
-11.2739 -15.5674 -15.7229 -10.536 -5.2525 -6.0135 -5.3665 -9.8265 -8.6855 -12.8713 -7.449 -13.5574 -11.117 -12.3025 -9.752 -5.884001 -7.418 -10.784 -16.0829 -12.8669 -10.7026 -7.837001 -11.6792 -8.3885 -9.602 
-16.9738 -18.2979 -18.7639 -10.536 -7.845 -8.4575 -9.8265 -12.1264 -14.5434 -12.8713 -16.3289 -17.5959 -12.3025 -15.514 -9.752 -8.3795 -15.6416 -16.0829 -17.0939 -17.949 -12.6556 -12.455 -14.2462 -12.025 
-19.7043 -21.3389 -18.7639 -13.1285 -9.9125 -13.0481 -12.1264 -17.9843 -14.5434 -21.7512 -20.3674 -18.7814 -15.514 -15.514 -12.3241 -16.7293 -20.9405 -17.0939 -22.176 -19.902 -17.2736 -15.022 -17.8827 
-1.4985 -5.154 -3.644 -2.9325 -3.874 -1.4985 -4.6555 -1.756 -5.271 -1.4985 -3.995 -2.186 -3.7875 -2.5685 -1.934 -5.1845 -5.74 0 -2.872 -1.4985 -5.154 -2.186 -1.934 -10.014 
-5.884001 -7.79 -6.008 -5.8685 -5.8205 -5.724501 -5.774 -6.007 -6.834001 -4.712 -5.7465 -5.4905 -6.1735 -4.606 -6.564 -5.7465 -5.74 -2.872 -4.035 -5.884001 -7.061501 -4.0835 -10.419 
-8.105501 -9.948 -8.757501 -7.163 -9.901 -7.005001 -7.4065 -7.4405 -9.874001 -6.1195 -9.229 -8.0175 -9.1075 -9.357 -6.819 -5.7465 -8.799001 -4.035 -8.231001 -7.508501 -8.934 -13.1951 
-10.163 -12.6975 -10.0505 -11.7027 -10.2575 -8.637001 -8.729501 -10.5225 -11.4445 -9.620501 -11.8388 -11.1855 -13.9079 -10.329 -6.819 -8.818501 -9.739 -8.231001 -9.379001 -9.173501 -18.158 
-12.9125 -13.9905 -14.5902 -12.0592 -12.7085 -10.633 -11.9987 -12.093 -14.9455 -12.3107 -15.0068 -15.9859 -14.8799 -10.329 -9.1745 -9.774 -13.935 -9.379001 -11.1208 -18.4285 
-3.043 -3.4915 -4.6555 -2.186 -3.0365 -1.934 -1.4985 -3.873 -1.7565 -5.1845 0 -1.4985 -5.154 -3.0695 -5.392 -2.3615 -4.0905 -2.7415 -3.43 -3.511 -1.934 -4.4625 
-4.4045 -7.422501 -6.441 -4.5415 -5.238 -2.6125 -4.7405 -5.197001 -6.580501 -5.1845 -1.4985 -5.884001 -6.852 -8.010501 -7.8405 -5.191 -6.120501 -4.913 -7.558001 -4.582 -5.848001 
-8.192 -8.852501 -8.994 -6.658501 -5.721 -5.722 -5.489 -9.978001 -6.580501 -7.95 -5.884001 -7.6365 -10.4265 -9.332001 -8.391001 -6.849 -8.041 -8.848001 -8.846001 -6.8145 
-9.175501 -11.6593 -10.5535 -7.210001 -8.314 -6.022 -10.3475 -9.978001 -9.529 -12.5835 -7.6365 -10.5745 -12.0016 -9.623001 -10.3066 -8.551001 -12.3878 -9.557501 -11.3099 
-12.1037 -13.2188 -11.105 -10.347 -8.420001 -11.1921 -10.3475 -12.7897 -14.1947 -14.336 -10.5745 -12.1496 -12.2926 -11.56 -12.0086 -12.915 -13.0973 -12.1878 
