-4.759 
n/a 
n/a 
n/a 
n/a 
-4.759 
n/a 
n/a 
n/a 
n/a 
-4.759 
n/a 
n/a 
n/a 
n/a 
-4.759 
n/a 
n/a 
n/a 
n/a 
-4.426 -1.7565 -1.4985 -3.0835 -4.7285 -4.1555 -3.147 -16.8465 -3.6835 -3.5015 -2.186 -1.4985 0 -3.9785 -2.7295 -3.7075 0 0 
-5.47 -2.4195 -3.535 -6.042 -8.4455 -5.77 -22.2723 -22.7026 -8.2115 -5.481 -3.339 -1.4985 -3.9785 -7.4515 -8.540501 -3.7075 0 
-5.9535 -4.6785 -6.335501 -9.523001 -9.541501 -25.0363 -26.8268 -27.7824 -10.1945 -6.757 -3.339 -4.496 -7.4515 -13.5067 -8.540501 -3.7075 
-8.021 -7.476501 -10.0095 -10.7035 -28.8078 -29.5908 -31.7776 -29.7654 -11.4705 -6.757 -6.831 -7.521501 -13.5067 -13.5067 -8.540501 
-9.983001 -11.3061 -11.3 -29.9698 -33.3623 -34.5416 -33.7606 -31.0414 -11.4705 -9.925 -10.586 -13.6587 -13.5067 -13.5067 
-4.712 -5.02 -3.5015 -4.285 -3.972 -3.307 -3.7075 -8.316 
-10.8806 -9.0755 -8.797001 -9.894501 -8.081 -6.03 -13.2787 
-14.9361 -14.8038 -15.0709 -14.0035 -11.4244 -17.6038 
-20.6644 -21.0777 -19.1799 -17.3469 -22.9982 
-26.9383 -25.1867 -22.5233 -28.9207 
-14.7915 -3.0365 -2.4945 -3.849 -3.972 -2.4945 -3.0365 -1.7695 -3.511 0 -1.934 -1.4985 -3.307 -1.7565 -2.8705 -4.365 -3.2 0 
-19.1177 -3.688 -5.189 -7.849 -6.0975 -4.952001 -5.136001 -4.633 -3.511 -1.934 -2.6125 -4.581 -4.8035 -3.8505 -6.2425 -5.4195 -3.2 
-20.3892 -5.231 -9.579 -9.4205 -8.429501 -6.238 -7.920501 -4.633 -4.582 -2.6125 -5.476501 -5.081501 -6.947001 -6.9245 -6.326 -5.4195 
-22.0347 -9.618 -11.2667 -11.8045 -9.7685 -9.856501 -7.920501 -5.375 -5.3785 -5.476501 -5.7025 -7.017001 -8.472 -6.979001 -6.326 
-26.4797 -11.3133 -13.6507 -13.1435 -13.4324 -9.856501 -8.988501 -6.1305 -8.371 -5.7025 -7.9285 -8.497001 -8.474501 -6.979001 
-2.5045 -4.088 -3.3155 -3.3435 -5.960001 -3.849 -4.1785 -3.972 -1.934 -1.4985 -5.3795 -2.8705 -4.365 -3.2 
-6.624001 -5.6105 -6.6945 -9.801001 -10.0715 -7.456 -9.476 -5.598 -2.6125 -5.454 -8.661 -6.2425 -5.4195 
-7.561 -8.696001 -14.316 -14.6773 -13.9469 -13.4509 -11.2696 -6.1695 -5.4755 -9.88 -12.1344 -6.326 
-10.7081 -16.5471 -19.1923 -18.5527 -19.9418 -15.2445 -11.8411 -9.5555 -9.896001 -13.3534 -12.2179 
-18.5592 -21.4234 -23.0677 -24.5476 -21.7354 -15.816 -15.2271 -14.2366 -13.3694 -13.4369 
