-4.759 
n/a 
n/a 
n/a 
n/a 
-4.759 
n/a 
n/a 
n/a 
n/a 
-4.759 
n/a 
n/a 
n/a 
n/a 
-4.759 
n/a 
n/a 
n/a 
n/a 
-6.2015 -1.7565 -4.4805 -4.58 0 -3.557 -3.3715 -4.6845 -5.0475 -1.934 -7.400001 -4.9255 0 
-6.685501 -5.1305 -9.380001 -4.58 -3.557 -6.5635 -9.423 -9.7675 -6.5665 -8.882001 -13.0253 -4.9255 
-10.8881 -10.282 -9.380001 -8.6595 -6.5635 -12.8664 -14.6148 -11.4605 -14.1867 -14.8003 -13.0253 
-16.0396 -10.282 -13.6261 -11.8356 -12.8664 -18.0582 -16.3078 -19.0807 -20.105 -14.8003 
-16.0396 -14.5281 -16.8022 -18.1385 -18.0582 -19.7512 -23.928 -24.999 -20.105 
-3.3715 -12.16972 -3.8405 -4.6285 -5.0475 -3.152 -3.557 -3.9615 -1.4985 -4.3215 -1.7565 -3.9075 -7.235 
-16.83122 -16.01022 -8.212 -7.2895 -7.094 -5.1785 -6.427 -4.716 -5.394 -5.7605 -6.106 -8.659 
-20.67172 -20.38172 -11.4272 -9.193 -8.5675 -7.752501 -7.019 -7.784 -5.962501 -7.937 -9.541 
-25.04322 -23.59692 -13.3307 -9.716 -10.2755 -8.093 -9.846001 -7.853 -8.029501 -9.9175 
-28.25842 -25.50042 -13.8537 -11.5128 -10.759 -10.9642 -9.9285 -10.1385 -9.922501 
-4.6845 -2.229 -5.0475 -5.2115 -1.7695 -1.4985 -4.193 -1.7565 -1.4985 -4.0955 -4.58 -3.152 -3.557 -1.934 -1.4985 -5.2415 -1.7565 -7.400001 0 
-6.48 -7.0465 -9.003 -5.282 -2.7955 -4.594501 -4.7225 -2.4195 -5.2675 -7.107 -7.349501 -5.1785 -4.4175 -2.6125 -6.0315 -5.9665 -8.6545 -7.400001 
-11.9243 -11.4456 -9.0055 -5.753 -5.9155 -4.7895 -5.081 -5.921 -7.245 -9.433001 -9.570001 -5.9905 -4.9675 -8.468 -6.1 -13.8011 -8.6545 
-16.3234 -11.4481 -9.5165 -9.639501 -6.0295 -5.1135 -7.976001 -7.53 -9.5345 -11.6925 -10.14 -6.4825 -10.3675 -8.776 -14.0446 -13.8011 
-16.3259 -11.9591 -13.4582 -9.842 -6.2675 -8.0015 -8.1335 -9.704 -11.8056 -12.2625 -10.5025 -12.0819 -10.609 -16.7386 -14.0446 
-9.7545 -3.557 -4.5735 -4.511 0 -4.6285 -5.0475 
-13.4347 -8.411 -6.166 -4.511 -4.6285 -7.2895 
-18.2887 -10.4675 -6.166 -6.879 -7.2895 
-20.3452 -10.4675 -7.9375 -9.3015 
-20.3452 -12.239 -9.465501 
