-4.759 
n/a 
n/a 
n/a 
n/a 
-4.759 
n/a 
n/a 
n/a 
n/a 
-4.759 
n/a 
n/a 
n/a 
n/a 
-4.759 
n/a 
n/a 
n/a 
n/a 
-2.8705 -3.7075 -10.657 -8.984 -4.919 -2.5045 -9.1075 -2.5045 -2.8705 -4.9845 
-6.6715 -12.343 -18.3584 -14.3062 -7.153 -8.297501 -8.529 -4.83 -6.7085 
-16.1654 -23.0038 -23.9984 -16.5402 -13.3873 -10.56 -10.5765 -9.183001 
-26.6466 -28.326 -26.2324 -22.7745 -17.0031 -14.1852 -15.4453 
-31.9688 -30.56 -32.4667 -26.3903 -19.4175 -18.9126 
-1.4985 -3.7075 -2.186 -2.5045 -1.4985 -3.307 -1.7565 -2.8705 -3.628 -4.365 -3.2 
-4.6235 -5.825 -4.660501 -3.1915 -4.581 -4.8035 -3.8505 -5.99 -8.279501 -5.4195 
-5.975501 -7.665 -5.318501 -5.5535 -5.081501 -6.947001 -7.0985 -9.538 -9.128 
-7.705501 -8.397 -6.72 -5.835001 -7.017001 -9.8545 -10.3345 -9.617001 
-8.446501 -8.9805 -6.766 -7.442 -9.884001 -13.1885 -10.414 
-1.4985 -3.7075 -2.186 -4.06 -3.5445 -1.4985 -4.622 -5.0075 -1.7565 -1.4985 -5.3675 -4.455 -1.7565 -2.8705 -5.732 -3.3755 -4.9845 0 
-4.6235 -5.825 -4.672 -5.586 -4.002 -5.221 -7.7045 -6.334 -2.4195 -6.5115 -8.1035 -5.7535 -3.8505 -7.2705 -5.8985 -6.862 -4.9845 
-5.975501 -8.506001 -6.2575 -5.955501 -7.307 -8.019501 -8.341001 -6.5595 -7.324501 -8.507 -9.019 -8.107 -7.725 -7.2735 -6.864 -6.862 
-8.714001 -10.396 -6.612 -8.757501 -9.818001 -8.4315 -8.496 -10.1675 -9.269501 -9.150001 -10.209 -9.671 -7.727001 -7.4645 -6.864 
-10.513 -10.7615 -9.2305 -10.218 -10.344 -8.545 -10.194 -10.206 -9.9285 -10.2925 -12.2456 -9.673 -7.842501 -7.4645 
-3.7075 -2.186 -3.8825 -1.934 -1.4985 -5.3675 -4.4695 -1.7565 -4.622 -4.1455 -1.7565 -3.757 -3.2 -1.7565 -5.732 -3.3755 
-5.825 -5.3085 -4.9695 -2.6125 -6.5115 -9.8225 -5.5145 -6.23 -6.457 -5.11 -5.9375 -6.7155 -4.722 -7.532501 -5.8985 
-9.228001 -5.859 -5.375 -7.565001 -11.7123 -11.0519 -9.379001 -8.8485 -6.7215 -9.8605 -9.2515 -8.5535 -11.2056 -7.821501 
-9.713 -6.2535 -10.66 -13.3352 -12.9417 -14.9164 -12.4447 -9.509001 -12.1276 -13.1745 -11.1713 -15.2961 -11.4946 
-10.025 -11.7445 -16.4302 -14.5646 -16.8062 -17.9821 -13.1052 -14.5271 -15.4416 -15.0943 -17.9139 -15.5851 
