-4.759 
n/a 
n/a 
n/a 
n/a 
-4.759 
n/a 
n/a 
n/a 
n/a 
-4.759 
n/a 
n/a 
n/a 
n/a 
-4.759 
n/a 
n/a 
n/a 
n/a 
-3.482 -3.4635 -1.7695 -1.4985 -3.5125 -1.7565 -3.4155 -4.2245 -8.445001 -2.186 -5.417 -2.0935 -3.1385 -2.9635 0 
-6.707 -4.2045 -2.7955 -4.7015 -4.312 -5.0175 -6.626 -13.5253 -11.3628 -7.012 -7.43 -4.6835 -6.2745 -2.9635 
-7.6885 -4.7965 -6.185 -4.846 -7.5845 -8.8395 -16.4522 -16.4431 -16.1888 -8.6385 -10.739 -8.872001 -6.2745 
-8.440001 -7.534501 -6.371 -8.1025 -11.8823 -19.0097 -19.37 -21.2691 -17.8153 -12.0905 -14.9275 -8.872001 
-10.233 -7.652501 -9.403001 -12.6705 -22.0525 -21.9275 -24.196 -22.8956 -21.2673 -16.279 -14.9275 
-3.4155 -4.2245 -7.5605 -3.3435 -3.5125 -3.4635 -3.482 -2.4945 -5.417 -1.7695 -3.047 -1.4985 -3.237 0 
-6.626 -10.543 -11.74 -6.0675 -5.6765 -6.265 -5.764 -7.073 -7.3925 -3.768 -4.095 -4.1875 -3.237 
-13.4699 -14.7225 -14.464 -9.543 -9.4055 -9.348001 -9.7475 -8.757001 -10.533 -4.6855 -7.5015 -4.1875 
-17.6494 -17.4465 -17.9395 -13.7408 -13.1927 -13.6151 -11.4497 -12.0083 -11.4505 -8.097 -7.5015 
-20.3734 -20.922 -22.1373 -17.528 -17.4598 -15.3173 -14.701 -12.9258 -14.862 -8.097 
-3.4155 -4.2245 -7.5605 -3.3435 -3.5125 -3.4635 -3.482 -2.4945 -5.417 -1.7695 -3.047 -1.4985 -3.237 0 
-6.626 -10.543 -11.74 -6.0675 -5.6765 -6.265 -5.764 -7.073 -7.3925 -3.768 -4.095 -4.1875 -3.237 
-13.4699 -14.7225 -14.464 -9.543 -9.4055 -9.348001 -9.7475 -8.757001 -10.533 -4.6855 -7.5015 -4.1875 
-17.6494 -17.4465 -17.9395 -13.7408 -13.1927 -13.6151 -11.4497 -12.0083 -11.4505 -8.097 -7.5015 
-20.3734 -20.922 -22.1373 -17.528 -17.4598 -15.3173 -14.701 -12.9258 -14.862 -8.097 
-1.4985 -3.482 -3.4635 -1.7695 -1.4985 -3.3435 -1.7565 -8.445001 -2.4945 -9.492001 -2.0935 -3.237 -2.9635 -2.0935 -1.4985 -3.1385 
-5.319 -6.707 -4.2045 -2.7955 -4.6745 -4.7005 -10.2485 -11.6713 -13.4147 -11.8821 -4.7925 -6.3245 -5.971 -2.9725 -4.2575 
-8.968 -7.6885 -4.7965 -6.285 -5.03 -14.0313 -13.4662 -22.5915 -15.8048 -14.5811 -7.3625 -8.151 -6.7795 -5.5795 
-9.314 -8.440001 -7.898 -6.7225 -14.8712 -17.249 -24.3864 -24.9816 -18.5038 -17.1511 -9.745501 -8.771 -9.622001 
-9.4975 -11.7869 -8.351501 -16.8247 -18.0889 -28.1692 -26.7765 -27.6806 -21.0738 -19.5341 -10.6005 -12.2475 
