-4.759 
n/a 
n/a 
n/a 
n/a 
-4.759 
n/a 
n/a 
n/a 
n/a 
-4.759 
n/a 
n/a 
n/a 
n/a 
-4.759 
n/a 
n/a 
n/a 
n/a 
-3.849 -2.5045 -3.0835 -4.39 0 
-6.305 -5.9195 -5.74 -4.39 
-9.2735 -8.156 -5.74 
-11.726 -8.156 
-11.726 
-3.849 -2.5045 -3.0835 -4.39 0 
-6.305 -5.9195 -5.74 -4.39 
-9.2735 -8.156 -5.74 
-11.726 -8.156 
-11.726 
-4.1085 -4.2315 -1.7695 -2.489 -3.849 -1.4985 -3.0835 -4.39 0 0 
-9.224501 -5.3945 -3.1405 -5.125 -4.7705 -3.535 -5.74 -4.39 0 
-9.929 -6.2705 -5.768 -6.177 -7.06 -6.8075 -5.74 -4.39 
-10.156 -9.0895 -6.7695 -8.17 -9.809 -6.8075 -5.74 
-12.975 -10.703 -8.992001 -10.9958 -9.809 -6.8075 
-3.849 -3.0835 -4.39 
-6.9795 -5.74 
-9.3365 
n/a 
n/a 
