-4.759 
n/a 
n/a 
n/a 
n/a 
-4.759 
n/a 
n/a 
n/a 
n/a 
-4.759 
n/a 
n/a 
n/a 
n/a 
-4.759 
n/a 
n/a 
n/a 
n/a 
-4.4715 -2.5685 -3.959 -2.674 -2.985 -5.5005 -1.934 -3.7375 -4.057 0 -3.3715 -2.8965 -2.674 -5.545 -2.5685 -3.2295 -1.4985 -3.59 
-7.0795 -5.5195 -5.6485 -5.042 -8.053 -7.2475 -4.882 -4.5065 -4.057 -3.3715 -4.827001 -6.789001 -7.6145 -8.157001 -4.661 -3.844 -4.268 
-10.209 -7.430501 -7.8405 -10.3815 -9.172001 -9.061501 -5.6485 -4.5065 -8.317501 -4.827001 -8.512001 -10.733 -10.1465 -10.019 -4.894 -5.9335 
-12.3736 -8.969501 -13.7046 -11.5005 -10.443 -10.0855 -5.6485 -8.634501 -9.9615 -8.512001 -12.5822 -13.265 -12.0085 -10.3595 -5.984 
-13.9126 -14.6952 -14.8236 -12.7715 -11.467 -10.0855 -9.005 -10.0505 -14.0273 -12.5822 -15.1142 -15.127 -12.349 -11.4495 
-4.067 -2.5685 -1.4985 -3.959 -2.674 -2.985 -5.069 -1.934 -3.7375 -5.7405 0 -3.135 -3.959 -2.674 -5.8195 -2.5685 -3.6215 -1.4985 -3.59 
-5.208 -3.7015 -5.5 -5.6485 -5.042 -7.9515 -5.824 -4.882 -6.1625 -4.3865 -3.135 -5.8285 -5.6485 -8.734 -8.614 -5.2175 -4.094 -4.268 
-6.091001 -6.597 -7.5825 -7.8405 -10.264 -8.5445 -7.0165 -5.553 -4.7175 -8.209001 -5.8285 -6.998 -9.4525 -10.5975 -9.814501 -5.7575 -5.506001 
-8.2005 -8.521 -9.630501 -13.5871 -10.669 -9.457001 -7.626501 -5.5505 -8.362 -11.4518 -6.998 -10.9884 -11.6574 -12.7044 -9.862 -7.057 
-9.804501 -10.259 -15.3593 -13.9921 -11.5815 -10.109 -7.626501 -8.661 -11.6828 -12.3893 -10.9884 -13.1933 -13.7643 -12.7519 -11.8089 
-4.3625 -1.7565 -2.5685 -3.959 -1.756 -3.7375 -4.057 -1.934 -3.3715 -3.959 -2.674 -2.5685 -4.3725 0 
-7.565001 -3.938 -5.5195 -5.173 -5.649 -4.5065 -6.357 -4.622 -5.699 -5.6485 -5.011 -6.689 -4.3725 
-9.441501 -6.854001 -6.9055 -9.7755 -6.657 -6.909 -9.525001 -6 -6.929 -8.417 -10.1185 -6.689 
-12.5283 -7.9585 -12.0028 -10.7689 -8.321 -10.107 -11.1724 -7.975501 -10.4035 -13.4559 -10.1185 
-13.6328 -13.3682 -12.9962 -12.4329 -11.6628 -11.683 -13.1479 -11.661 -15.4424 -13.4559 
-2.5685 -3.59 -4.201 -3.7375 -5.503 -1.934 -3.3715 -3.59 -2.229 -3.59 -3.915 0 
-6.714 -7.889 -8.966001 -9.779 -7.34 -4.622 -7.493 -4.966 -5.868 -7.7575 -3.915 
-11.68 -13.3118 -15.155 -12.315 -10.3185 -8.537001 -8.972 -9.078501 -9.885 -7.7575 
-17.1028 -19.5008 -17.7515 -15.571 -15.0803 -9.666 -13.2323 -13.4181 -9.885 
-23.2918 -22.0973 -21.0075 -19.9338 -16.2093 -13.9677 -17.5719 -13.4181 
