-4.759 
n/a 
n/a 
n/a 
n/a 
-4.759 
n/a 
n/a 
n/a 
n/a 
-4.759 
n/a 
n/a 
n/a 
n/a 
-4.759 
n/a 
n/a 
n/a 
n/a 
-3.9345 -1.7695 -3.5905 -4.46 0 -3.769 0 -1.7565 -1.4985 -4.02 -4.8435 -3.6085 -2.5045 -2.8195 0 
-3.94 -6.087 -6.462 -4.46 -3.769 -3.769 -1.7565 -2.4195 -4.914001 -8.636 -6.993 -6.1735 -4.4345 -2.8195 
-8.202001 -8.4805 -6.462 -8.911 -3.769 -5.3885 -2.4195 -5.2775 -8.910001 -9.5835 -8.6035 -6.955501 -4.4345 
-8.639 -8.4805 -9.938001 -8.911 -5.3885 -5.8435 -5.2775 -8.948001 -9.89 -11.4686 -8.849 -6.955501 
-8.639 -12.2587 -9.938001 -9.794001 -5.8435 -7.365 -8.948001 -9.920501 -11.8737 -11.7141 -8.849 
-2.5045 -3.543 -3.5905 -4.46 0 -3.769 -3.868 -3.1385 -4.3845 -3.6085 -1.934 -2.985 -2.8195 0 
-5.323 -8.324 -6.462 -4.46 -3.769 -5.601501 -7.717 -6.563001 -5.8455 -5.8955 -4.111 -5.347 -2.8195 
-8.508 -8.561001 -6.462 -8.911 -5.601501 -9.262501 -11.5685 -7.905001 -7.622 -7.922 -6.0735 -5.347 
-8.571 -8.561001 -9.938001 -10.19 -9.262501 -13.32 -12.9105 -9.077001 -9.272 -9.1265 -6.0735 
-8.571 -12.234 -11.4156 -14.0254 -13.32 -14.662 -14.0825 -10.8432 -10.1905 -9.1265 
-6.318 -1.7565 -3.5905 -3.769 0 -1.7565 -4.9225 -4.4615 -3.6885 -2.186 -3.6085 -1.934 -2.8195 
-8.721001 -5.706501 -7.3255 -3.769 -1.7565 -6.4125 -8.665 -7.9715 -5.4995 -6.467501 -5.8955 -4.706 
-13.6572 -9.762 -7.3255 -5.3885 -6.4125 -9.785001 -12.4324 -9.425501 -7.113501 -8.3365 -9.611 
-17.7127 -9.762 -9.165501 -10.4945 -9.785001 -13.5634 -13.8864 -11.3525 -9.175501 -12.4344 
-17.7127 -10.6245 -14.2625 -13.867 -13.5634 -15.0174 -15.8134 -13.4145 -13.3726 
-1.934 -3.5905 -8.229 0 -1.7565 -4.9225 -4.4615 -3.6085 -1.934 -2.8195 
-5.055 -10.913 -8.911 -1.7565 -6.4125 -8.665 -6.753 -5.8955 -4.706 
-12.1405 -9.938001 -9.794001 -6.4125 -9.785001 -11.2139 -8.2345 -9.611 
-12.2971 -10.6645 -14.9582 -9.785001 -12.3449 -12.6954 -12.279 
-13.0236 -15.8287 -18.3307 -12.3449 -13.8264 -16.7399 
