-4.759 
n/a 
n/a 
n/a 
n/a 
-4.759 
n/a 
n/a 
n/a 
n/a 
-4.759 
n/a 
n/a 
n/a 
n/a 
-4.759 
n/a 
n/a 
n/a 
n/a 
-8.0625 -4.492 -3.091 -4.0695 -3.7015 -2.4265 -1.756 -3.985 -2.0935 -4.1585 
-13.2887 -6.381 -5.724 -7.295 -5.658 -4.303 -5.3985 -5.2525 -5.689 
-15.1777 -7.56 -8.4665 -8.8795 -6.8065 -7.503 -6.368 -9.142 
-16.3567 -9.011001 -9.6735 -9.961 -9.848001 -8.3655 -9.876 
-17.8077 -10.259 -10.7678 -13.0025 -10.074 -12.1807 
-8.0625 -10.6645 -1.756 -1.7695 -8.3605 
-19.4612 -12.4205 -3.963 -9.7355 
-21.2172 -14.6275 -12.6122 
-23.4242 -23.2767 
-32.0734 
-12.16972 -3.6515 -3.333 -1.7695 -2.3335 -2.871 -1.756 -2.4265 -2.742 -2.489 -4.1585 0 
-15.82122 -8.201 -4.022 -4.46 -4.7635 -4.864 -3.949 -4.095 -3.301 -7.561501 -4.1585 
-20.37072 -10.2085 -7.7235 -6.6825 -6.725 -6.4335 -5.276 -4.601 -8.353001 -7.561501 
-22.37822 -14.1226 -10.52 -8.16 -8.0385 -7.8505 -5.7665 -9.521 -8.353001 
-26.29232 -16.9191 -11.9975 -9.52 -9.4525 -8.448501 -10.9791 -9.521 
-10.157 -4.896 -1.756 -4.4175 -2.3335 -1.4985 -3.2895 -3.2645 -2.489 -3.672 -1.7695 -3.277 
-13.4159 -7.1095 -6.2155 -5.0185 -3.3515 -4.862 -6.692 -3.7195 -4.819 -4.7445 -4.619 
-15.9368 -10.586 -6.523 -5.6405 -6.6985 -8.557501 -6.93 -5.9485 -5.5865 -6.884501 
-19.4133 -10.7785 -7.18 -9.029 -9.67 -8.953 -9.2585 -6.7545 -7.967 
-19.6058 -11.4355 -10.494 -12.2779 -9.910001 -11.3897 -9.9385 -8.9645 
