-4.759 
n/a 
n/a 
n/a 
n/a 
-4.759 
n/a 
n/a 
n/a 
n/a 
-4.759 
n/a 
n/a 
n/a 
n/a 
-4.759 
n/a 
n/a 
n/a 
n/a 
-3.2615 -3.3635 -1.7695 -3.225 0 -3.16 -5.1465 -3.2955 -5.0325 -1.756 -4.02 -3.982 -3.991 
-7.3395 -5.689 -5.900001 -3.225 -3.16 -7.954 -9.651501 -8.5865 -6.8945 -5.5495 -6.212 -8.363 
-9.26 -7.075 -5.900001 -6.697001 -7.954 -12.9536 -15.3643 -10.2485 -9.887501 -7.4755 -10.688 
-10.7838 -7.075 -10.0995 -12.307 -12.9536 -18.6664 -17.0263 -13.4433 -9.9025 -12.2505 
-10.7838 -11.4007 -15.7095 -17.3066 -18.6664 -20.3284 -20.2211 -13.4583 -15.2885 
-5.0615 -5.341 -2.3335 -2.7415 -4.09 -1.934 -1.4985 -3.158 -3.3635 -2.4285 -3.225 -2.8645 -4.09 -1.756 -3.9595 -3.2295 -5.0325 -1.756 -4.02 -3.982 -4.6805 -3.895 -1.934 -1.4985 -3.158 -3.0105 -1.756 -2.8645 -3.7905 -1.4985 -3.17 -3.2955 -4.6805 -3.2 -3.88 0 
-8.585 -7.6045 -4.2725 -5.289001 -5.2875 -2.6125 -4.178 -5.647 -6.5695 -7.101501 -6.6685 -5.262 -5.2525 -5.8875 -5.7385 -8.821501 -6.8945 -5.5495 -6.212 -9.174001 -9.282 -5.2315 -2.6125 -4.178 -5.481501 -5.199 -4.3855 -4.816 -4.969 -3.7115 -6.1845 -8.286 -7.274 -6.7865 -3.88 
-11.9947 -9.3405 -6.7335 -6.215 -5.9205 -5.265 -6.6365 -8.3985 -7.5805 -10.4765 -9.197001 -6.6295 -8.874001 -7.588 -11.9697 -10.7575 -9.887501 -7.4755 -9.616 -13.9561 -10.7233 -5.9335 -5.265 -6.349501 -7.22 -7.047501 -6.4145 -5.6965 -6.342 -6.5915 -10.2865 -11.4217 -11.5367 -6.7865 
-13.7307 -12.1887 -7.5245 -6.936 -8.8265 -7.3465 -9.092501 -9.085501 -10.757 -13.005 -10.8135 -10.1385 -10.9153 -13.9454 -13.9057 -13.7505 -9.9025 -11.1785 -14.5201 -15.3974 -11.4253 -9.185 -6.8925 -7.843 -9.451501 -9.134001 -7.2425 -6.852 -8.6945 -10.485 -13.6234 -15.6844 -11.5367 
-16.5789 -12.9797 -8.0375 -9.451 -10.621 -9.7985 -10.0315 -12.5324 -13.2855 -14.6215 -14.3225 -12.1798 -17.2727 -15.8814 -16.8987 -13.7655 -14.2165 -16.0826 -15.9614 -16.0994 -14.6768 -10.9423 -8.5275 -9.9125 -11.5566 -9.920501 -8.3465 -9.1575 -12.7204 -13.9211 -17.8861 -15.6844 
-5.0615 -3.9535 -1.934 -3.225 -1.756 -5.769 -1.934 -3.0105 -2.5045 -5.0325 
-9.851 -5.3325 -4.879 -5.265 -7.2925 -7.078 -4.827 -5.8785 -6.766001 
-11.4852 -7.2345 -5.962 -10.0745 -8.609501 -9.4875 -6.6945 -10.7164 
-13.3872 -8.138 -10.575 -11.3915 -11.1312 -11.5142 -11.812 
-14.2907 -13.0454 -11.892 -13.9132 -13.1579 -16.6317 
-1.934 -1.4985 -3.158 -3.3635 -2.4285 -3.225 -1.7695 -3.584 0 -8.557501 -4.4525 -3.2 -3.956 -4.052 -1.934 -1.4985 -3.158 -3.0105 -3.5195 -5.0325 -1.756 -4.02 -3.982 -3.1495 -3.2495 -6.154 0 -3.16 -3.17 -3.3425 -3.8235 -4.4525 -4.4525 -3.2 -1.7695 -3.9175 -3.0835 -4.126 0 
-2.6125 -4.178 -5.647 -6.5695 -7.101501 -5.6295 -4.382 -3.584 -8.557501 -13.869 -7.613 -7.4465 -8.853001 -6.403 -2.6125 -4.178 -5.481501 -5.057 -10.3194 -6.8945 -5.5495 -6.212 -8.915501 -4.8975 -10.884 -6.154 -3.16 -7.0535 -8.0235 -6.8275 -7.9355 -6.452001 -7.613 -4.8875 -5.946001 -7.7075 -5.856501 -4.126 
-5.265 -6.6365 -8.3985 -7.5805 -9.063001 -8.5905 -4.382 -13.2159 -13.869 -17.0295 -12.2677 -12.6759 -11.2358 -6.9915 -5.265 -6.349501 -8.458 -13.2431 -12.1814 -9.887501 -7.4755 -10.7495 -10.3285 -12.926 -10.884 -10.4345 -7.0535 -12.6222 -11.5959 -11.7209 -10.31 -10.1995 -8.988501 -9.638 -9.537001 -10.8721 -5.856501 
-7.3465 -9.092501 -9.085501 -9.370001 -12.217 -8.5905 -14.5915 -18.5274 -17.0295 -21.6842 -17.4971 -15.0587 -11.8243 -9.267 -6.8925 -9.6885 -16.4761 -15.1051 -15.1744 -9.9025 -12.312 -12.1625 -18.357 -12.926 -15.1645 -14.328 -12.6222 -16.1946 -16.4893 -14.0954 -14.0575 -11.7112 -14.0924 -13.4666 -12.879 -10.8721 
-9.7985 -10.0315 -11.1454 -12.6124 -12.217 -19.078 -19.903 -21.6879 -21.6842 -26.9136 -19.8799 -15.6472 -14.0998 -11.4019 -10.8459 -17.8016 -18.3381 -18.0981 -15.1894 -15.35 -13.725 -20.191 -18.357 -17.2065 -19.058 -19.8967 -16.1946 -21.088 -18.8638 -17.8429 -15.5692 -16.8151 -17.921 -16.8086 -12.879 
