-4.759 
n/a 
n/a 
n/a 
n/a 
-4.759 
n/a 
n/a 
n/a 
n/a 
-4.759 
n/a 
n/a 
n/a 
n/a 
-4.759 
n/a 
n/a 
n/a 
n/a 
-3.115 -2.3615 -3.237 -5.312 -8.0555 -3.989 -4.658 -1.7695 -3.9595 -2.3345 -1.4985 -4.318 -20.8755 -8.0555 -4.126 -3.7455 -2.742 -4.1835 -3.2955 0 
-4.312 -6.1525 -9.1905 -14.2475 -12.8623 -9.076 -6.212 -7.52 -5.1685 -3.233 -5.922 -25.0874 -31.2704 -12.9993 -8.981501 -6.0415 -4.844 -9.091001 -3.2955 
-7.337 -12.6696 -18.4846 -19.0543 -17.9493 -10.173 -12.4919 -9.061001 -5.6835 -7.2055 -26.7245 -34.1575 -36.2142 -17.8548 -11.4883 -9.748501 -10.155 -9.091001 
-14.7175 -21.9637 -23.2914 -24.1413 -19.0463 -16.8365 -14.0329 -9.5585 -9.1165 -28.34 -35.772 -39.1013 -41.0697 -20.3616 -15.1953 -15.2249 -10.155 
-24.0116 -26.7705 -28.3784 -25.2383 -25.7098 -18.3775 -14.5304 -13.0955 -30.6618 -36.9007 -40.7158 -43.9568 -43.5765 -24.0686 -20.6717 -15.2249 
-1.4985 -3.2945 -3.0695 -4.5345 -4.278 -1.7695 -3.659 -2.7455 -3.135 -3.5825 0 -1.7695 -4.452 -3.135 -4.0505 -1.7565 -3.909 0 -2.186 -4.018 -1.934 -1.4985 -3.8685 -1.7565 -1.8085 -4.4965 -1.7695 -1.8085 -3.237 -5.925 -2.4265 -2.882 -2.489 -4.6725 -4.714 0 -3.0415 -2.3335 -2.9805 -4.4895 -1.7695 -4.2505 -3.4155 -3.456 0 -2.4285 -2.4265 -2.882 -4.3095 -4.727 -4.136 
-4.303 -5.7065 -6.666 -9.5985 -7.119 -4.3495 -4.6215 -5.576 -7.3735 -3.5825 -1.7695 -5.0995 -7.7145 -7.569 -4.832 -5.4525 -3.909 -2.186 -5.651 -6.535501 -2.6125 -4.916 -4.9575 -3.2595 -5.85 -5.6515 -3.41 -4.709 -7.132501 -8.29 -4.4545 -3.631 -7.360001 -8.922501 -4.714 -3.0415 -4.132 -4.1515 -5.475 -6.6405 -5.364 -7.5905 -6.176001 -3.456 -2.4285 -5.2275 -4.4545 -5.565001 -7.569 -7.436501 
-6.247 -8.352 -9.810501 -9.8675 -8.784 -5.319 -7.1 -8.7725 -7.3735 -4.1435 -5.0995 -8.033 -9.867001 -8.1785 -5.8415 -5.4525 -5.475 -5.651 -8.250501 -7.034 -6.0365 -5.2745 -6.292 -7.379 -6.7735 -7.62 -6.1155 -7.5225 -9.192 -9.694 -4.8375 -8.811001 -9.765 -8.922501 -7.540501 -4.132 -5.875 -6.6 -7.402 -9.710501 -8.271501 -8.0515 -6.176001 -5.7715 -5.2275 -6.0035 -6.094 -8.512 -9.7185 
-8.5815 -9.852501 -9.8725 -9.875501 -9.4545 -7.574501 -9.7995 -8.7725 -8.901501 -9.238 -8.033 -9.8715 -9.875 -9.1295 -5.8415 -7.4055 -8.7605 -8.250501 -8.6545 -9.432 -6.403 -6.564001 -9.6525 -8.462 -8.014 -9.6145 -8.881001 -9.2815 -9.829 -9.747001 -9.542001 -9.7755 -9.765 -9.7675 -8.568501 -5.875 -8.2375 -8.563001 -9.762001 -9.776 -8.748 -8.0515 -9.035001 -8.581 -6.0035 -9.014501 -9.2865 -9.781 
-9.854 -9.873 -9.876 -9.879001 -9.864501 -9.822001 -9.7995 -9.812 -9.870501 -9.870501 -9.8715 -9.875001 -9.8785 -9.1295 -8.078 -9.834001 -9.856501 -8.6545 -9.7355 -9.4705 -7.5655 -9.677001 -9.7705 -9.0635 -9.741501 -9.7935 -9.8275 -9.8345 -9.842 -9.8505 -9.778501 -9.7755 -9.783501 -9.7825 -9.717001 -8.2375 -9.606001 -9.781 -9.782001 -9.7805 -8.748 -9.755 -9.7185 -9.339001 -9.014501 -9.783 -9.781501 
-3.1495 -3.1385 -4.758 -1.7695 -3.974 -4.278 -3.506 -2.998 0 -2.7405 -4.809 -1.7695 -3.7455 -1.934 -2.9645 -4.541 0 
-5.148 -6.6485 -5.857 -5.805 -8.6715 -8.889501 -5.3745 -2.998 -2.7405 -8.932 -6.198 -5.5795 -5.3255 -5.036 -8.234 -4.541 
-8.908501 -8.232 -10.223 -11.1037 -13.6706 -10.703 -5.3745 -4.6835 -8.932 -10.5985 -10.5408 -6.839 -9.822001 -9.467001 -8.234 
-10.3225 -12.961 -15.8357 -16.1028 -15.4841 -10.703 -6.009 -11.2482 -10.5985 -14.9413 -11.8003 -12.0713 -14.253 -9.467001 
-15.0515 -18.5737 -20.8348 -17.9163 -15.4841 -11.3375 -12.9631 -12.9147 -14.9413 -16.2008 -17.0326 -16.5023 -14.253 
-3.433 -1.7565 -2.3615 -3.237 -4.0305 0 -1.4985 -4.723 -1.934 -4.278 -2.229 -3.989 -4.1885 -1.4985 -3.237 -3.2895 -2.7415 -4.758 -1.7695 -3.4625 0 -2.5195 -3.506 -5.738501 -4.278 -2.229 -3.519 -2.186 -3.183 -1.7695 -4.3455 -1.4985 -3.2895 0 -1.4985 -5.097 -2.229 -6.509501 -2.7415 -4.541 -3.2955 -1.934 -3.7455 0 
-4.1845 -3.523 -6.1525 -7.4455 -4.0305 -1.4985 -6.0675 -6.463 -6.2645 -6.414001 -6.098001 -8.229 -5.351501 -4.1875 -6.612 -6.725 -6.196 -5.857 -4.3 -3.4625 -2.5195 -5.8085 -7.06 -9.457001 -6.414001 -5.6025 -5.4715 -4.533 -4.8585 -4.706 -5.183 -4.862 -3.2895 -1.4985 -6.087 -6.105 -8.499001 -8.528501 -6.1245 -6.474 -4.2285 -5.313 -3.7455 
-5.5485 -7.160501 -9.84 -7.4455 -5.705501 -6.0675 -8.104 -10.6875 -8.3195 -10.4675 -10.451 -9.3475 -8.415501 -7.6435 -10.186 -10.111 -7.5305 -7.715501 -4.3 -5.227 -5.8085 -8.202001 -11.2015 -11.8275 -9.9175 -7.175 -8.061001 -6.278501 -7.482 -5.4375 -8.242001 -4.862 -5.6195 -6.087 -6.7075 -13.1864 -10.0445 -12.2157 -7.776 -7.225501 -7.5585 -5.313 
-9.099 -10.621 -9.84 -9.157501 -10.451 -8.104 -12.6895 -12.7425 -12.6794 -14.8205 -11.5695 -12.6233 -12.2769 -12.1035 -13.7026 -11.5591 -9.824 -7.715501 -6.528 -8.675501 -8.8385 -14.4204 -13.6038 -15.5338 -11.567 -9.846001 -10.322 -9.009001 -8.0985 -8.5865 -8.242001 -7.5315 -10.8152 -6.7075 -14.0237 -14.7319 -13.9593 -13.8672 -8.4585 -10.203 -7.5585 
-12.6399 -10.621 -11.552 -14.0122 -12.4875 -12.6895 -14.7445 -17.1024 -17.0324 -15.939 -14.8453 -16.4847 -16.7369 -15.6201 -15.1507 -13.8526 -9.824 -9.958501 -10.3815 -12.2313 -14.9614 -16.9743 -17.2487 -17.1833 -14.238 -12.2486 -13.0525 -9.215501 -11.5521 -8.5865 -11.5127 -13.063 -11.4357 -14.0237 -15.5692 -18.6467 -15.6108 -14.5497 -11.5522 -10.203 
