-4.759 
n/a 
n/a 
n/a 
n/a 
-4.759 
n/a 
n/a 
n/a 
n/a 
-4.759 
n/a 
n/a 
n/a 
n/a 
-4.759 
n/a 
n/a 
n/a 
n/a 
-5.8215 -2.7765 -2.489 -1.8085 -3.8175 -3.6885 0 
-8.404501 -3.495 -3.799 -4.55 -6.031 -3.6885 
-8.7615 -4.987 -5.9535 -6.219501 -6.031 
-9.646001 -6.982 -7.307 -6.219501 
-10.4285 -8.081 -7.307 
-5.246 -4.224 -2.186 -2.871 -3.6135 -3.6885 0 
-9.987 -7.155 -4.247 -5.7545 -5.943 -3.6885 
-12.918 -9.623501 -6.8485 -7.3475 -5.943 
-15.3865 -12.257 -8.358 -7.3475 
-18.02 -13.7665 -8.358 
-3.819 -1.7565 -1.4985 -5.3365 -3.6885 -1.934 -1.4985 -7.642 0 
-6.969 -2.4195 -6.813001 -10.4765 -5.1845 -2.6125 -8.5705 -7.642 
-7.6235 -7.754001 -12.4636 -11.9725 -5.8545 -9.959001 -8.5705 
-13.2248 -13.4922 -13.9596 -12.6425 -13.5368 -9.959001 
-18.963 -14.9882 -14.6296 -20.3248 -13.5368 
-2.4265 -2.186 -3.818 -2.3335 -5.5325 -4.856 -2.186 -1.8085 -4.308 -3.6885 
-3.292 -4.969501 -5.403 -7.641001 -7.8135 -6.7605 -3.164 -5.058 -6.0275 
-5.615 -5.8365 -10.7495 -10.382 -10.209 -7.851001 -5.8895 -6.2095 
-5.866 -11.2864 -13.4905 -12.8221 -11.2995 -9.816001 -6.7775 
-11.3177 -14.0274 -15.9306 -13.9126 -13.2645 -10.516 
