-4.759 
n/a 
n/a 
n/a 
n/a 
-4.759 
n/a 
n/a 
n/a 
n/a 
-4.759 
n/a 
n/a 
n/a 
n/a 
-4.759 
n/a 
n/a 
n/a 
n/a 
-1.4985 -3.3855 -1.7565 -2.3615 -4.612 -2.186 -4.3685 0 
-4.5395 -5.133 -3.523 -6.573 -6.164 -6.925 -4.3685 
-5.679 -6.962501 -7.4495 -7.261 -9.865 -6.925 
-7.502501 -8.6415 -7.9925 -10.5425 -9.865 
-8.900001 -9.045501 -10.6875 -10.5425 
-1.4985 -3.4515 -1.7565 -2.3615 -2.186 -1.4985 -3.8935 -1.7565 -4.3685 
-4.432 -4.611 -3.523 -3.5005 -3.339 -4.9325 -4.8605 -5.478 
-4.8535 -5.8545 -5.5275 -4.3105 -6.98 -5.2335 -7.7025 
-5.9445 -8.819 -6.4835 -8.5215 -7.2275 -8.0375 
-8.935 -9.7995 -9.5115 -9.054501 -9.85 
-1.4985 -4.0045 -3.871 -1.7565 -2.3615 -3.909 -2.186 -4.3685 0 
-4.6965 -8.286001 -5.871 -3.523 -5.6025 -5.475 -6.925 -4.3685 
-9.723001 -10.5258 -7.5315 -6.496 -6.667 -9.633 -6.925 
-11.9628 -12.1863 -11.0491 -7.7615 -11.22 -9.633 
-13.6233 -15.7039 -12.3146 -12.6971 -11.22 
-2.3615 -3.974 -1.7695 -3.849 -4.3685 
-5.7455 -5.6775 -7.458001 -7.727 
-7.5445 -12.0604 -11.6438 
-14.0102 -16.2462 
-18.196 
