-4.759 
n/a 
n/a 
n/a 
n/a 
-4.759 
n/a 
n/a 
n/a 
n/a 
-4.759 
n/a 
n/a 
n/a 
n/a 
-4.759 
n/a 
n/a 
n/a 
n/a 
-1.934 -10.8675 0 -2.3615 -2.95 -3.8405 -2.186 -3.383 -3.818 -2.0935 -4.2815 0 -1.756 -3.676 0 
-10.199 -8.788 -2.3615 -4.4645 -5.133 -5.629 -4.438 -5.4155 -5.467 -6.4555 -4.2815 -1.756 -5.918 -3.676 
-10.7206 -11.773 -4.4645 -6.3285 -6.9245 -8.0605 -6.311501 -6.597 -9.664001 -6.4555 -5.558001 -5.918 -5.918 
-13.7056 -13.948 -6.3285 -7.762 -9.2615 -10.3745 -7.347 -10.66 -9.664001 -7.4745 -8.016001 -5.918 
-15.8806 -15.812 -7.762 -9.852 -11.6835 -11.41 -11.6308 -10.66 -11.12 -9.6315 -8.016001 
-6.399 -3.837 -2.4945 -4.005 -1.934 -3.3715 -3.468 0 -1.756 -3.3715 -5.187 -2.4945 -4.2085 -2.0935 -3.5935 -2.9645 -2.4285 -2.5045 -2.664 -4.114 -1.7695 -1.8085 -3.237 -3.335 -3.72 -4.417 -2.674 -4.172 -3.135 -3.468 -1.7695 -4.67 -5.187 -2.4285 -4.2305 -1.4985 -4.532 -1.756 -3.9755 -4.2175 -5.6255 -3.9515 -4.72 -3.3715 -5.187 -2.5195 -3.689 -5.477 -3.468 0 
-8.380501 -6.0135 -5.433001 -4.808 -4.622 -6.025001 -3.468 -1.756 -4.6545 -8.455001 -7.179501 -5.613 -5.643001 -5.103 -5.371 -5.053 -4.903 -4.074 -5 -5.1 -3.41 -4.709 -6.989501 -8.039001 -6.171 -6.546 -5.749 -6.816501 -5.750501 -5.279 -5.6775 -8.630501 -7.448 -6.245501 -5.232 -6.2735 -5.594 -5.893 -7.8035 -9.978001 -7.388 -9.479501 -7.664001 -8.455001 -7.395 -6.383 -6.5815 -8.6805 -3.468 
-9.923 -8 -6.1215 -7.916 -6.5365 -6.025001 -4.7175 -4.6545 -10.213 -9.892 -9.213 -7.1285 -8.121 -5.6045 -6.5665 -7.372 -6.022501 -5.654 -5.525 -6.607501 -6.1155 -8.1125 -12.4623 -10.5035 -7.79 -8.273001 -7.5925 -9.038501 -7.630001 -8.177501 -8.791 -10.3105 -10.4945 -6.663 -8.926001 -7.28 -7.1465 -10.199 -10.688 -10.5795 -10.634 -10.6615 -10.7495 -10.2335 -10.6735 -9.328 -9.592501 -8.6805 
-10.579 -8.6925 -8.629001 -9.694 -6.5365 -7.22 -7.2565 -10.213 -10.605 -10.6015 -10.368 -8.8675 -8.813001 -7.203 -8.0275 -8.786 -7.393001 -5.881001 -7.039001 -8.8535 -9.934501 -14.2587 -14.9268 -12.1225 -9.667001 -9.574 -9.531 -9.126 -9.826 -10.4675 -10.4185 -10.5335 -10.51 -10.434 -10.172 -8.6755 -10.403 -10.6955 -10.712 -10.657 -10.709 -10.7735 -10.777 -10.7585 -10.78 -10.623 -9.592501 
-10.683 -10.442 -10.3815 -9.694 -7.7005 -9.281 -10.6875 -10.605 -10.687 -10.6835 -10.497 -8.927501 -10.368 -8.3835 -9.613001 -10.089 -7.625 -7.303 -9.194501 -10.5125 -15.8979 -16.7232 -16.5458 -13.9995 -10.735 -10.3625 -9.621 -10.3105 -10.4795 -10.4905 -10.5455 -10.55 -10.5345 -10.5165 -10.418 -10.476 -10.7 -10.7195 -10.736 -10.732 -10.7945 -10.801 -10.8045 -10.865 -10.8 -10.623 
-4.712 0 -3.5445 -22.583 -1.934 -5.634501 -5.6005 -7.6545 -4.5665 -3.959 -3.458 -3.6885 -2.8645 -4.5485 -6.189 -3.8275 -3.9535 -2.5195 -5.6145 -1.756 -4.461 -1.934 -5.7275 
-4.712 -3.5445 -27.7355 -26.7381 -7.1905 -11.8702 -14.5352 -12.8638 -9.7505 -7.1745 -7.8805 -5.865 -6.333 -12.0325 -10.0165 -7.04 -6.238 -7.9445 -7.5285 -5.6665 -5.663001 -7.176 
-7.9715 -27.7355 -31.207 -31.9946 -13.9306 -20.8049 -19.7445 -18.0478 -12.993 -12.2632 -10.6884 -10.543 -14.5466 -14.0357 -10.824 -9.653501 -12.1572 -9.6415 -10.674 -6.8505 -11.5472 
-32.8151 -31.207 -36.4635 -38.7347 -22.8653 -26.0142 -24.9285 -21.2903 -18.0817 -15.0711 -15.3664 -18.7566 -16.3806 -16.3632 -13.3044 -15.6535 -13.8542 -12.8572 -11.858 -13.1555 
-36.2866 -36.4635 -43.2036 -47.6694 -28.0746 -31.1982 -28.171 -26.379 -20.8896 -19.7491 -23.58 -20.5906 -18.7081 -19.0931 -19.3044 -17.3505 -17.0699 -14.0412 -18.163 
-9.228001 -12.16972 0 -3.5445 -20.0945 -3.158 -2.229 -4.6225 -3.8405 -1.756 -1.4985 -4.193 -1.7565 -3.158 -5.634501 0 -3.458 -3.676 -4.386 -3.59 -1.756 -6.9625 -3.1385 -4.8935 -4.4565 -1.7695 -5.0665 -3.8275 -2.3615 -3.8275 -4.005 -2.5195 -1.4985 -3.158 -5.6145 -1.7695 -5.7275 0 
-23.84282 -12.16972 -3.5445 -20.7529 -22.8094 -4.5775 -6.785 -8.057001 -5.3535 -3.0405 -4.594501 -4.7225 -5.26 -8.3395 -5.634501 -3.458 -7.226 -8.716001 -8.0255 -5.017 -8.954 -10.5535 -9.198501 -9.106501 -4.9325 -7.336501 -6.092 -6.413 -5.965 -8.038 -6.126 -3.1695 -4.178 -8.345501 -7.681 -8.4185 -5.7275 
-23.84282 -15.71422 -19.6641 -23.4601 -24.8331 -8.000501 -9.434501 -9.373001 -6.2905 -6.412 -4.7895 -6.416 -10.8437 -8.3395 -9.767501 -7.226 -13.7584 -12.5761 -10.115 -13.2212 -12.566 -17.0937 -13.6415 -9.2045 -9.364 -8.484 -8.4905 -8.247001 -10.66 -10.5608 -7.3835 -6.3945 -8.468 -9.326001 -9.5485 -8.4185 
-27.38732 -32.01522 -23.6415 -25.061 -28.2561 -11.0418 -11.3755 -10.052 -8.4635 -6.464 -7.6155 -13.0443 -10.8437 -12.8685 -13.5011 -13.7584 -17.6185 -14.6656 -18.4416 -16.8332 -19.1062 -21.5367 -13.7395 -13.6408 -10.8535 -11.2629 -10.6875 -13.3546 -13.1828 -11.8183 -10.2805 -9.555 -9.76 -11.9929 -9.5485 
-43.68832 -35.81122 -25.061 -28.484 -31.2974 -12.9828 -12.0545 -12.3498 -8.479 -9.564 -14.6082 -13.0443 -15.3727 -16.6021 -20.0335 -17.6185 -19.708 -22.9922 -22.0536 -23.3734 -23.5492 -21.6347 -18.1758 -15.1303 -13.6324 -13.4599 -15.7951 -15.8774 -14.4403 -14.7153 -13.441 -10.113 -12.8149 -11.9929 
