-4.759 
n/a 
n/a 
n/a 
n/a 
-4.759 
n/a 
n/a 
n/a 
n/a 
-4.759 
n/a 
n/a 
n/a 
n/a 
-4.759 
n/a 
n/a 
n/a 
n/a 
-3.676 -4.2265 -3.304 0 -1.934 -4.0995 -3.188 -2.229 -4.225 -4.9205 0 -1.756 -4.0885 -1.934 -3.8565 0 -3.97 -1.756 -3.9675 0 
-8.036501 -7.456 -3.304 -1.934 -6.4855 -6.0825 -4.279 -5.7905 -7.937 -4.9205 -1.756 -5.873 -6.4955 -5.741 -3.8565 -3.97 -5.137 -4.942 -3.9675 
-11.7714 -7.456 -5.7 -6.4855 -9.0965 -7.753 -8.953501 -8.988501 -7.937 -6.2335 -5.873 -7.883 -9.4245 -5.741 -8.197001 -5.137 -6.5465 -4.942 
-11.7714 -10.168 -10.7075 -9.0965 -10.8038 -10.586 -12.6577 -8.988501 -8.717501 -10.733 -7.883 -11.1242 -9.4245 -9.834001 -9.128 -6.5465 -6.5465 
-14.4834 -15.1755 -13.3185 -10.8038 -13.6368 -14.2902 -12.6577 -10.2985 -13.91 -12.743 -11.1242 -11.1242 -14.1239 -10.3315 -10.7147 -6.5465 
-2.3615 -3.59 -2.674 -1.4985 -3.304 0 -6.924 -1.7565 -1.4985 -4.0415 -4.828 -1.934 -1.4985 -3.188 -1.756 -4.3195 -1.4985 -3.188 -2.229 -4.0885 -3.8565 0 -3.9655 -1.756 -4.2465 -3.59 0 
-5.0215 -6.264501 -3.998 -5.3485 -3.304 -6.924 -7.4305 -2.4195 -4.9725 -7.5795 -6.6455 -2.6125 -3.619 -4.863 -5.563 -5.1515 -3.619 -4.279 -5.006001 -6.859 -3.8565 -3.9655 -5.2915 -5.052 -8.3695 -3.59 
-7.088 -7.89 -8.153 -5.3485 -10.6588 -7.4305 -7.9675 -5.8475 -8.686501 -9.696 -7.3065 -4.377 -5.0875 -8.075001 -6.3685 -7.188 -4.3695 -5.4265 -7.646501 -6.859 -6.3575 -5.2915 -6.563 -9.8655 -8.3695 
-8.587 -12.3344 -8.153 -13.5763 -11.1653 -7.9675 -11.9871 -9.5755 -11.227 -10.377 -9.021 -5.659 -8.229501 -8.908001 -8.4715 -7.278 -5.4485 -7.9965 -7.646501 -9.684 -6.55 -6.563 -11.8337 -9.8655 
-13.1084 -12.3344 -16.5002 -14.0828 -11.7023 -11.9871 -15.7151 -12.0356 -11.908 -12.0915 -10.151 -9.190001 -9.062 -10.622 -8.5745 -8.577001 -8.336 -7.9965 -10.674 -9.816501 -7.286 -11.8337 -11.8337 
-2.3615 -3.59 -2.229 -4.0415 -4.0545 -3.882 -3.304 -3.868 -1.7565 -1.4985 -3.962 -3.188 -2.4265 -2.229 -3.074 -4.3195 -1.4985 -3.188 -2.229 -3.177 -3.8565 0 -3.9655 -1.756 -4.2465 -3.519 0 
-5.0215 -4.966 -5.372 -7.0165 -7.7245 -7.533 -5.313 -4.3875 -2.4195 -4.324 -5.6585 -5.508 -3.3415 -5.0265 -6.3765 -5.1515 -3.619 -4.279 -4.81 -7.214 -3.8565 -3.9655 -5.2915 -5.052 -7.713 -3.519 
-6.5255 -7.373 -8.097 -10.5535 -11.6741 -9.795501 -5.796 -4.8605 -5.3875 -5.719 -7.1425 -6.074501 -5.3045 -9.384501 -7.171 -7.188 -4.3695 -5.9545 -7.6355 -7.214 -6.3575 -5.2915 -6.563 -8.25 -7.713 
-8.975 -9.5175 -11.8172 -14.5031 -13.9366 -10.001 -6.1285 -8.064501 -6.757501 -7.148001 -8.488501 -7.961 -10.1863 -10.005 -9.330501 -7.278 -6.05 -9.026501 -7.6355 -10.5318 -6.55 -6.563 -8.885 -8.25 
-11.2185 -13.4689 -15.7668 -16.7656 -14.1421 -10.5025 -9.5725 -10.1465 -7.251501 -8.515 -10.5745 -13.0252 -10.8068 -12.1909 -9.422001 -9.053 -9.065001 -9.026501 -11.6131 -10.7243 -7.286 -8.885 -8.885 
-2.9905 -1.7565 -1.4985 -3.5085 -3.188 -2.229 -4.828 -4.9205 0 -1.4985 -2.985 -2.229 -5.2705 -2.0935 -2.7455 -3.304 0 -1.756 -2.186 -3.074 -1.4985 -3.188 -2.229 -4.0885 -4.042 -1.756 -3.9655 -1.756 -4.2465 -3.519 
-3.6185 -2.4195 -4.4755 -6.9465 -4.279 -6.514 -7.6165 -4.9205 -1.4985 -4.1115 -3.482 -8.0725 -5.301 -4.987 -5.596 -3.304 -1.756 -3.986 -4.156 -4.6505 -3.619 -4.279 -5.006001 -7.8235 -5.2105 -5.0755 -5.2915 -5.052 -7.713 
-4.3385 -5.126 -7.620001 -8.9475 -9.433001 -9.043501 -7.6165 -6.791 -4.1115 -4.1465 -8.4525 -8.0935 -6.921 -7.037001 -5.596 -5.5075 -3.986 -5.87 -5.301001 -7.1945 -4.3695 -5.4265 -8.6565 -9.349 -7.850501 -7.168 -6.563 -8.25 
-6.993501 -7.861001 -9.045001 -14.2801 -12.2325 -9.043501 -9.262 -10.054 -4.1465 -8.496501 -8.4545 -9.514 -8.547 -7.037001 -7.5575 -7.525001 -5.87 -6.9305 -7.574501 -7.423501 -5.4485 -8.8085 -9.7185 -12.0154 -9.675501 -8.557501 -8.885 
-10.118 -9.168 -14.428 -17.0796 -12.2325 -11.0632 -12.5866 -10.0905 -8.496501 -8.498501 -9.726001 -11.1784 -8.547 -8.889501 -9.4135 -9.673 -6.9305 -9.1745 -7.664001 -8.624001 -8.831 -9.832001 -12.3849 -13.8404 -11.1038 -11.0319 
