-4.759 
n/a 
n/a 
n/a 
n/a 
-4.759 
n/a 
n/a 
n/a 
n/a 
-4.759 
n/a 
n/a 
n/a 
n/a 
-4.759 
n/a 
n/a 
n/a 
n/a 
-3.9225 -2.3615 -7.511001 -12.16972 -1.7695 -3.8735 -1.756 -7.7795 -5.513 0 -6.7795 -3.9165 0 -4.9395 -1.7695 -6.246 0 -6.6155 0 -8.6785 -3.8745 0 
-6.6375 -10.541 -19.77232 -13.93922 -5.578001 -5.3865 -9.0535 -11.6435 -5.513 -6.092 -9.927501 -3.9165 -4.9395 -5.127501 -8.4505 -6.246 -6.6155 -6.6155 -8.6785 -9.3615 -3.8745 
-14.9902 -24.04912 -21.93942 -17.74772 -6.726 -13.417 -14.3739 -11.8369 -11.9572 -9.455001 -9.455001 -9.853001 -5.127501 -12.5981 -8.4505 -6.937 -6.6155 -10.564 -9.3615 -9.3615 
-28.29512 -25.81862 -25.74792 -18.89572 -12.1215 -15.5995 -14.4775 -18.2811 -15.3202 -9.455001 -16.3863 -9.898 -12.5981 -12.5981 -8.8415 -6.937 -10.564 -11.7938 -9.3615 
-30.06462 -29.62712 -26.89592 -24.29122 -17.636 -15.9905 -20.9217 -21.6441 -15.3202 -16.3863 -16.4313 -17.5886 -12.5981 -12.9891 -8.8415 -10.575 -11.7938 -11.7938 
-1.934 -2.3615 -7.511001 -5.513 0 -7.3035 -3.9165 0 -3.5795 -3.8735 -2.229 -3.892 -1.756 -7.7795 -5.513 0 -6.7795 -3.9165 0 -3.7965 -14.6175 -3.8745 0 
-3.539 -10.541 -12.2545 -5.513 -6.737 -9.7585 -3.9165 -3.5795 -7.9325 -5.3655 -6.5715 -5.337 -9.0535 -11.6435 -5.513 -6.092 -9.927501 -3.9165 -3.7965 -15.5585 -12.8845 -3.8745 
-12.4042 -16.5313 -12.6521 -12.6378 -10.4345 -10.4345 -7.092 -7.9325 -8.8655 -10.4945 -8.186501 -12.949 -14.3739 -11.8369 -11.9572 -9.455001 -9.455001 -8.1695 -11.2294 -11.3364 -7.2425 
-18.4563 -16.5313 -19.7769 -16.3353 -10.4345 -14.1298 -13.1038 -8.8655 -14.0709 -12.1095 -15.7458 -18.2843 -14.4775 -18.2811 -15.3202 -9.455001 -14.7028 -15.9264 -11.3339 -11.3339 
-18.4563 -23.6561 -23.4744 -16.3353 -14.1298 -20.1416 -14.0368 -14.0709 -15.6859 -19.6688 -20.8693 -18.2843 -20.9217 -21.6441 -15.3202 -14.7028 -22.4597 -16.0309 -11.3339 
-1.934 -2.3615 -6.329 -6.014 0 -6.1685 -4.524 0 -4.9395 -1.7695 -4.1865 -3.8375 0 -5.9875 -6.014 0 -5.501 -3.9165 0 -4.9395 -1.7695 -10.245 -1.756 -10.2055 0 -8.4995 -3.8745 
-3.539 -10.674 -13.0864 -6.014 -6.1685 -11.1415 -4.524 -4.9395 -5.127501 -6.303 -7.4865 -3.8375 -5.9875 -12.5817 -6.014 -5.501 -9.635 -3.9165 -4.9395 -5.127501 -12.9967 -12.1934 -10.821 -10.2055 -8.4995 -9.805 
-12.5565 -17.4314 -13.0864 -13.0685 -11.1415 -11.1415 -10.5907 -5.127501 -9.539001 -8.8415 -7.4865 -10.8984 -12.5817 -12.5817 -12.401 -9.635 -9.635 -9.853001 -5.127501 -17.1443 -14.9451 -21.2584 -10.821 -19.0658 -9.805 
-19.3139 -17.4314 -20.1409 -18.0415 -11.1415 -17.2082 -10.7787 -9.539001 -12.1047 -8.8415 -15.0914 -17.4926 -12.5817 -18.9687 -16.535 -9.635 -16.2133 -9.898 -17.1443 -19.0927 -24.0101 -21.2584 -19.6813 -20.3713 
-19.3139 -24.4859 -25.1139 -18.0415 -17.2082 -17.3962 -15.1902 -12.1047 -12.1047 -16.9942 -21.6856 -17.4926 -18.9687 -23.1027 -16.535 -16.2133 -16.2583 -22.1348 -19.0927 -28.1577 -24.0101 -30.1187 -20.9868 
-1.934 -2.3615 -7.511001 -5.7335 0 -12.16972 0 -4.282 -4.1865 -6.2985 -1.756 -5.9875 -5.7335 0 -5.501 -3.9165 0 -4.282 -12.8615 -1.756 -6.8525 -3.8745 
-3.539 -10.541 -12.2585 -5.7335 -12.16972 -12.16972 -4.282 -9.102 -6.497 -7.4795 -9.295 -12.3012 -5.7335 -5.501 -9.635 -3.9165 -4.282 -11.575 -8.945001 -8.428 -8.030001 
-12.4042 -16.5353 -12.6561 -18.69942 -12.16972 -16.45172 -9.102 -11.7431 -7.636 -15.6237 -15.6639 -12.3012 -12.0307 -9.635 -9.635 -7.6595 -11.575 -13.8075 -9.839001 -9.25 
-18.4603 -16.5353 -25.62202 -18.69942 -16.45172 -21.27172 -11.7431 -12.8821 -15.928 -21.9926 -15.6639 -18.5984 -16.1647 -9.635 -14.0198 -15.5909 -13.8075 -14.0925 -9.778501 
-18.4603 -29.50122 -25.62202 -22.98142 -21.27172 -23.91282 -12.8821 -21.1741 -22.2969 -21.9926 -21.9611 -22.7324 -16.1647 -14.0198 -21.9512 -17.8234 -14.0925 -14.3645 
