-4.759 
n/a 
n/a 
n/a 
n/a 
-4.759 
n/a 
n/a 
n/a 
n/a 
-4.759 
n/a 
n/a 
n/a 
n/a 
-4.759 
n/a 
n/a 
n/a 
n/a 
-2.7835 -2.3585 -3.9335 -2.0935 -4.811 0 -2.3585 -2.742 -3.047 -4.811 -4.7415 
-3.296 -4.8265 -5.7945 -6.884 -4.811 -2.3585 -3.8635 -4.9075 -8.242001 -9.335001 
-5.5255 -7.482 -11.4124 -6.884 -6.642 -3.8635 -5.1905 -10.057 -13.2756 
-8.595 -13.3865 -11.4124 -8.295 -8.027 -5.1905 -10.322 -15.0906 
-15.1565 -13.3865 -12.8234 -10.3675 -9.889501 -10.322 -15.3556 
-3.9335 -2.0935 -2.5235 -4.811 0 -4.7415 -2.3585 -3.047 -3.277 0 
-5.7945 -3.869 -6.806001 -4.811 -4.7415 -6.3035 -4.553 -5.259 -3.277 
-7.388 -7.984 -6.806001 -9.335001 -6.3035 -8.032001 -6.4985 -5.259 
-11.9312 -7.984 -11.8416 -10.61 -8.032001 -9.431001 -6.4985 
-11.9312 -13.0996 -13.1166 -12.7727 -9.431001 -9.431001 
-2.3585 -2.674 -3.962 -3.992 -4.0555 -1.7695 -1.8085 -4.8825 -2.7835 -2.985 -5.5375 -2.0935 -4.811 0 
-3.6565 -4.902 -7.151 -7.1695 -4.7475 -3.41 -5.400001 -6.96 -5.5305 -9.700001 -7.5205 -6.884 -4.811 
-6.087 -7.9235 -10.564 -8.176001 -6.0755 -7.6305 -7.419001 -9.7045 -13.0973 -11.9874 -12.809 -6.884 
-8.823 -11.5711 -11.5705 -8.425 -11.1728 -9.764501 -10.5225 -17.3645 -15.3847 -17.2759 -12.809 
-12.5358 -12.5776 -11.8195 -14.3349 -13.3068 -13.1784 -18.1825 -19.6519 -20.6732 -17.2759 
-2.7835 -2.3585 -3.5095 -2.7455 -1.4985 -5.434 0 -2.3585 -2.742 -3.197 -2.4265 -2.5685 -1.4985 -3.3155 0 
-3.296 -4.339 -4.731 -3.637 -6.5705 -5.434 -2.3585 -3.8635 -4.7825 -4.6855 -4.5665 -3.7015 -6.236501 -3.3155 
-5.3025 -5.4435 -5.579 -8.283501 -6.5705 -8.260501 -3.8635 -4.961 -6.049 -6.689 -5.7705 -8.9095 -6.236501 
-6.421 -6.1555 -10.6985 -8.283501 -9.2865 -9.279001 -4.961 -6.395 -7.838 -8.59 -11.4723 -8.9095 
-7.5145 -11.5722 -10.6985 -11.7373 -10.4855 -9.906501 -6.395 -7.9015 -9.606001 -14.3324 -11.4723 
