-4.759 
n/a 
n/a 
n/a 
n/a 
-4.759 
n/a 
n/a 
n/a 
n/a 
-4.759 
n/a 
n/a 
n/a 
n/a 
-4.759 
n/a 
n/a 
n/a 
n/a 
-2.688 -3.557 -3.873 -4.8955 -3.158 -3.691 -2.229 -3.228 -4.267 -3.1715 0 
-6.1455 -7.651 -9.2825 -8.259501 -7.496 -5.0855 -5.2405 -7.5305 -7.476501 -3.1715 
-7.775001 -13.5149 -12.7249 -13.4387 -8.266001 -8.1705 -9.748501 -11.5212 -7.476501 
-13.7909 -16.9573 -17.9041 -14.2087 -11.5558 -13.2807 -13.7392 -11.5212 
-17.2333 -22.1365 -18.6741 -17.4985 -16.666 -17.2714 -13.7392 
-2.688 -7.097 -2.186 -1.4985 -3.228 -3.1715 -2.9705 -2.186 -3.918 -2.356 -3.691 
-7.1035 -10.004 -3.339 -3.9575 -7.029 -6.0015 -3.89 -6.3145 -6.205501 -6.439 
-10.0285 -11.2308 -5.6495 -7.307 -9.7685 -6.758501 -8.06 -7.6825 -9.618 
-11.2591 -13.5413 -8.673 -10.1465 -10.4135 -11.1671 -9.1715 -11.4114 
-13.5696 -16.5648 -11.9223 -10.7645 -14.8221 -12.2786 -12.943 

n/a 
n/a 
n/a 
n/a 
-5.5285 -4.267 -1.934 -2.3615 -3.2795 -2.186 -2.688 -7.097 -4.8955 
-10.151 -6.7145 -3.539 -4.9565 -5.099 -5.439 -7.1035 -13.0105 
-12.5985 -8.543 -5.923 -6.0255 -8.412001 -10.4855 -13.0646 
-14.427 -10.688 -7.5655 -9.047 -13.9231 -16.7886 
-16.572 -12.3305 -10.5468 -15.2319 -20.2262 
