-4.759 
n/a 
n/a 
n/a 
n/a 
-4.759 
n/a 
n/a 
n/a 
n/a 
-4.759 
n/a 
n/a 
n/a 
n/a 
-4.759 
n/a 
n/a 
n/a 
n/a 
-3.1495 -1.7695 -3.699 -1.7565 -4.031 -1.7695 -4.008 -3.674 -3.676 -2.229 -4.9595 -1.7695 -4.0305 0 
-5.8665 -6.270501 -6.1875 -5.849501 -5.006 -4.6125 -8.7215 -7.875 -4.593 -7.0195 -6.986501 -6.171 -4.0305 
-10.151 -9.509501 -11.3163 -7.246001 -7.1665 -10.078 -13.2353 -8.747001 -10.389 -9.351 -11.9984 -6.171 
-13.39 -15.0201 -12.7128 -9.470501 -13.0716 -14.5918 -14.1073 -15.14 -13.3085 -14.4023 -11.9984 
-18.9006 -16.4166 -14.9373 -15.5916 -17.5854 -15.4638 -20.5003 -18.0595 -18.3598 -14.4023 
-1.4985 -4.031 -2.0935 -1.4985 -3.922 -1.7565 -2.3615 -2.186 -1.4985 -4.7075 -1.934 -1.4985 -3.264 -6.5045 -3.674 -9.67 -3.9595 -2.3345 -1.4985 -3.6175 -4.2485 
-4.771 -4.8935 -2.9725 -5.1995 -5.2335 -3.523 -3.5005 -3.339 -5.869 -5.1835 -2.6125 -4.0935 -8.990001 -10.5975 -14.6956 -13.7581 -5.1685 -3.233 -4.679501 -7.8345 
-5.3855 -5.596 -6.725501 -6.1365 -7.8695 -5.5275 -4.3105 -7.8805 -6.058 -5.8585 -5.396501 -9.289001 -13.3074 -21.6191 -18.7837 -14.9671 -5.6835 -7.1545 -9.363501 
-5.895 -7.5325 -7.578501 -8.5345 -10.316 -6.4835 -9.526001 -8.025001 -6.7815 -6.697501 -11.0326 -13.584 -24.329 -25.7072 -19.9927 -15.4821 -10.054 -12.0779 
-7.97 -8.9575 -9.9615 -10.533 -11.272 -10.334 -9.7875 -8.571 -7.6545 -13.3686 -15.3276 -24.6056 -28.4171 -26.9162 -20.5077 -19.8526 -14.9774 
-2.3615 -4.652 -3.535 -3.777 -2.186 -4.1645 -3.6485 -3.2275 -2.186 -3.689 -2.0935 -4.3665 0 
-7.3325 -8.059 -6.6805 -5.1765 -7.8085 -7.4505 -7.063001 -5.362 -4.993 -6.018 -6.1645 -4.3665 
-11.1531 -11.5443 -7.4285 -10.3345 -11.5317 -11.7522 -8.3135 -8.299 -7.616 -9.998 -6.1645 
-14.6384 -12.2923 -13.3571 -14.0577 -15.8334 -13.0027 -12.1527 -11.0434 -11.824 -9.998 
-15.3864 -18.2209 -17.0803 -18.3594 -17.0839 -16.8419 -14.8971 -15.2514 -11.824 
-1.4985 -3.922 -2.186 -3.851 -1.7695 -4.7565 -1.934 -1.4985 -4.5735 -3.674 -4.0145 -3.152 -3.6955 -3.539 -2.3345 -1.4985 -4.443 
-5.1995 -6.083 -5.0955 -4.0015 -5.778 -5.2585 -2.6125 -5.6505 -8.2205 -7.5755 -6.219501 -7.2065 -5.559 -5.323 -3.233 -5.149 
-6.6845 -7.1855 -5.314 -8.196 -6.8335 -5.9095 -7.022501 -10.322 -12.5634 -9.382001 -10.8408 -8.7205 -7.73 -5.9255 -6.114 
-7.5655 -7.293 -9.451 -8.284 -7.4335 -9.2165 -11.929 -14.6649 -14.3699 -14.3221 -12.3548 -11.8119 -8.691 -9.300501 
-7.677001 -11.8498 -9.768001 -9.238 -11.3311 -14.6012 -16.2719 -16.4714 -19.31 -15.8361 -15.4462 -12.7729 -12.3512 
