-4.759 
n/a 
n/a 
n/a 
n/a 
-4.759 
n/a 
n/a 
n/a 
n/a 
-4.759 
n/a 
n/a 
n/a 
n/a 
-4.759 
n/a 
n/a 
n/a 
n/a 
-3.8095 -3.115 -2.3615 -4.079 -3.594 -2.645 
-6.93 -4.312 -5.323 -7.2815 -6.181 
-7.66 -8.753 -9.915501 -10.564 
-12.7088 -13.8773 -13.198 
-17.8331 -17.1598 
-3.5725 -2.3585 -2.674 -1.7695 -3.8095 -4.079 -3.594 -3.115 -2.3615 0 
-6.461 -3.6565 -3.787 -4.549 -8.054001 -7.2815 -6.5335 -4.312 -2.3615 
-7.6095 -4.5615 -6.248 -8.3625 -9.320001 -10.181 -7.1285 -4.312 
-7.872001 -6.9735 -10.4257 -10.702 -12.6597 -10.845 -7.1285 
-10.426 -11.2486 -12.7652 -14.0417 -13.3237 -10.845 
-8.526501 0 -5.405 -4.0385 -2.3615 -4.0135 -1.7565 -3.594 0 0 
-8.526501 -5.405 -8.412001 -5.729 -5.1525 -4.201 -5.294 -3.594 0 
-14.2761 -8.412001 -10.022 -8.652 -5.2165 -7.6495 -5.294 -3.594 
-17.2831 -10.022 -12.945 -8.6615 -9.147 -7.6495 -5.294 
-18.8931 -12.945 -12.9545 -12.9282 -9.147 -7.6495 
-3.8095 -2.3615 -3.319 -1.7565 -4.079 -3.594 
-5.8135 -4.9575 -4.165 -5.819 -7.2815 
-8.620501 -5.092 -8.85 -8.427501 
-8.658001 -9.832001 -11.5483 
-13.7248 -12.6541 
