-4.759 
n/a 
n/a 
n/a 
n/a 
-4.759 
n/a 
n/a 
n/a 
n/a 
-4.759 
n/a 
n/a 
n/a 
n/a 
-4.759 
n/a 
n/a 
n/a 
n/a 
-2.5045 -3.8825 -1.4985 -3.545 -1.7565 -5.3 -4.759 -5.0875 -3.499 0 
-5.282001 -5.159 -4.401 -4.649 -5.9935 -10.8025 -10.9315 -8.546 -3.499 
-6.204 -8.303 -5.098001 -6.043 -11.8524 -16.975 -14.39 -8.546 
-9.347501 -8.5705 -6.307 -12.0303 -18.0249 -20.4335 -14.39 
-9.918501 -9.865001 -12.6553 -18.2028 -21.4834 -20.4335 
-1.4985 -3.8495 -1.7565 -3.873 -5.3 -4.6805 -1.7565 -5.0875 -3.499 0 
-4.7095 -4.8135 -5.002 -8.074501 -9.619 -4.722 -7.596001 -8.546 -3.499 
-5.4685 -8.2735 -9.482 -12.6449 -9.6785 -10.4675 -9.715001 -8.546 
-9.7025 -14.1107 -14.212 -12.7044 -15.8012 -12.5865 -9.715001 
-15.9981 -18.8407 -14.2715 -18.8271 -17.9202 -12.5865 
-3.1015 -10.5165 -2.8645 -5.0875 -3.499 
-14.5298 -13.5 -8.6745 -8.546 
-17.5133 -19.31 -12.9956 
-23.3233 -23.6311 
-27.6444 
-7.0125 -2.4945 -5.0875 -3.499 0 
-9.009001 -9.1625 -8.546 -3.499 
-15.7684 -12.6994 -8.546 
-19.3053 -12.6994 
-19.3053 
