-4.759 
n/a 
n/a 
n/a 
n/a 
-4.759 
n/a 
n/a 
n/a 
n/a 
-4.759 
n/a 
n/a 
n/a 
n/a 
-4.759 
n/a 
n/a 
n/a 
n/a 
-4.9825 -2.186 -4.4865 -3.93 -3.1575 -3.4225 -4.0965 0 -3.982 -1.756 -3.9465 
-6.6105 -5.789001 -6.023 -4.9745 -7.625 -4.2 -4.0965 -3.982 -5.4715 -5.895 
-9.3925 -7.051001 -6.581501 -9.469001 -9.157001 -4.2 -5.560501 -5.4715 -6.823 
-9.987 -7.276 -11.2834 -11.1416 -9.157001 -5.561 -7.821501 -6.823 
-10.1865 -12.1879 -12.956 -11.1416 -10.6896 -7.823 -8.536 
-4.9825 -12.16972 0 -8.7015 -1.756 -3.9465 -3.183 -7.259501 
-18.41782 -12.16972 -8.7015 -10.389 -5.895 -7.636001 -10.8415 
-18.41782 -20.87122 -10.389 -14.528 -9.071001 -15.7235 
-27.11932 -22.55872 -14.528 -17.704 -17.3319 
-28.80682 -26.69772 -17.704 -25.9649 
-9.1055 -2.186 -4.4865 -4.099 -3.1575 -3.4225 -4.0965 0 -3.982 -1.756 -3.9465 0 
-10.077 -5.789001 -6.9395 -4.7895 -7.625 -4.2 -4.0965 -3.982 -5.4715 -5.895 -3.9465 
-13.4615 -7.855 -7.2905 -10.078 -9.157001 -4.2 -5.560501 -5.4715 -6.823 -5.895 
-15.1546 -7.9865 -12.8886 -11.5704 -9.157001 -5.561 -7.821501 -6.823 -6.823 
-15.3113 -13.716 -14.381 -11.5704 -10.6896 -7.823 -8.536 -6.823 
-4.9825 -3.4225 -3.468 0 -3.982 0 -1.756 -3.9465 -1.7695 -3.628 -3.299 
-8.7155 -3.628 -3.468 -3.982 -3.982 -1.756 -5.895 -6.255 -6.171 -6.917001 
-8.922501 -3.628 -6.405 -3.982 -5.4715 -5.895 -7.538001 -10.281 -10.476 
-8.922501 -6.417 -6.405 -5.4715 -6.823 -7.538001 -11.7722 -14.9734 
-11.9239 -6.417 -7.749001 -6.823 -8.4785 -11.7722 -16.4646 
