-4.759 
n/a 
n/a 
n/a 
n/a 
-4.759 
n/a 
n/a 
n/a 
n/a 
-4.759 
n/a 
n/a 
n/a 
n/a 
-4.759 
n/a 
n/a 
n/a 
n/a 
-4.518 -3.7455 -2.229 -5.377 -2.186 -3.826 -5.377 0 
-4.659 -5.1945 -6.963 -6.931 -6.248 -7.297501 -5.377 
-6.1035 -8.204 -8.252001 -9.212001 -10.543 -7.297501 
-9.1455 -9.710501 -10.0005 -13.6584 -10.543 
-10.7185 -11.459 -14.3389 -13.6584 
-3.299 -3.7455 -4.0175 -2.186 -1.4985 -3.826 -3.8235 0 
-5.544001 -6.026 -5.602 -3.339 -4.4325 -6.333 -3.8235 
-7.441501 -7.7335 -7.2135 -6.105 -6.599501 -6.333 
-9.333501 -9.144 -8.599001 -8.070001 -6.599501 
-10.543 -10.7021 -10.0125 -8.070001 
-1.934 -2.5685 -1.7565 -3.1495 -4.518 -3.7455 -4.6875 -2.186 -1.4985 -3.826 -2.871 0 
-4.244 -3.887 -3.914 -8.295 -4.659 -6.732 -6.1635 -3.339 -4.4325 -6.859 -2.871 
-5.389 -5.079 -8.926001 -8.5765 -7.9345 -8.3535 -7.7085 -6.105 -7.0395 -6.859 
-6.523001 -10.6875 -9.154 -12.5572 -9.8015 -9.953501 -9.3415 -8.1635 -7.0395 
-12.5507 -10.9155 -13.2567 -14.4242 -11.4219 -11.8175 -11.8138 -8.1635 
-1.934 -2.5685 -3.1495 -4.518 -3.7455 -5.301 -2.186 -3.826 
-4.244 -4.8995 -8.295 -4.659 -7.479 -6.637 -6.248 
-6.272501 -10.287 -8.5765 -8.336 -9.144501 -9.283501 
-12.1308 -10.6315 -12.9587 -9.887501 -11.9792 
-12.4753 -15.0137 -14.5102 -12.8046 
