-4.759 
n/a 
n/a 
n/a 
n/a 
-4.759 
n/a 
n/a 
n/a 
n/a 
-4.759 
n/a 
n/a 
n/a 
n/a 
-4.759 
n/a 
n/a 
n/a 
n/a 
-8.2015 -2.7295 -3.6645 
-10.9855 -6.075 
-14.331 
n/a 
n/a 
0 -4.721 -3.6905 -11.0555 -10.437 0 -3.3155 -10.4975 
-4.721 -9.7605 -15.7222 -21.4925 -10.437 -3.3155 -14.7808 
-9.7605 -21.7922 -26.1592 -21.4925 -13.8749 -14.7808 
-21.7922 -32.2292 -26.1592 -24.9304 -25.3402 
-32.2292 -32.2292 -29.5971 -36.3957 
-12.16972 -9.045501 -12.16972 -9.101001 -2.186 -10.312 
-21.21522 -21.47482 -21.27072 -12.1106 -13.7084 
-33.64454 -30.57582 -24.28032 -23.633 
-42.74554 -33.58542 -35.80272 
-45.75514 -45.10782 
-12.16972 -2.186 -3.757 -3.301 -3.644 -10.4975 
-14.35572 -4.779 -6.134501 -7.281 -14.8459 
-16.94872 -6.635 -9.786 -18.4859 
-18.80472 -10.1725 -20.9909 
-22.34222 -21.3774 
