-4.759 
n/a 
n/a 
n/a 
n/a 
-4.759 
n/a 
n/a 
n/a 
n/a 
-4.759 
n/a 
n/a 
n/a 
n/a 
-4.759 
n/a 
n/a 
n/a 
n/a 
-2.4265 -2.186 -4.7815 -2.3335 -7.912 0 -8.164001 -1.756 -8.013 -4.6805 -2.4945 -2.5685 -4.5315 0 
-3.292 -5.5035 -5.3995 -10.7025 -7.912 -8.164001 -9.844501 -10.2755 -10.6215 -6.905 -4.6335 -7.3135 -4.5315 
-6.001 -6.1675 -14.2481 -10.7025 -10.586 -9.844501 -18.42 -12.884 -12.846 -9.077001 -7.763 -7.3135 
-6.17 -15.1189 -14.2481 -13.3765 -12.2665 -18.42 -21.0285 -15.1085 -15.018 -12.4191 -7.763 
-15.1218 -15.1189 -16.9221 -15.057 -20.842 -21.0285 -23.253 -17.2805 -18.3601 -12.4191 
-3.135 -4.9225 -4.1585 -5.6695 0 -9.196501 0 -9.758 -2.4945 -4.5315 
-7.305501 -9.3985 -10.3545 -5.6695 -9.196501 -9.196501 -9.758 -12.3603 -7.0505 
-12.1005 -15.6465 -10.3545 -15.5906 -9.196501 -19.2879 -12.3603 -16.9163 
-18.3485 -15.6465 -20.2756 -15.5906 -19.2879 -21.8902 -16.9163 
-18.3485 -25.5676 -20.2756 -25.682 -21.8902 -26.4462 
-2.4265 -2.186 -3.074 -4.7205 -2.3335 -1.4985 -7.2555 0 -7.4885 -1.756 -8.3415 -3.152 -4.5315 0 
-3.292 -4.156 -6.6125 -5.6095 -3.3515 -8.771501 -7.2555 -7.4885 -8.7505 -9.246 -9.904 -7.469501 -4.5315 
-4.91 -7.893001 -6.9835 -6.228 -10.8633 -8.771501 -9.910501 -8.7505 -9.794001 -10.689 -14.2851 -7.469501 
-8.1245 -8.274 -7.558 -13.8822 -10.8633 -10.2925 -10.13 -9.794001 -10.7525 -15.0701 -14.2851 
-8.276501 -8.8255 -15.2916 -13.8822 -12.3843 -10.3775 -10.32 -10.7525 -15.1336 -15.0701 
-3.074 -3.264 -2.3335 -7.462 -6.864 -8.2205 -3.152 -4.5315 
-5.5595 -4.533 -10.7025 -9.424001 -10.5035 -12.1289 -7.469501 
-6.054 -13.3164 -12.6645 -13.8227 -14.4119 -16.4464 
-14.8894 -15.2784 -17.0632 -17.7311 -18.7294 
-16.8514 -19.6771 -20.9716 -22.0486 
