-4.759 
n/a 
n/a 
n/a 
n/a 
-4.759 
n/a 
n/a 
n/a 
n/a 
-4.759 
n/a 
n/a 
n/a 
n/a 
-4.759 
n/a 
n/a 
n/a 
n/a 
-4.77 -3.5385 -2.3345 -5.1185 -3.277 -3.222 -5.4455 -4.507 0 -4.124 -4.6815 -1.8085 -5.1875 -4.1985 -2.5045 -12.16972 -1.756 -3.3715 -2.8965 -3.2775 -6.2515 -4.9105 -5.009 -2.3335 -3.152 -4.504 -2.9905 -3.7015 -6.4735 -3.43 -3.595 -3.9335 -3.0415 -3.4915 -1.7695 -6.927001 -2.356 -2.985 -4.0195 
-7.5045 -5.9275 -6.503 -6.906 -5.219501 -7.5205 -8.946001 -4.507 -4.124 -9.366 -6.764 -6.6265 -8.845501 -6.0755 -15.36922 -13.92572 -4.6545 -4.827001 -5.941 -9.345501 -9.190001 -7.12 -6.551001 -4.664001 -5.952001 -4.8085 -5.940001 -8.425501 -9.431001 -5.679 -6.6095 -5.7875 -4.39 -5.051 -7.743001 -7.044001 -4.4615 -6.4595 
-9.474501 -9.524 -7.998501 -7.84 -8.631001 -10.6465 -8.946001 -9.969501 -9.366 -11.8627 -12.0154 -9.627001 -11.0385 -19.17362 -17.12522 -16.82422 -5.28 -7.621 -12.0284 -12.3716 -11.5133 -8.573 -8.098001 -7.534 -6.048 -7.508 -11.1668 -11.5548 -12.248 -7.12 -8.329 -6.853001 -5.7455 -10.27 -7.85 -8.768001 -8.314 
-13.2284 -9.9045 -8.72 -10.634 -12.0918 -10.6465 -14.6741 -15.3373 -11.8627 -17.1141 -15.0159 -11.82 -24.13662 -20.92962 -20.02372 -17.44972 -8.051001 -13.9814 -15.0545 -14.6949 -12.9663 -10.085 -11.2228 -7.716001 -8.536 -13.03 -14.2961 -14.3718 -13.689 -8.610001 -9.165501 -9.710501 -11.2377 -10.29 -9.510501 -10.0715 
-13.6089 -10.3525 -11.571 -14.0948 -12.0918 -16.3746 -20.0419 -17.834 -17.1141 -20.1146 -17.2089 -24.91812 -25.89262 -23.82812 -20.64922 -20.22072 -14.589 -17.0075 -17.3778 -16.1479 -14.4783 -13.3188 -11.4048 -9.571 -14.0968 -16.1593 -17.1131 -15.8128 -15.179 -9.315001 -12.5152 -15.5841 -11.2577 -12.4803 -10.576 
-2.9805 -3.251 -3.4155 -3.554 -1.756 -5.278 -3.893 -1.4985 -5.1845 -3.1385 -3.4985 -4.282 -5.009 -2.3335 -3.736 -2.229 -3.152 -5.036 -3.222 -3.7685 -4.507 -4.7885 0 -1.8085 -4.1885 -2.7415 -4.493 -2.3345 -5.166 -3.4985 -2.9805 -2.7415 -1.934 -4.703 -3.1715 0 
-4.429 -6.081 -6.427 -4.9115 -6.693 -8.6525 -4.573 -6.5205 -7.4095 -6.4395 -7.625 -10.19 -6.551001 -6.1955 -4.8735 -5.943501 -6.5655 -6.124001 -6.9685 -7.9465 -9.5495 -4.7885 -1.8085 -6.245 -7.495001 -5.5985 -5.523 -6.3695 -8.269501 -5.3305 -4.004 -4.5155 -7.1065 -8.138 -3.1715 
-7.352 -8.849001 -7.486 -7.8555 -10.038 -9.150001 -9.555 -7.6315 -10.2435 -10.634 -13.9694 -11.8412 -11.2116 -7.24 -9.946 -9.535501 -7.2725 -9.155001 -10.459 -13.1472 -9.5495 -7.303 -6.245 -8.727 -9.967001 -6.3755 -8.9665 -10.2085 -9.824501 -5.8235 -5.5885 -10.19 -10.0815 -8.138 
-9.586 -9.538 -10.057 -10.621 -10.44 -14.5402 -10.027 -10.31 -14.438 -16.9784 -15.6206 -16.5018 -12.2561 -12.6111 -13.538 -10.555 -9.262501 -13.4213 -15.6597 -13.1472 -12.086 -11.9921 -8.727 -11.2928 -10.4555 -9.762 -10.575 -11.9995 -9.993001 -6.7415 -11.5752 -13.165 -10.0815 
-10.271 -12.372 -13.1471 -11.023 -15.8302 -15.0122 -12.7055 -14.5045 -20.7824 -18.6296 -20.2812 -17.5463 -17.6272 -16.2031 -14.5575 -12.545 -14.5992 -18.622 -15.6597 -15.6837 -16.7751 -14.4741 -11.2928 -11.7813 -13.842 -10.5775 -13.5008 -12.168 -11.6372 -13.1554 -14.5502 -13.165 
-2.9805 -6.0065 -3.383 -4.18 -3.034 -2.9805 -4.215 -5.009 -2.264 -3.043 -4.257 -3.711 -4.4885 -3.535 -3.5385 -2.3345 -5.1185 -3.277 -2.264 -9.290501 -12.16972 0 -1.8085 -5.1875 -3.0695 -2.7415 -4.493 -3.034 -7.8395 -4.6815 -1.934 -12.16972 
-9.068501 -10.0255 -6.1665 -5.721001 -4.4605 -5.943 -9.978001 -7.048 -4.4475 -8.373001 -6.821 -7.9025 -7.969501 -6.058 -5.9275 -6.503 -6.906 -5.0225 -12.5865 -21.68522 -12.16972 -1.8085 -6.6265 -8.252001 -4.6395 -5.5985 -6.351 -9.394 -12.9638 -5.9375 -15.11012 
-13.3323 -12.809 -8.703001 -8.499001 -6.576 -11.9752 -12.2116 -10.553 -9.772 -10.6095 -11.4745 -11.8501 -9.0485 -8.311 -9.524 -7.998501 -8.344501 -15.9808 -24.98122 -21.68522 -13.97822 -6.6265 -8.746 -9.4545 -6.5775 -7.0105 -13.3964 -14.5683 -14.2198 -19.82462 
-16.1158 -15.3455 -9.547001 -9.940001 -12.9132 -14.2088 -15.7166 -15.8775 -12.1793 -15.263 -15.4221 -12.9291 -11.7099 -12.2403 -9.9045 -9.5825 -19.9174 -28.37552 -24.98122 -23.49372 -18.79622 -8.746 -9.8915 -11.4435 -8.125501 -14.5961 -18.5707 -15.8243 -28.10692 
-18.6523 -16.1895 -10.234 -16.5006 -15.1468 -17.7138 -21.0411 -18.2848 -16.8328 -19.2106 -16.5011 -15.5905 -15.6392 -12.6208 -11.6891 -21.1222 -32.31212 -28.37552 -26.78972 -28.31172 -20.91572 -9.8915 -11.8805 -12.9915 -15.8177 -19.7704 -19.8267 -29.71142 
-6.414001 -4.0745 -4.4955 -2.3335 -3.091 -3.956 -2.7415 -4.413 -2.3345 -4.697 -3.8385 -5.027 0 -4.2855 -3.851 -1.7695 -1.8085 -4.2635 -2.5045 -3.639 -3.787 -3.0365 -2.4945 -3.074 -5.1655 -2.3335 -2.9805 -2.7415 -4.8645 -1.4985 -4.628 -5.939 -4.257 -4.7205 -1.7695 -2.674 -3.557 -3.091 -3.7435 -1.934 -1.8085 -5.459 -1.4985 -4.628 -5.939 -4.257 -4.0925 -3.9515 -1.756 -3.5585 -1.7565 -2.9325 -2.925 -4.7205 -2.7415 -7.009 -2.229 -3.7435 -5.0125 -2.264 -1.8085 -6.1065 0 -5.139 -2.3345 -4.744 -1.4985 -5.6925 -2.7415 -5.1505 -1.934 -7.009 -2.229 -4.7255 0 -3.251 -7.009 -2.229 -4.606 0 -1.756 -3.251 -1.8085 -3.6885 -5.072 -5.1025 -1.934 -3.1435 -5.712 
-6.656001 -7.4775 -5.142 -4.9605 -5.4375 -6.064 -6.061501 -4.6955 -6.748 -7.593 -6.665501 -5.027 -4.2855 -6.853 -4.0015 -3.41 -5.397 -5.5455 -6.281 -6.349501 -6.9645 -3.688 -4.4205 -8.396501 -6.2035 -4.1515 -4.004 -6.3215 -6.174 -6.298 -5.9615 -7.556 -8.363001 -5.695 -3.8225 -4.9945 -6.1685 -5.6315 -5.557 -3.2685 -7.0975 -7.033 -6.298 -5.9615 -7.556 -8.341 -8.219501 -5.1495 -4.8085 -5.577 -4.416 -4.4605 -6.565001 -7.059 -9.8225 -7.806 -5.463 -7.685 -6.002 -3.5925 -6.929501 -6.1065 -5.139 -5.2295 -6.856501 -6.497001 -6.441501 -7.467 -6.6265 -5.761 -9.609 -7.806 -6.654 -4.7255 -3.251 -10.4855 -7.806 -6.2 -4.606 -1.756 -4.834 -4.1695 -4.3555 -8.583501 -7.4215 -6.823501 -4.335 -7.856 
-9.540001 -7.6795 -7.641 -7.3975 -6.8995 -7.571 -6.1355 -8.25 -9.880501 -8.56 -6.665501 -9.062 -6.853 -6.8725 -5.1365 -7.656001 -6.094 -8.082001 -6.761001 -8.953001 -7.343501 -5.288 -8.748501 -8.740001 -7.1665 -5.077 -7.535 -7.798501 -11.4665 -6.5895 -7.575 -10.3615 -9.280001 -6.2655 -6.415 -7.646501 -7.8975 -7.1645 -6.653 -8.0915 -8.6875 -12.2291 -6.5895 -7.575 -10.688 -10.757 -9.3365 -6.1635 -6.453001 -8.299 -5.7565 -7.830501 -7.9845 -14.4612 -10.1755 -9.3135 -8.457001 -8.2545 -6.9635 -7.172 -6.929501 -10.2535 -5.2295 -8.474001 -8.575001 -10.6605 -7.906001 -9.698501 -6.976 -14.4528 -9.7205 -12.8496 -6.654 -8.245001 -10.4855 -11.2825 -12.3956 -6.2 -5.805 -4.834 -5.641 -6.5215 -9.128 -10.259 -8.135 -8.922001 -9.0515 
-9.7075 -10.2805 -9.7825 -7.844501 -8.469501 -7.6245 -9.3975 -11.5649 -9.976001 -8.56 -10.6735 -10.648 -6.8725 -7.904 -9.6315 -8.797001 -9.396501 -8.121 -9.190001 -9.554001 -8.734 -8.751 -9.028501 -9.9335 -8.1055 -8.859501 -9.066 -13.1896 -11.758 -7.788501 -10.3605 -11.2785 -9.406501 -7.8565 -8.237501 -9.7085 -8.7475 -7.922 -11.8606 -9.684001 -13.9924 -12.5206 -7.788501 -10.717 -13.104 -11.874 -10.2655 -6.987 -9.165001 -9.474 -8.893001 -8.507501 -15.4725 -14.8142 -11.683 -12.6341 -9.042001 -9.232 -8.8415 -7.172 -10.396 -10.2625 -8.474001 -10.0675 -12.7831 -12.125 -9.867001 -9.807 -16.0588 -14.5643 -14.6647 -12.8496 -9.513 -15.6627 -11.2825 -15.8721 -12.3956 -7.287 -8.6885 -5.641 -7.8525 -10.5635 -10.368 -10.697 -10.163 -10.7575 
-12.3351 -12.422 -10.197 -9.057501 -8.5085 -10.5525 -12.7314 -11.6604 -9.976001 -12.8658 -12.2595 -10.67 -7.904 -12.5796 -10.7435 -12.4555 -9.995501 -10.609 -9.696001 -10.4205 -12.3022 -9.029 -10.097 -10.679 -12.208 -10.622 -14.6161 -13.4811 -12.957 -10.396 -11.2775 -11.405 -10.7615 -9.856501 -10.4755 -10.6895 -9.2885 -13.3094 -13.4531 -15.0105 -14.2839 -13.7196 -10.7575 -13.133 -14.221 -12.803 -10.6315 -9.736501 -10.382 -12.7009 -9.502001 -16.3001 -15.8255 -16.3217 -15.0036 -13.2191 -9.899501 -10.61 -8.8415 -10.4585 -10.4085 -13.507 -10.0675 -14.2756 -14.2476 -14.086 -9.948501 -18.95 -16.1703 -19.5085 -14.6647 -15.7086 -17.0381 -16.4597 -15.8721 -15.8721 -13.4826 -9.5795 -9.582001 -7.8525 -11.9913 -11.8035 -10.7715 -12.725 -12.1063 
