-4.759 
n/a 
n/a 
n/a 
n/a 
-4.759 
n/a 
n/a 
n/a 
n/a 
-4.759 
n/a 
n/a 
n/a 
n/a 
-4.759 
n/a 
n/a 
n/a 
n/a 
-6.144 0 -5.3745 -1.7565 -4.891 -1.7565 -5.1845 -6.844 0 -2.186 -2.871 -1.7565 -1.4985 -4.2995 -2.3335 -4.254 -3.7015 -6.899 -6.0655 
-6.144 -5.3745 -6.2675 -7.001501 -6.8725 -6.580501 -6.9655 -6.844 -2.186 -4.247 -3.5385 -2.4195 -5.2815 -6.139 -5.936 -7.0835 -10.1425 -9.6555 
-8.506001 -6.2675 -9.7705 -9.300501 -7.181 -7.1625 -6.9655 -8.728001 -4.247 -4.411 -3.7675 -6.1455 -7.245501 -9.349 -8.355 -13.9789 -12.899 
-10.634 -9.7705 -9.7945 -9.785001 -7.202001 -7.1625 -8.945001 -11.0136 -4.411 -4.5655 -8.174001 -7.943501 -10.6761 -12.2352 -15.201 -16.7354 
-14.865 -9.7945 -9.799001 -9.800501 -7.202001 -9.2805 -11.2124 -11.1776 -4.5655 -9.522 -10.8282 -11.4639 -13.5623 -19.0812 -17.9575 
-5.3745 -4.891 -2.186 -4.8255 -3.9205 -2.5045 -5.3745 -4.891 -1.7565 -5.1845 -6.844 0 -5.3745 -4.891 -1.7565 -5.1845 -6.844 0 -1.934 -6.6585 0 -2.3615 -3.9235 -2.186 -3.7015 -1.4985 -3.5435 
-7.061501 -7.785 -7.369 -5.7745 -4.449 -7.9455 -7.061501 -6.8725 -6.580501 -6.9655 -6.844 -5.3745 -7.061501 -6.8725 -6.580501 -6.9655 -6.844 -1.934 -7.809 -6.6585 -2.3615 -5.7745 -5.6195 -5.937 -4.3435 -4.2755 
-10.2755 -13.1856 -7.6245 -5.783 -9.221001 -10.1265 -7.1715 -7.181 -7.1625 -6.9655 -8.695001 -7.061501 -7.1715 -7.181 -7.1625 -6.9655 -7.721 -7.809 -7.809 -9.6415 -5.7745 -6.5635 -9.374001 -6.34 -6.466001 
-15.6761 -13.4411 -7.6265 -10.9376 -10.5755 -10.26 -7.185 -7.202001 -7.1625 -8.7215 -9.703501 -7.1715 -7.185 -7.202001 -7.1625 -7.7355 -14.839 -7.809 -10.031 -13.2093 -6.5635 -10.634 -9.778001 -8.9575 
-15.9316 -13.4431 -13.6969 -12.2921 -10.594 -10.269 -7.2055 -7.202001 -9.688001 -9.724501 -9.768001 -7.185 -7.2055 -7.202001 -8.804001 -15.0305 -14.839 -10.031 -13.7248 -13.9983 -10.634 -11.038 -12.4423 
-5.3745 -4.891 -1.7565 -5.1845 -6.844 -4.281 -2.5045 -5.3745 -4.891 -2.186 -2.664 -3.699 -3.2795 -3.7015 -4.628 -4.743 -3.5435 
-7.061501 -6.8725 -6.580501 -6.9655 -12.0636 -5.893 -7.9455 -7.061501 -7.785 -3.8555 -4.654 -7.133 -7.184 -7.4895 -4.7515 -7.819 
-7.1715 -7.181 -7.1625 -12.3545 -13.6756 -11.6948 -10.1265 -10.2755 -9.422001 -5.2675 -7.6395 -11.8275 -11.4608 -7.528 -7.830501 
-7.185 -7.202001 -12.7593 -13.9665 -19.4774 -13.8758 -13.2681 -11.9125 -10.8916 -8.684501 -12.8652 -16.1043 -11.4993 -10.3815 
-7.2055 -12.9084 -14.3713 -19.7683 -21.6584 -17.0174 -14.9051 -13.3821 -14.3086 -13.7734 -17.142 -16.1428 -14.3528 
-5.3745 -4.891 -1.7565 -5.1845 -6.844 -2.4945 -5.7585 -4.5675 -1.934 -4.628 -4.743 -5.3255 -1.4985 -3.5435 0 
-7.061501 -6.8725 -6.580501 -6.9655 -9.4645 -9.271501 -9.0375 -6.215 -5.9605 -4.7515 -10.8215 -6.301001 -4.2755 -3.5435 
-7.1715 -7.181 -7.1625 -9.5425 -16.2987 -12.5015 -9.9355 -9.345 -5.9845 -10.9248 -11.797 -8.184501 -4.2755 
-7.185 -7.202001 -9.569501 -16.3825 -19.5287 -13.3995 -13.4755 -9.3485 -12.4042 -11.9003 -13.6805 -8.184501 
-7.2055 -9.613001 -16.4145 -19.6125 -20.4267 -16.9395 -13.479 -15.8356 -13.3797 -13.7838 -13.6805 
