-4.759 
n/a 
n/a 
n/a 
n/a 
-4.759 
n/a 
n/a 
n/a 
n/a 
-4.759 
n/a 
n/a 
n/a 
n/a 
-4.759 
n/a 
n/a 
n/a 
n/a 
-3.74 0 -5.1845 -3.8195 -4.7275 
-3.74 -5.1845 -6.896501 -6.9615 
-9.783001 -6.896501 -9.574501 
-11.849 -9.574501 
-14.527 
-3.845 0 -5.1845 -3.8195 -4.7275 
-3.845 -5.1845 -6.896501 -6.9615 
-9.918001 -6.896501 -9.574501 
-11.723 -9.574501 
-14.401 
-3.717 0 -5.1845 -3.8195 -4.7275 
-3.717 -5.1845 -6.896501 -6.9615 
-8.818501 -6.896501 -9.574501 
-10.7025 -9.574501 
-13.3805 
-3.473 0 -5.1845 -3.8195 -4.7275 
-3.473 -5.1845 -6.896501 -6.9615 
-8.821 -6.896501 -9.574501 
-11.0554 -9.574501 
-13.7334 
