-4.759 
n/a 
n/a 
n/a 
n/a 
-4.759 
n/a 
n/a 
n/a 
n/a 
-4.759 
n/a 
n/a 
n/a 
n/a 
-4.759 
n/a 
n/a 
n/a 
n/a 
-7.299 0 -6.3215 0 -10.4135 -1.756 -5.914001 -4.375 -2.5045 -1.4985 -4.677 -12.456 -5.2915 -2.5045 -1.4985 -7.053 -4.1115 -3.602 -2.186 -4.1955 -4.4525 0 
-7.299 -6.3215 -6.3215 -10.4135 -12.1695 -7.656 -11.08 -6.1895 -3.583 -5.4395 -18.3344 -15.9034 -7.049 -3.1915 -8.9315 -10.598 -7.2495 -5.1035 -5.1285 -6.512001 -4.4525 
-8.852 -6.3215 -17.6234 -12.1695 -18.0695 -13.196 -12.8945 -7.3865 -7.610001 -19.5197 -20.9702 -17.6609 -7.7025 -10.7175 -12.8119 -14.2196 -9.449501 -7.979001 -7.561501 -6.512001 
-8.852 -17.6234 -19.3794 -18.0695 -23.6095 -15.0105 -14.0915 -11.7363 -22.2818 -22.0503 -22.7277 -18.3144 -15.5077 -14.5979 -16.4335 -16.4196 -12.4894 -10.9236 -7.561501 
-20.8589 -19.3794 -25.2794 -23.6095 -25.424 -16.2075 -18.4413 -26.4081 -24.5158 -23.8078 -23.3812 -26.1196 -19.3881 -18.2195 -18.6335 -19.4595 -15.434 -10.9236 
-9.315001 0 -6.3215 0 -12.16972 -1.756 -7.0505 -2.4945 -3.2825 -5.585 -3.8955 
-9.315001 -6.3215 -6.3215 -12.16972 -13.92572 -8.8405 -10.089 -5.666 -9.1145 -10.007 
-15.8377 -6.3215 -19.37962 -13.92572 -21.01022 -10.533 -13.2605 -12.3874 -13.9417 
-15.8377 -19.37962 -21.13562 -21.01022 -22.70272 -13.7045 -19.9819 -17.2146 
-28.89582 -21.13562 -28.22012 -22.70272 -25.87422 -20.4259 -24.8091 
-10.462 0 -6.3215 0 -5.9595 -9.907001 -1.756 -10.1965 -3.45 -4.677 -3.699 -11.0615 -4.1115 -3.602 -4.3725 -2.264 -8.289001 -5.2915 -1.756 -4.3725 -2.4265 0 
-10.462 -6.3215 -6.3215 -5.9595 -16.7503 -11.663 -12.9611 -13.6987 -9.124001 -9.352 -15.4165 -17.2736 -7.2495 -8.514501 -5.023001 -10.784 -10.523 -6.937 -5.663 -6.4045 -2.4265 
-16.7835 -6.3215 -13.1694 -16.7503 -18.5063 -22.8681 -16.4633 -19.3727 -13.8864 -22.1815 -21.4616 -20.4116 -12.639 -9.209001 -14.2472 -13.018 -12.1685 -9.75 -6.8085 -6.4045 
-16.7835 -13.1694 -23.9602 -18.5063 -29.7114 -26.3703 -22.1373 -24.1351 -26.7159 -27.3986 -24.5996 -25.8011 -13.3335 -18.8922 -16.4812 -14.6635 -14.9815 -9.9975 -6.8085 
-23.6314 -23.9602 -25.7162 -29.7114 -33.2136 -32.0443 -26.8997 -36.9646 -31.933 -30.5366 -29.9891 -26.4956 -23.0167 -21.1262 -18.1267 -17.4765 -15.229 -9.9975 
-7.299 0 -6.3215 0 -10.4135 -1.756 -5.914001 -2.4945 -4.677 -4.088 -1.4985 -8.214001 -5.2915 -1.934 -10.039 -4.1115 -2.186 -3.074 -1.8085 -3.5015 -1.7695 -2.489 -3.962 
-7.299 -6.3215 -6.3215 -10.4135 -12.1695 -7.656 -8.218 -8.592001 -9.127501 -5.28 -9.844 -9.3205 -6.7705 -12.9794 -14.2313 -6.279 -4.156 -4.639 -4.642 -4.5585 -3.1405 -4.8355 
-8.852 -6.3215 -17.6234 -12.1695 -18.0695 -9.451 -14.6521 -13.1719 -10.8227 -14.2839 -10.3015 -10.5875 -18.2343 -17.1717 -16.3988 -8.2565 -4.962 -6.9615 -5.36 -5.835 -5.52 
-8.852 -17.6234 -19.3794 -18.0695 -19.8645 -16.0457 -19.232 -14.8671 -19.8266 -14.7414 -11.5685 -22.0513 -22.4266 -19.3392 -18.3763 -9.124001 -7.2905 -7.559501 -7.146 -7.7535 
-20.8589 -19.3794 -25.2794 -19.8645 -26.4592 -20.6256 -20.9272 -23.871 -20.2841 -16.0084 -23.0323 -26.2436 -24.5941 -21.3167 -19.2438 -11.5615 -7.973001 -9.602501 -8.617001 
