-4.759 
n/a 
n/a 
n/a 
n/a 
-4.759 
n/a 
n/a 
n/a 
n/a 
-4.759 
n/a 
n/a 
n/a 
n/a 
-4.759 
n/a 
n/a 
n/a 
n/a 
-2.4265 -2.186 -1.4985 -3.6115 -3.7345 -4.9875 -1.7695 -4.2615 -5.26 
-3.292 -3.339 -4.081 -7.472 -5.682 -6.38 -4.7355 -9.308001 
-4.5995 -5.563 -7.779 -8.948501 -7.661 -9.1745 -9.534 
-6.7415 -9.679501 -9.259501 -10.155 -10.0475 -14.2966 
-11.0624 -10.7615 -10.204 -12.9147 -15.0998 
-1.4985 -3.6115 -4.3645 -3.717 -2.3615 -5.26 
-4.081 -7.6905 -9.293 -5.772 -8.3745 
-8.150001 -13.0306 -11.6606 -12.6562 
-13.7017 -15.3982 -18.5448 
-16.0693 -22.2824 
-2.3615 -2.186 -1.4985 -4.255 -4.3645 -3.7825 -4.8 0 
-3.5005 -3.339 -5.3005 -9.2575 -8.145 -8.036 -4.8 
-4.3105 -6.8355 -9.9505 -13.0864 -13.3347 -8.036 
-7.276 -11.8369 -13.8326 -18.2761 -13.3347 
-12.4942 -15.719 -19.0223 -18.2761 
-2.3615 -2.186 -1.4985 -3.6115 -4.3645 -4.024 -1.7695 -5.26 0 
-3.5005 -3.339 -4.081 -7.6905 -8.9125 -4.5525 -7.008 -5.26 
-4.3105 -5.563 -8.150001 -12.6501 -9.823 -9.2485 -7.008 
-6.061 -9.4425 -13.3212 -13.5606 -14.6202 -9.2485 
-10.3955 -14.9003 -14.2317 -18.3578 -14.6202 
