-4.759 
n/a 
n/a 
n/a 
n/a 
-4.759 
n/a 
n/a 
n/a 
n/a 
-4.759 
n/a 
n/a 
n/a 
n/a 
-4.759 
n/a 
n/a 
n/a 
n/a 
-1.934 -2.3335 -2.95 -2.9805 -4.0385 -3.135 -4.447 -5.029 -2.0935 -4.483 -2.985 -4.217 -1.7565 -5.837 -4.63 0 
-4.359 -4.8245 -5.2005 -5.479 -6.593 -7.656001 -9.2115 -6.6335 -8.1 -6.846001 -6.609 -5.8685 -7.971001 -9.64 -4.63 
-6.2115 -6.404 -7.4995 -7.703001 -10.168 -12.8353 -11.3418 -13.3082 -10.5836 -9.3415 -8.966001 -12.904 -12.0734 -9.64 
-7.555501 -8.7025 -9.7655 -11.5092 -15.7735 -14.9656 -18.0165 -15.7918 -13.0791 -11.8055 -16.2593 -17.0064 -12.0734 
-9.8295 -10.749 -13.7529 -17.1147 -17.9038 -21.6403 -20.5001 -18.2873 -15.5431 -19.0988 -20.3617 -17.0064 
-2.3335 -5.5715 -2.9805 -5.198 -2.645 0 -3.0415 -5.392 -3.135 -4.1455 
-7.9245 -7.7005 -6.9265 -8.013 -2.645 -3.0415 -8.822001 -8.52 -6.4725 
-10.1075 -11.8257 -10.1425 -8.013 -5.518001 -8.822001 -12.239 -9.72 
-14.2327 -15.0417 -10.1425 -10.411 -11.8905 -12.239 -13.439 
-17.4487 -15.0417 -12.5405 -17.1303 -15.3075 -13.439 
-2.3335 -2.95 -3.383 -5.1615 -2.3335 -4.483 -1.7565 -4.217 -2.9805 -7.962501 -3.135 -4.447 -4.1455 0 
-4.8245 -6.7095 -6.563 -7.455501 -7.085501 -7.897501 -5.525 -6.72 -9.816501 -11.0145 -7.656001 -7.6795 -4.1455 
-8.079 -9.828001 -8.9965 -12.7149 -11.4242 -12.244 -7.8685 -13.8992 -13.0499 -15.5355 -10.341 -7.6795 
-11.4481 -12.2615 -14.4615 -17.0536 -15.7707 -14.5875 -15.0303 -17.1326 -17.5709 -18.2205 -10.341 
-13.8816 -17.7265 -18.8002 -21.4001 -18.1142 -21.7493 -18.2637 -21.6536 -20.2559 -18.2205 
-2.5045 -1.4985 -2.95 -2.9805 -5.392 -4.447 -4.1455 0 
-3.1915 -3.9285 -5.2005 -7.8795 -10.7495 -7.6795 -4.1455 
-4.5155 -5.857 -10.0645 -13.6538 -13.982 -7.6795 
-6.408 -11.0332 -15.8388 -16.8863 -13.982 
-11.8034 -16.8075 -19.0713 -16.8863 
