-4.759 
n/a 
n/a 
n/a 
n/a 
-4.759 
n/a 
n/a 
n/a 
n/a 
-4.759 
n/a 
n/a 
n/a 
n/a 
-4.759 
n/a 
n/a 
n/a 
n/a 
-1.934 -6.4185 -3.4795 -3.1385 -3.998 -2.5045 -3.948 -4.033 -2.3335 -3.995 -2.186 -4.356 -1.934 -3.9745 -2.872 -3.6835 -4.0875 -1.8085 -4.07 -1.4985 -3.188 -2.925 -3.557 -2.4265 -2.186 -4.07 -1.934 -3.9745 
-7.367 -6.943 -6.9685 -6.358 -6.549 -5.48 -6.065001 -6.0755 -6.8535 -5.7465 -6.2465 -6.239501 -5.2945 -6.331 -6.995501 -8.8345 -5.0205 -5.524 -5.3895 -3.619 -5.952001 -5.51 -5.193 -3.292 -6.773001 -6.0205 -5.2945 
-7.751 -8.7475 -9.351501 -8.881001 -9.779 -6.5525 -8.613001 -11.2679 -7.6245 -7.3925 -8.0375 -9.576501 -6.997 -9.3605 -12.4309 -9.959001 -8.5495 -7.0465 -6.147 -6.146 -8.617001 -6.8855 -6.839 -7.9515 -8.4025 -9.769 
-9.375501 -10.5535 -12.0239 -12.5694 -11.2567 -8.897 -13.8246 -12.0389 -9.467 -9.511001 -10.476 -11.3332 -10.389 -15.0665 -13.5554 -13.6032 -9.9455 -7.4225 -9.157001 -8.837001 -9.869501 -9.102 -11.8711 -9.301001 -10.6215 
-11.2661 -13.2259 -15.7123 -14.0471 -13.6012 -14.1762 -14.5956 -13.8814 -11.6553 -11.9747 -12.2327 -14.7252 -16.095 -16.191 -17.1996 -14.9992 -10.014 -11.2199 -11.8398 -10.292 -12.2798 -14.2655 -13.2206 -11.7914 
-1.934 -4.5735 -3.4795 0 -3.1385 -4.1205 -2.3335 -1.4985 -3.995 -2.7415 -4.356 -2.872 -3.2615 -4.0225 -3.6215 -1.4985 -3.995 0 -3.6385 -4.6275 -2.3335 -3.995 -2.186 -4.07 0 
-5.86 -7.4725 -3.4795 -3.1385 -7.371 -5.9915 -3.3515 -4.712 -6.3075 -6.7295 -6.871 -5.3645 -6.504 -6.697001 -4.094 -4.712 -3.995 -3.6385 -7.726501 -5.4795 -6.8535 -5.7465 -6.773001 -4.07 
-7.932 -7.4725 -6.9685 -7.371 -8.8055 -6.5335 -6.432 -6.516001 -7.7275 -8.462 -9.324 -8.261001 -9.451 -7.502501 -6.849 -4.712 -7.654 -7.726501 -8.8395 -9.400001 -7.6245 -7.691 -6.773001 
-7.932 -9.666 -10.586 -8.8055 -9.526501 -10.0375 -7.3125 -7.741501 -9.208 -10.476 -12.3275 -11.407 -9.827001 -10.6819 -6.849 -8.238501 -12.1016 -8.8395 -12.9724 -10.1045 -9.4405 -7.691 
-9.969001 -13.4113 -12.0205 -9.526501 -13.0305 -10.8862 -8.158501 -9.214001 -11.4496 -13.4795 -15.4735 -11.783 -13.0064 -10.6819 -10.3155 -12.9677 -13.2146 -12.9724 -13.6769 -12.0637 -9.4405 
-4.532 -4.205 -6.55 -3.7345 0 -3.957 0 -4.962 0 -3.7805 0 -4.6595 0 -2.4285 -4.0275 -4.16 -1.934 -3.333 -1.7695 -4.4075 -5.5925 -5.5615 
-8.775 -10.6885 -9.6775 -3.7345 -3.957 -3.957 -4.962 -4.962 -3.7805 -3.7805 -4.6595 -4.6595 -2.4285 -6.758501 -7.908 -5.404 -3.9835 -4.022 -4.624 -9.373001 -8.4545 
-15.4459 -13.816 -9.6775 -7.384501 -3.957 -8.197001 -4.962 -8.161 -3.7805 -7.4095 -4.6595 -7.1925 -6.758501 -9.785001 -9.217 -7.356 -4.0425 -5.868 -9.4855 -10.6225 
-18.5734 -13.816 -10.705 -7.384501 -8.197001 -8.197001 -8.161 -8.161 -7.4095 -7.4095 -7.1925 -10.6345 -9.785001 -10.6245 -10.4595 -7.456501 -5.8705 -10.6465 -10.648 
-18.5734 -14.8435 -10.705 -10.1225 -8.197001 -10.1265 -8.161 -9.832001 -7.4095 -9.81 -10.6345 -10.724 -10.6245 -10.7815 -10.4825 -8.984 -10.6465 -10.779 
-1.4985 -4.4385 -1.7565 -1.4985 -3.995 -2.186 -3.383 -3.639 -1.7695 -2.3335 -1.7565 -2.664 -6.8885 -6.8545 0 -1.8085 -5.057 -5.9135 -3.9485 -1.4985 -4.764 -2.5195 -4.918 -1.7695 -4.918 -3.2775 -2.3335 -3.0365 -2.186 -1.8085 -6.055501 -3.6215 -1.4985 -5.936 
-5.331 -5.339001 -2.4195 -4.712 -5.7465 -4.438 -5.513 -4.539 -4.46 -4.618 -3.9595 -7.7955 -7.981 -6.8545 -1.8085 -6.384 -9.872 -8.946501 -4.537 -5.909 -7.2565 -7.250501 -6.699 -6.883 -8.651001 -4.922 -4.2925 -3.66 -3.164 -7.2655 -8.706 -4.094 -6.1495 
-5.516 -5.7165 -5.2205 -6.1195 -8.104 -6.392 -5.7485 -6.513 -5.4005 -6.3525 -8.762 -8.3435 -7.981 -8.995001 -6.384 -10.126 -13.093 -9.267501 -7.1055 -8.426001 -10.5325 -7.5565 -7.304501 -10.4505 -9.3605 -6.762 -4.7505 -4.218 -8.5235 -9.275001 -8.960501 -7.8595 
-5.9005 -7.665 -6.912 -8.397 -9.8255 -6.476501 -7.4355 -7.047 -7.035501 -9.662001 -9.147 -8.3435 -9.610001 -10.186 -10.126 -13.4286 -13.414 -10.719 -9.195001 -11.7712 -10.57 -7.619501 -10.533 -10.716 -10.719 -7.0385 -5.2575 -9.030001 -10.6095 -9.4065 -9.762501 
-7.8985 -9.0345 -8.9705 -10.0405 -9.920501 -7.9055 -7.792 -8.6745 -10.354 -9.755501 -9.147 -9.7165 -10.391 -10.7655 -13.4286 -13.7496 -14.8655 -12.8085 -12.6578 -11.8087 -10.5985 -10.543 -10.7345 -10.7715 -10.7605 -7.5525 -10.0215 -10.688 -10.694 -10.21 
