-4.759 
n/a 
n/a 
n/a 
n/a 
-4.759 
n/a 
n/a 
n/a 
n/a 
-4.759 
n/a 
n/a 
n/a 
n/a 
-4.759 
n/a 
n/a 
n/a 
n/a 
-2.5195 -4.71 -5.648 -11.1625 -3.644 -8.1245 -9.825001 -12.16972 -12.16972 -3.8405 0 -3.17 -3.355 -1.7565 -1.4985 -3.995 -4.282 -2.3345 -4.208 -1.756 -3.0365 -2.4945 -3.3715 -4.208 -9.009001 -3.7445 
-6.757 -8.495501 -18.1612 -15.9127 -10.8415 -18.3561 -22.03812 -24.33944 -16.01022 -3.8405 -3.17 -5.4065 -3.725 -2.4195 -4.712 -8.0135 -4.928 -6.5485 -5.7695 -4.484 -3.688 -4.846 -7.994 -14.2544 -12.9663 
-8.6545 -21.1011 -22.0742 -23.1102 -21.0731 -30.56922 -34.20784 -28.17994 -16.01022 -6.755 -5.4065 -6.9365 -4.0515 -5.2205 -8.5725 -8.999001 -7.3645 -7.765 -8.55 -5.1685 -4.8765 -9.469 -18.476 -18.2117 
-21.2989 -25.0141 -29.2717 -33.3418 -33.28622 -42.73894 -38.04834 -28.17994 -18.92472 -9.6629 -6.9365 -7.2915 -6.991 -8.960001 -9.259501 -10.4765 -8.8465 -10.586 -9.507501 -6.2585 -9.508501 -20.0726 -22.4333 
-25.2119 -32.2116 -39.5033 -45.55492 -45.45594 -46.57944 -38.04834 -31.09444 -21.83262 -11.1929 -7.2915 -9.969501 -10.759 -9.390501 -10.8288 -11.9585 -11.9155 -11.5435 -10.689 -11.0495 -20.1297 -24.0299 
-2.5195 -4.71 -4.275 -4.554 -1.756 -5.004 -7.6765 0 -3.17 -3.355 -1.7565 -1.4985 -3.995 -4.282 -2.356 -5.3535 -1.756 -5.3535 -3.9075 -3.152 -3.962 
-6.757 -10.038 -9.692 -6.883501 -7.7035 -13.1881 -7.6765 -3.17 -5.4065 -3.725 -2.4195 -4.712 -8.0135 -5.472 -7.7665 -6.767 -6.8 -9.26 -7.134 -5.9475 
-13.082 -15.455 -12.0599 -9.923 -16.1138 -13.1881 -12.3187 -5.4065 -6.9365 -4.0515 -5.2205 -8.5725 -8.703501 -9.09 -8.5965 -9.762001 -11.4425 -12.8519 -9.963501 
-18.499 -17.8229 -15.0994 -18.9931 -16.1138 -17.8303 -14.5552 -6.9365 -7.2915 -6.991 -8.960001 -9.010501 -12.5061 -9.5915 -11.7937 -14.5649 -15.0344 -15.6814 
-20.8669 -20.8624 -24.1695 -18.9931 -20.756 -20.0668 -16.0852 -7.2915 -9.969501 -10.759 -9.3465 -12.9909 -13.0076 -13.1331 -16.5966 -18.1568 -17.8639 
-4.71 -3.158 -3.0835 -4.5235 -12.16972 -4.739 -4.554 -1.756 -5.004 -3.748 -3.995 -4.138 -3.9035 -2.674 -8.735001 -1.7695 -3.6785 0 
-8.048 -6.4475 -7.940001 -18.01902 -16.90872 -9.8225 -6.883501 -7.7035 -7.4195 -8.700001 -9.264 -8.8405 -6.8075 -10.884 -10.335 -4.268 -3.6785 
-12.0965 -12.0128 -21.83192 -22.75802 -21.99222 -12.7342 -9.923 -9.1675 -12.7009 -14.3602 -14.1083 -12.2409 -15.4177 -12.484 -12.8335 -4.268 
-17.6618 -25.90472 -26.57092 -27.84152 -24.90392 -15.7737 -10.291 -14.6773 -18.3611 -19.2045 -17.5087 -20.8511 -17.0177 -14.9825 -12.8335 
-31.55372 -30.64372 -31.65442 -30.75322 -27.94342 -16.1417 -17.3918 -20.3375 -23.2054 -22.6049 -26.1189 -22.4511 -19.5162 -14.9825 
-2.5195 -4.71 -4.6195 0 -12.16972 -2.3335 -2.186 -4.554 0 -5.004 -3.995 -2.186 -10.22 -2.3345 -5.1425 0 -2.4265 -3.7905 -5.1425 -3.9075 
-6.757 -9.5015 -4.6195 -12.16972 -14.50322 -3.7085 -7.278501 -4.554 -5.004 -10.195 -5.7465 -13.6164 -12.6795 -7.5345 -5.1425 -2.4265 -6.357 -9.750501 -9.711 
-12.5455 -9.5015 -18.05542 -14.50322 -15.87822 -9.222501 -7.278501 -8.759501 -10.195 -11.9465 -17.6747 -16.0759 -17.8795 -7.5345 -7.672501 -6.357 -12.6406 -14.4394 
-12.5455 -23.03242 -20.38892 -15.87822 -21.39222 -9.222501 -11.9584 -14.0651 -11.9465 -23.8747 -20.1342 -21.2759 -17.8795 -9.625501 -12.0898 -12.6406 -17.3295 
-26.07642 -25.36592 -21.76392 -21.39222 -21.39222 -13.976 -17.264 -15.8166 -23.8747 -26.3342 -25.3342 -21.2759 -19.9705 -14.2556 -18.3734 -17.3295 
