-4.759 
n/a 
n/a 
n/a 
n/a 
-4.759 
n/a 
n/a 
n/a 
n/a 
-4.759 
n/a 
n/a 
n/a 
n/a 
-4.759 
n/a 
n/a 
n/a 
n/a 
-1.934 -1.4985 -8.825001 -2.264 -10.105 -2.4265 -2.7415 -3.881 0 -3.469 -3.511 -8.395 0 
-2.6125 -10.001 -10.6215 -13.401 -12.8125 -3.681 -5.344501 -3.881 -3.469 -6.002 -13.1592 -8.395 
-11.5092 -11.7975 -21.7585 -16.1085 -14.067 -6.173 -5.344501 -7.657001 -6.002 -16.1544 -13.1592 
-13.3057 -22.9345 -24.466 -17.363 -16.559 -6.173 -8.2215 -9.872001 -16.1544 -16.1544 
-24.4427 -25.642 -25.7205 -19.855 -16.559 -8.846001 -10.155 -20.2712 -16.1544 
-8.395 -3.511 -3.469 -3.4795 0 -2.4265 -2.186 -1.8085 -4.151 -1.7565 -10.105 -2.9195 -3.7425 0 
-12.6132 -6.416 -6.654 -3.4795 -2.4265 -3.292 -3.164 -7.2025 -6.661 -12.8107 -13.3055 -6.618 -3.7425 
-15.5182 -9.653001 -6.654 -5.817 -3.292 -4.4005 -8.774501 -9.339001 -18.3652 -16.0112 -17.004 -6.618 
-18.7552 -9.653001 -9.0185 -6.5885 -4.4005 -10.194 -10.7575 -21.0632 -21.5657 -19.7097 -17.004 
-18.7552 -12.0111 -9.892 -7.646 -10.194 -12.177 -22.4817 -24.2637 -25.2642 -19.7097 
0 -9.8955 0 -4.151 -1.934 -3.688 -3.852 0 -3.469 -3.3435 -1.7695 -8.395 0 
-9.8955 -9.8955 -4.151 -6.2665 -5.932 -7.3005 -3.852 -3.469 -5.883 -5.263 -10.4425 -8.395 
-9.8955 -14.3907 -6.2665 -9.702001 -10.2545 -7.3005 -7.4905 -5.883 -7.5905 -14.6238 -10.4425 
-14.3907 -16.5062 -9.702001 -14.1983 -10.2545 -11.9958 -10.757 -7.5905 -17.0981 -14.6238 
-16.5062 -19.9417 -14.1983 -14.1983 -14.9498 -15.2623 -12.4645 -17.0981 -17.0981 
0 -5.7475 -5.964 0 -4.151 -9.8555 -12.16972 -7.4845 
-5.7475 -9.654 -5.964 -4.151 -15.2009 -22.21642 -19.65422 
-9.654 -9.654 -10.8215 -15.2009 -27.56182 -29.70092 
-9.654 -14.7171 -21.8714 -27.56182 -35.04632 
-14.7171 -25.767 -34.23232 -35.04632 
