-4.759 
n/a 
n/a 
n/a 
n/a 
-4.759 
n/a 
n/a 
n/a 
n/a 
-4.759 
n/a 
n/a 
n/a 
n/a 
-4.759 
n/a 
n/a 
n/a 
n/a 
-3.135 -3.319 -1.7565 -3.3365 -4.0145 -4.7555 -1.4985 -4.0145 0 
-5.8835 -4.165 -5.3655 -8.199501 -9.416 -5.726 -5.0175 -4.0145 
-5.932 -7.493501 -10.543 -13.9306 -10.6225 -10.0065 -5.0175 
-9.594501 -13.698 -16.2741 -15.1371 -14.903 -10.0065 
-16.0674 -19.4291 -17.4806 -19.4176 -14.903 
-3.135 -3.319 -1.7565 -3.3365 -4.0145 -3.152 -4.7555 0 
-5.8835 -4.165 -5.3655 -8.199501 -6.219501 -10.019 -4.7555 
-5.932 -7.493501 -10.543 -10.3545 -13.6533 -10.019 
-9.594501 -13.698 -12.698 -17.7883 -13.6533 
-16.0674 -15.853 -20.1318 -17.7883 
-3.135 -3.9755 -1.7565 -3.962 -4.0145 -2.674 -3.135 -4.1335 
-6.203 -4.312 -5.9995 -6.441 -6.318 -4.7595 -6.489 
-6.2435 -8.620501 -7.2915 -9.602501 -8.925 -8.672501 
-10.609 -10.6345 -10.702 -12.2561 -13.116 
-12.623 -14.045 -13.3556 -16.4471 
-3.486 -3.319 -1.7565 -3.3365 -5.0595 -9.469501 -2.7765 -3.098 -3.013 -1.4985 -3.6505 
-5.7975 -4.165 -5.3655 -9.199501 -16.2835 -13.0765 -4.7155 -5.5995 -4.488 -4.8975 
-6.1045 -7.493501 -10.4765 -20.4427 -19.5238 -14.7958 -6.507501 -6.873 -7.9345 
-10.089 -13.6315 -21.7197 -23.683 -21.0843 -17.0568 -8.0895 -10.1855 
-16.227 -24.8747 -24.96 -25.2435 -23.3453 -18.6388 -11.7412 
