-4.759 
n/a 
n/a 
n/a 
n/a 
-4.759 
n/a 
n/a 
n/a 
n/a 
-4.759 
n/a 
n/a 
n/a 
n/a 
-4.759 
n/a 
n/a 
n/a 
n/a 
-2.4265 -2.186 -1.7695 -2.489 -3.264 -2.3335 -6.3215 -2.229 -3.0835 -3.9725 -9.6145 -8.013 -2.7415 -1.4985 -2.871 -3.0695 -4.0835 -2.4265 0 
-3.292 -3.8745 -3.1405 -5.406 -4.533 -9.911 -8.934501 -4.6705 -7.106501 -10.1 -17.8595 -10.575 -4.063 -4.316 -5.059 -6.39 -6.348001 -2.4265 
-5.165 -4.7485 -6.088 -6.1485 -12.5249 -12.6352 -10.2135 -8.3795 -13.9408 -18.345 -20.4215 -11.8965 -5.9205 -5.4975 -8.488001 -7.539001 -6.348001 
-5.818501 -7.6695 -7.1565 -14.2396 -15.2491 -13.9142 -14.6545 -15.0878 -22.1858 -20.907 -21.743 -13.754 -6.4505 -8.573501 -9.389501 -7.539001 
-8.6735 -8.873501 -15.3214 -16.9638 -16.5281 -18.3552 -21.3628 -23.3328 -24.7478 -22.2285 -23.6005 -14.284 -9.256001 -9.4095 -9.389501 
-3.1435 -3.264 -2.3335 -2.4265 -2.7415 -7.223001 -2.3345 -6.3215 -2.229 -3.0835 -7.259501 -3.9725 -7.7705 -8.2205 0 
-7.386001 -4.533 -3.913 -3.681 -9.324 -9.459001 -8.7635 -8.934501 -4.6705 -10.985 -11.08 -9.995501 -16.7352 -8.2205 
-8.007 -5.853 -4.9035 -10.1715 -9.996 -15.9728 -12.0291 -10.2135 -13.071 -14.8055 -17.103 -19.0446 -16.7352 
-9.363501 -6.419 -11.4966 -10.8435 -16.6376 -19.2384 -13.3081 -19.346 -16.8915 -20.8285 -26.1521 -19.0446 
-10.7585 -13.2617 -12.1686 -17.4851 -19.9032 -20.5174 -22.4406 -23.1665 -22.9145 -29.8776 -26.1521 
-6.3215 -3.0835 -7.45 -3.9725 -7.7705 -7.45 -2.7415 -4.0835 0 
-10.0225 -11.7437 -10.341 -9.995501 -10.784 -10.0285 -5.341001 -4.0835 
-19.0851 -14.6347 -16.364 -13.0934 -13.3625 -12.628 -5.341001 
-21.9761 -20.6577 -19.4619 -15.6719 -15.962 -12.628 
-27.9991 -23.7556 -22.0404 -18.2714 -15.962 
-6.3215 -2.7415 -8.7305 -2.3345 -3.0835 -6.7865 -3.9725 -7.7705 -6.7865 
-9.058001 -9.807 -9.7425 -5.7095 -11.0802 -9.171 -9.995501 -10.089 
-16.3141 -10.7605 -13.3495 -14.5924 -13.4647 -10.7505 -12.3984 
-17.2676 -14.3675 -22.2324 -16.9769 -15.0442 -13.1534 
-20.8746 -23.2504 -24.6169 -18.5564 -17.4471 
