-4.759 
n/a 
n/a 
n/a 
n/a 
-4.759 
n/a 
n/a 
n/a 
n/a 
-4.759 
n/a 
n/a 
n/a 
n/a 
-4.759 
n/a 
n/a 
n/a 
n/a 
-5.236 -2.0935 -3.5025 -2.186 -3.8535 -2.3345 -3.3715 0 
-7.322001 -5.425 -5.481 -4.972 -5.069 -5.279 -3.3715 
-11.0123 -8.719501 -8.892 -5.838 -7.782001 -5.279 
-14.3068 -12.1965 -9.5825 -8.58 -7.782001 
-17.7838 -12.887 -12.6141 -8.58 
-3.6055 -2.871 -2.8645 -3.447 -1.7695 -3.5025 0 
-5.363 -5.0785 -5.8195 -3.9795 -5.664001 -3.5025 
-7.2035 -7.8465 -5.8695 -6.836 -5.664001 
-9.639501 -7.8755 -8.605 -6.836 
-9.682 -10.84 -8.605 
-2.5685 -1.4985 -4.9225 -2.674 -8.415501 
-3.7015 -6.040501 -6.985 -12.6313 
-7.2295 -8.736501 -17.3869 
-9.462501 -19.3132 
-20.7642 
-4.711 -2.8645 -1.4985 -5.103 -3.3755 -2.0935 -1.4985 -3.5025 0 
-6.274001 -4.3545 -7.005501 -9.8205 -4.9855 -2.9725 -4.16 -3.5025 
-7.454501 -10.5899 -12.2568 -11.5685 -5.8365 -5.945 -4.16 
-14.3979 -15.8412 -14.0048 -12.4195 -9.015 -5.945 
-19.6492 -17.5892 -14.8558 -15.598 -9.015 
