-4.759 
n/a 
n/a 
n/a 
n/a 
-4.759 
n/a 
n/a 
n/a 
n/a 
-4.759 
n/a 
n/a 
n/a 
n/a 
-4.759 
n/a 
n/a 
n/a 
n/a 
-3.8005 -7.412001 0 -17.525 0 -14.2665 -4.3795 -5.2915 0 -12.994 -1.7565 -3.5905 -4.4215 0 -3.9885 -6.2 -8.5555 -8.68 0 -14.4965 0 -14.083 -1.7565 -3.1495 -2.4945 -3.917 -2.5045 -1.4985 -2.743 -3.188 -5.181 0 
-9.8785 -6.032001 -17.799 -17.799 -15.2683 -19.7202 -7.710501 -5.2915 -10.022 -12.3115 -5.224 -6.620501 -4.4215 -3.9885 -11.2333 -16.0657 -17.8929 -8.68 -15.3767 -15.3767 -11.9225 -13.241 -3.914 -4.459 -5.7075 -5.6565 -3.583 -5.3755 -6.3715 -7.318501 -5.181 
-7.73 -25.627 -17.799 -33.3015 -19.7202 -23.0512 -7.710501 -16.2185 -12.3903 -15.8578 -7.5375 -6.620501 -8.852 -11.2333 -21.099 -25.4031 -17.8929 -24.9119 -15.3767 -27.621 -14.2442 -15.4362 -5.749 -7.99 -7.2515 -6.196 -7.6155 -8.841001 -8.9865 -7.318501 
-27.8018 -25.627 -33.3015 -37.7534 -23.0512 -23.0512 -19.1669 -18.5868 -15.8578 -18.1713 -7.5375 -11.5348 -16.6664 -21.099 -30.4364 -25.4031 -34.1248 -24.9119 -27.621 -29.6209 -15.4362 -16.9312 -9.1885 -9.795 -8.0325 -10.426 -11.2426 -9.450001 -8.9865 
-27.8018 -41.1295 -37.7534 -41.0844 -23.0512 -34.5076 -21.5352 -22.0543 -18.1713 -18.1713 -12.5536 -19.3492 -26.5321 -30.4364 -30.4364 -41.635 -34.1248 -37.1562 -29.6209 -30.8129 -16.9312 -20.5652 -10.609 -10.6495 -12.4103 -14.0531 -11.8516 -9.450001 
-3.8005 -3.9965 0 -4.334 -6.637 0 -4.2985 -4.3795 -5.2915 0 -4.6445 -3.729 0 -3.9885 -5.253 0 -4.1265 -5.7355 0 -3.8735 -7.641 -2.4945 -1.4985 -2.743 -5.181 -1.934 -1.4985 -3.188 
-7.5575 -3.9965 -4.334 -10.598 -6.637 -4.2985 -9.1355 -7.710501 -5.2915 -4.6445 -9.053501 -3.729 -3.9885 -9.084001 -5.253 -4.1265 -9.726501 -5.7355 -3.8735 -9.104 -11.08 -3.9315 -5.3755 -6.565001 -6.606 -2.6125 -3.619 
-7.5575 -9.031501 -10.598 -10.598 -10.4945 -9.1355 -10.761 -7.710501 -10.841 -9.053501 -9.053501 -8.898001 -9.084001 -9.084001 -10.802 -9.726501 -9.726501 -10.576 -9.104 -12.8648 -12.517 -7.3285 -7.918 -9.026501 -7.462 -4.377 
-12.9571 -15.6415 -10.598 -14.4555 -15.3315 -10.761 -10.761 -13.7894 -15.25 -9.053501 -14.6425 -14.4673 -9.084001 -15.0264 -16.402 -9.726501 -14.6324 -15.8065 -12.8648 -14.3018 -15.914 -9.2585 -10.061 -9.582001 -8.406501 
-19.5671 -15.6415 -14.4555 -19.2925 -16.957 -10.761 -16.8399 -18.1984 -15.25 -14.6425 -20.2118 -14.4673 -15.0264 -20.6264 -16.402 -14.6324 -19.8629 -19.5673 -14.3018 -17.6988 -17.844 -12.2031 -10.519 -9.626 
-6.6435 -6.6035 -1.7565 -3.9885 0 -5.7875 -3.2875 0 -3.6885 -5.2915 -8.415 -6.1205 -1.934 -4.2985 0 -1.4985 -3.4155 -3.9965 -1.7565 -3.8005 0 -6.187 -6.2045 -1.934 -4.6445 0 -5.6355 -1.7565 -4.334 0 -4.5735 -3.2875 0 -1.4985 -4.6285 -6.2175 -1.934 -4.1265 0 -1.4985 -5.7105 -5.9185 -1.7565 -3.8735 -2.4945 -1.4985 -2.688 -4.2405 -5.181 -1.7565 -1.4985 -3.188 0 
-6.679 -9.7375 -5.365 -3.9885 -5.7875 -7.7485 -3.2875 -3.6885 -7.894501 -14.6511 -14.8571 -7.833 -5.5055 -4.2985 -1.4985 -4.4155 -6.032001 -5.462 -5.0365 -3.8005 -6.187 -6.2275 -7.9265 -5.9485 -4.6445 -5.6355 -8.8645 -6.236001 -4.334 -4.5735 -6.4925 -3.2875 -1.4985 -5.4515 -7.6895 -7.8565 -5.2915 -4.1265 -1.4985 -6.535001 -6.078 -8.27 -5.112 -6.502501 -3.9315 -3.702 -7.1095 -6.6615 -5.823 -2.4195 -3.619 -3.188 
-10.1595 -13.4244 -5.365 -8.221001 -7.7485 -7.7485 -7.344501 -7.894501 -17.7131 -21.0932 -16.5696 -9.4025 -5.5055 -6.3335 -4.4155 -6.4005 -6.599 -6.684 -5.0365 -9.3485 -6.2275 -7.962 -8.288 -5.9485 -8.8855 -8.8645 -9.958501 -6.236001 -9.1455 -6.4925 -6.4925 -5.3035 -5.4515 -7.9185 -9.558001 -9.859 -5.2915 -6.036 -6.535001 -6.7405 -8.342501 -9.103001 -7.5445 -7.8755 -6.228001 -7.646501 -7.679501 -6.83 -6.1715 -4.4095 -3.619 
-13.823 -13.4244 -9.574501 -10.853 -7.7485 -12.6323 -12.3681 -17.7131 -24.1552 -22.8057 -18.1391 -9.4025 -6.8415 -9.2115 -6.4005 -6.8275 -6.705 -6.684 -9.491501 -9.367001 -7.962 -8.3195 -8.288 -10.634 -13.2403 -9.958501 -9.958501 -10.647 -11.3935 -6.4925 -8.256001 -8.929501 -7.9185 -9.786 -10.444 -9.859 -6.694 -10.0575 -6.7405 -8.538001 -9.112 -11.9975 -8.908001 -9.682501 -9.953501 -7.87 -7.780001 -6.966 -6.639 -4.4095 
-13.823 -17.6339 -12.4419 -10.853 -12.6323 -17.6559 -22.1867 -24.1552 -25.8677 -24.3752 -18.1391 -9.936501 -9.81 -10.016 -6.8275 -6.9055 -6.705 -9.4995 -9.508501 -10.306 -8.3195 -8.3195 -13.1867 -15.597 -14.3343 -9.958501 -14.6311 -12.895 -11.3935 -8.256001 -10.05 -11.4825 -9.786 -10.506 -10.444 -10.753 -10.7633 -10.073 -8.538001 -9.825001 -12.0243 -13.361 -10.7682 -13.6596 -10.2745 -7.9285 -7.822001 -7.192 -6.639 
-3.4155 -3.9965 -1.7565 -3.8005 0 -5.6355 -2.9505 -4.334 0 -4.4805 -1.4985 -6.1205 -1.7565 -4.2985 0 -4.5735 -4.205 -1.7565 -4.6445 -8.349501 0 -6.6435 -6.6035 -5.253 -1.7565 -3.9885 0 -6.2175 -1.934 -4.1265 0 -7.641 -1.934 -3.8735 -2.4945 -1.4985 -4.676 -3.917 -4.2405 -5.181 -1.7565 -1.4985 -3.188 0 
-6.032001 -5.462 -5.0365 -3.8005 -5.6355 -9.4055 -7.717 -4.334 -4.4805 -5.785 -6.7445 -7.5005 -6.0065 -4.2985 -4.5735 -7.233 -5.689001 -6.291501 -10.022 -8.349501 -6.6435 -6.679 -9.054001 -6.5895 -5.365 -3.9885 -6.2175 -7.8565 -5.2915 -4.1265 -7.641 -9.699 -4.885 -6.502501 -3.9315 -5.269 -7.039001 -8.098501 -6.6615 -5.823 -2.4195 -3.619 -3.188 
-6.599 -6.684 -5.0365 -9.263 -9.4055 -14.2032 -7.717 -9.32 -5.785 -7.331 -7.8255 -12.8059 -6.0065 -9.621 -7.233 -8.77 -9.783001 -11.8464 -10.022 -15.526 -6.679 -9.066 -9.998501 -10.476 -5.365 -10.634 -7.8565 -9.859 -5.2915 -12.6477 -9.699 -10.506 -6.921 -7.8755 -8.083 -7.675 -11.9245 -10.6877 -6.83 -6.1715 -4.4095 -3.619 
-6.705 -6.684 -9.479 -13.525 -14.2032 -14.2032 -13.1792 -9.942 -7.331 -8.779 -13.3807 -12.8059 -11.663 -12.5627 -8.77 -13.1382 -15.5975 -11.8464 -17.2773 -15.5615 -9.066 -10.0075 -14.4402 -10.476 -12.5409 -12.273 -9.859 -9.859 -14.2857 -14.7057 -10.506 -12.542 -8.5255 -12.3646 -10.7595 -12.3509 -14.5137 -10.8562 -6.966 -6.639 -4.4095 
-6.705 -9.4875 -14.0024 -18.3227 -14.2032 -19.6654 -13.8012 -10.0035 -8.779 -14.873 -13.3807 -18.4624 -14.6047 -14.0997 -13.1382 -18.9527 -15.5975 -19.1017 -17.3128 -17.9485 -10.0075 -14.4772 -14.4402 -17.6519 -14.1799 -14.2755 -9.859 -19.0372 -16.3437 -15.5127 -12.542 -14.1465 -13.0502 -15.0411 -15.4354 -14.9401 -14.6822 -10.9922 -7.192 -6.639 
