-4.759 
n/a 
n/a 
n/a 
n/a 
-4.759 
n/a 
n/a 
n/a 
n/a 
-4.759 
n/a 
n/a 
n/a 
n/a 
-4.759 
n/a 
n/a 
n/a 
n/a 
-1.934 -3.522 0 -2.3615 -3.452 -2.7415 -4.894 -2.3345 -4.266 -8.6505 -12.16972 -1.756 -8.8455 -8.9235 -3.402 -2.264 -8.458 -2.9635 0 
-5.0285 -3.522 -2.3615 -4.5465 -5.778 -6.601 -5.8635 -5.9355 -13.8243 -20.97182 -13.92572 -10.841 -18.052 -12.4949 -3.793 -10.9315 -11.7561 -2.9635 
-5.0285 -6.0745 -4.5465 -6.311 -8.235001 -7.554501 -8.898001 -15.8522 -26.14562 -22.72782 -23.01072 -20.0475 -21.6234 -12.8859 -13.0715 -14.2296 -11.7561 
-7.0295 -8.0805 -6.311 -8.982 -9.286 -10.185 -18.9335 -28.17352 -27.90162 -31.81282 -32.21722 -23.6189 -22.0144 -22.1644 -16.3696 -14.2296 
-9.309 -9.4525 -8.982 -9.933001 -11.8701 -20.2205 -31.25482 -29.92952 -36.98662 -41.01932 -35.78862 -24.0099 -31.2929 -25.4625 -16.3696 
-2.4265 -2.7415 -3.074 -4.894 -2.264 -1.4985 -4.1175 -1.7565 -4.515 -2.3345 -4.804 -7.712501 -10.9655 -1.756 -1.8085 -5.71 -8.2425 -6.3705 -1.934 -3.3635 0 
-3.681 -4.727 -7.25 -7.682 -2.9195 -4.6915 -4.7545 -5.6135 -6.953501 -6.179 -13.2119 -19.2014 -12.7215 -3.584 -6.3505 -14.8715 -14.9238 -8.7775 -4.921 -3.3635 
-5.6355 -8.39 -9.885 -8.09 -4.9245 -4.851 -9.184501 -7.797 -10.1945 -14.9337 -24.7008 -20.9574 -14.5495 -7.941 -16.0814 -21.5528 -17.3308 -11.8059 -4.921 
-9.065001 -11.7862 -10.3385 -8.9405 -4.9575 -9.81 -11.5312 -10.7175 -18.9492 -26.4226 -26.4568 -22.7854 -18.9065 -17.7371 -22.7627 -23.9598 -20.3592 -11.8059 
-12.5682 -12.2397 -11.189 -9.4275 -10.15 -12.1595 -14.4517 -19.4722 -30.4381 -28.1786 -28.2848 -27.1424 -28.7026 -24.4184 -25.1697 -26.9882 -20.3592 
-1.934 -3.522 -4.266 -4.281 -7.712501 -12.16972 0 -12.16972 -4.894 
-5.0285 -7.535501 -7.545501 -12.3101 -20.40562 -12.16972 -12.16972 -17.06372 
-8.667001 -10.8728 -15.9586 -25.00322 -20.40562 -24.33944 -17.06372 
-11.9755 -19.2859 -28.65172 -25.00322 -32.57534 -29.23344 
-20.3886 -31.97902 -28.65172 -37.17294 -37.46934 
-2.3615 -3.452 -2.7415 -3.321 -4.894 -2.3345 -1.8085 -4.266 -7.854001 -12.16972 -1.756 -1.8085 -5.4335 -7.409 -8.9235 -2.356 -2.9635 -1.7565 -4.515 -1.934 -3.522 0 
-4.5465 -5.778 -5.3435 -7.2545 -5.8635 -3.8605 -5.5525 -13.0278 -20.58672 -13.92572 -3.584 -6.2535 -13.7563 -16.8147 -11.4489 -6.136001 -4.6005 -5.6135 -6.391 -5.0285 -3.522 
-6.311 -8.873501 -8.412001 -8.663501 -7.459 -7.3935 -15.4375 -25.76052 -22.34272 -15.75372 -7.8105 -15.3229 -23.162 -19.3401 -15.2289 -7.351 -8.745001 -7.2005 -9.132501 -5.0285 
-9.920501 -10.598 -9.734 -9.693001 -10.7025 -17.2221 -28.17022 -27.51652 -24.17072 -19.98022 -17.0217 -24.7286 -25.6874 -23.1201 -16.4439 -11.7211 -10.4855 -10.185 -9.132501 
-11.645 -12.1254 -10.663 -12.9749 -20.5311 -29.95482 -29.92622 -29.34452 -28.39722 -29.19142 -26.4274 -27.254 -29.4674 -24.3351 -20.814 -13.4616 -13.47 -10.185 
