-4.759 
n/a 
n/a 
n/a 
n/a 
-4.759 
n/a 
n/a 
n/a 
n/a 
-4.759 
n/a 
n/a 
n/a 
n/a 
-4.759 
n/a 
n/a 
n/a 
n/a 
-7.211 -1.7565 -2.3615 -3.2015 -2.0935 -12.16972 -4.157 
-8.009501 -3.523 -6.2375 -4.357 -15.25422 -16.32672 
-9.1765 -7.326 -7.7285 -17.95872 -19.41122 
-13.2957 -8.795501 -21.53342 -22.11572 
-14.7652 -22.79762 -25.69042 
-3.433 -1.7565 -2.3615 -1.4985 -5.930501 -3.5035 -3.423 -2.645 -4.6955 0 
-4.1845 -3.523 -4.913 -7.1615 -8.9385 -6.7025 -6.795 -7.034 -4.6955 
-5.5485 -6.101 -10.7766 -10.1145 -12.4999 -10.195 -11.9136 -7.034 
-6.6435 -12.0374 -13.7296 -13.6759 -15.9924 -15.3136 -11.9136 
-12.7061 -14.9904 -17.291 -17.1684 -21.111 -15.3136 
-3.851 -1.7695 -2.3615 -4.015 -3.6205 -3.2015 -2.8645 -4.157 0 
-4.0015 -3.736 -6.8505 -8.3585 -7.119 -6.217 -5.4365 -4.157 
-6.14 -8.599001 -11.7462 -12.1982 -10.322 -8.434 -5.4365 
-10.5975 -13.5575 -15.5859 -15.4012 -12.4414 -8.434 
-15.556 -17.3972 -18.7889 -17.5206 -12.4414 
-3.433 -1.7565 -2.3615 -4.031 -1.4985 -3.2015 -2.186 -3.1125 -3.7555 -4.877 
-4.1845 -3.523 -5.4055 -5.469 -4.9495 -5.408 -6.9115 -7.7375 -7.558001 
-5.5485 -7.719 -6.2395 -8.9455 -6.919001 -10.451 -11.7457 -11.9916 
-7.834 -8.775001 -9.3195 -10.419 -12.0756 -15.2852 -15.9998 
-8.8525 -11.9688 -11.1948 -15.5756 -16.9098 -19.5393 
