-4.759 
n/a 
n/a 
n/a 
n/a 
-4.759 
n/a 
n/a 
n/a 
n/a 
-4.759 
n/a 
n/a 
n/a 
n/a 
-4.759 
n/a 
n/a 
n/a 
n/a 
-2.3615 -4.612 -3.0835 -1.934 -1.4985 -3.8625 -4.1685 -3.609 -2.264 -1.4985 -3.432 
-7.127501 -7.9305 -5.265 -2.6125 -5.431 -7.956 -8.470501 -5.6665 -2.9195 -4.829 
-10.66 -8.3615 -5.862 -6.369 -9.726 -12.7922 -11.1018 -5.8995 -5.3665 
-11.091 -8.534 -10.0995 -10.6875 -14.6996 -15.4235 -11.3348 -7.1 
-11.2635 -13.3169 -14.5994 -15.6611 -17.3309 -15.6565 -12.5353 
-2.4265 -2.186 -2.871 -1.7565 -1.4985 -3.4605 -3.9225 -1.4985 -2.915 -5.2175 0 
-3.292 -4.247 -3.5385 -2.4195 -4.652 -7.89 -4.463 -4.1675 -8.234 -5.2175 
-5.5545 -4.411 -3.7675 -5.5235 -8.988001 -8.399 -7.911 -9.529 -8.234 
-5.691 -4.5655 -8.4525 -9.650001 -9.444501 -10.575 -13.4697 -9.529 
-5.822 -9.4835 -12.8508 -10.0765 -11.6285 -16.1337 -13.4697 
-3.183 -3.1015 -3.8015 -3.432 -1.934 -3.0835 -2.871 0 
-5.8295 -7.0925 -8.318 -5.922501 -5.331 -5.3085 -2.871 
-9.894001 -11.9396 -11.1379 -9.274 -8.5165 -5.3085 
-14.7411 -14.7595 -14.4894 -12.8177 -8.5165 
-17.561 -18.111 -18.0331 -12.8177 
-3.929 -3.345 -3.6885 -3.845 -4.1335 -2.645 -2.4285 -3.689 -4.9425 0 -3.135 -4.2685 -2.4945 -3.43 -1.7695 -5.656 -3.277 -2.5685 
-6.854 -6.6945 -7.021501 -8.807501 -7.069 -5.1595 -4.762 -8.1835 -4.9425 -3.135 -7.2075 -5.785501 -4.758 -4.647 -6.101501 -7.659 -5.046 
-9.8715 -9.442501 -10.078 -10.0715 -8.6365 -5.283 -8.211 -8.1835 -8.261 -7.2075 -8.384501 -6.799001 -5.797501 -9.4705 -8.1155 -9.556 
-10.0815 -10.0795 -10.084 -10.084 -8.8795 -8.215501 -8.211 -10.0285 -10.071 -8.384501 -9.2515 -6.8475 -10.0095 -10.062 -9.781 
-10.0875 -10.0855 -10.09 -10.09 -9.975 -8.215501 -10.0285 -10.0835 -10.0835 -9.2515 -9.3835 -10.0575 -10.0795 -10.085 
