-4.759 
n/a 
n/a 
n/a 
n/a 
-4.759 
n/a 
n/a 
n/a 
n/a 
-4.759 
n/a 
n/a 
n/a 
n/a 
-4.759 
n/a 
n/a 
n/a 
n/a 
-5.951 -4.84 -2.5045 -4.524 -5.951 -3.6815 
-9.620001 -6.86 -6.567 -9.5165 -8.359 
-11.879 -11.7969 -12.3779 -10.2395 
-16.8159 -17.6078 -13.1009 
-22.6268 -18.3308 
-20.0775 -8.4785 -3.6815 -2.8645 -4.84 -8.4785 
-29.4229 -12.624 -6.271501 -8.4 -14.5593 
-34.3898 -15.214 -12.1244 -18.7013 
-36.9798 -21.0669 -22.4257 
-42.8327 -31.3682 
-16.6525 -4.524 -8.4785 -4.0005 0 -8.4785 -5.058 -1.934 -1.4985 -4.0455 
-20.0655 -14.0151 -12.943 -4.0005 -8.4785 -14.0005 -6.9595 -2.6125 -5.133 
-31.3288 -18.4796 -12.943 -13.693 -14.0005 -15.902 -7.546 -6.106 
-35.7933 -18.4796 -22.6355 -19.215 -15.902 -16.4885 -10.3815 
-35.7933 -28.1721 -28.1575 -21.1165 -16.4885 -19.324 
-10.488 -5.058 -1.934 -4.442 -2.5045 -5.359 -10.488 -3.6815 
-15.546 -6.9595 -6.4365 -6.599 -7.8 -16.7886 -14.1695 
-17.4475 -8.754001 -8.5505 -12.2149 -19.6284 -20.4701 
-19.242 -11.1208 -14.3962 -24.0433 -23.3099 
-21.6088 -16.9665 -26.2246 -27.7248 
