-4.759 
n/a 
n/a 
n/a 
n/a 
-4.759 
n/a 
n/a 
n/a 
n/a 
-4.759 
n/a 
n/a 
n/a 
n/a 
-4.759 
n/a 
n/a 
n/a 
n/a 
-3.5715 -2.341 0 -1.934 -4.2815 -2.229 0 -9.4545 -3.5015 0 -2.664 -4.8345 -4.766 -5.204 -1.934 -1.4985 -5.622 -4.197 -2.7415 -4.443 -2.9705 -3.251 -3.3715 -5.5395 
-5.5735 -2.341 -1.934 -5.399 -5.5905 -2.229 -9.4545 -12.995 -3.5015 -2.664 -6.086 -7.526501 -9.456 -6.974 -2.6125 -6.8935 -6.846 -6.772 -6.319 -8.0795 -5.153 -5.8955 -7.461 
-5.5735 -4.7825 -5.399 -6.811501 -5.5905 -12.2785 -12.995 -12.995 -4.7625 -6.086 -7.757 -10.7 -11.5645 -7.7545 -8.824 -6.965001 -8.663501 -9.409 -9.7045 -10.007 -8.0165 -9.432 
-8.1855 -8.717501 -6.811501 -6.811501 -16.6512 -15.819 -12.995 -14.256 -9.9455 -7.757 -10.3015 -13.2541 -13.0346 -12.07 -9.044001 -8.7005 -9.453 -13.2207 -11.6324 -12.9307 -11.6816 
-12.4257 -9.795501 -6.811501 -18.4416 -20.1917 -15.819 -14.256 -19.439 -11.7427 -10.3105 -13.9151 -14.5396 -17.4794 -12.2608 -10.7605 -9.4715 -13.2867 -15.1486 -14.5561 -16.5958 
-3.5715 -5.712501 -4.221 -3.152 -3.966 -2.5045 -1.8085 -3.777 -1.7565 -3.995 -5.2425 -1.934 -4.2815 -4.766 -5.4465 -1.934 -5.6615 -4.197 
-9.84 -9.6395 -6.541 -6.158 -6.3905 -3.3625 -4.3955 -4.411 -5.423 -7.2275 -6.860001 -5.399 -9.8205 -8.6265 -6.347 -8.5345 -9.528501 
-13.7795 -11.6835 -7.2835 -7.8805 -7.019001 -4.4445 -4.6235 -8.821 -8.551001 -8.307 -10.281 -10.586 -14.2464 -12.0905 -13.9024 -12.4613 
-15.3987 -12.2042 -8.861 -8.313001 -7.157001 -4.6725 -8.990001 -12.3732 -10.2135 -12.0056 -15.468 -15.0119 -15.9709 -18.0107 -18.071 
-15.7602 -13.6867 -9.157001 -8.372001 -7.2275 -9.1815 -12.6428 -14.0357 -13.9121 -17.1926 -19.8939 -16.7364 -23.2236 -21.9375 
-3.0365 -2.7415 -3.931 -1.7565 -4.221 -1.934 -1.4985 -4.8345 -4.4825 -1.934 -1.4985 -6.464 -1.7565 -4.2815 0 
-4.2225 -7.734 -4.616 -6.1875 -5.1325 -2.6125 -5.827001 -7.973001 -5.5625 -2.6125 -7.4495 -9.8785 -5.607 -4.2815 
-7.998501 -7.8525 -7.3985 -7.4715 -5.923 -7.0425 -8.203001 -8.656 -6.0375 -8.492001 -11.5528 -13.685 -5.607 
-8.021501 -11.0976 -8.477 -8 -9.226501 -10.7595 -8.908001 -9.610001 -12.461 -12.8221 -15.3593 -13.685 
-11.708 -12.1761 -9.033 -10.442 -13.1625 -11.4645 -10.0375 -16.2137 -16.7911 -16.6286 -15.3593 
-3.5715 -5.377501 -2.186 -3.956 -4.474 -1.934 -4.2815 -3.851 -1.7695 -1.4985 -3.995 -5.2425 -1.934 -6.464 -3.2875 -2.5045 -14.87322 0 
-9.047501 -6.4385 -6.4445 -8.1745 -5.244 -5.399 -8.2145 -4.0015 -2.7955 -4.712 -7.2275 -6.860001 -8.013 -10.7495 -5.9605 -18.49322 -15.04522 
-9.745 -10.6465 -11.1762 -8.953 -9.1235 -8.642501 -8.2475 -4.5775 -6.133 -8.115001 -8.307 -13.8732 -12.4383 -13.4225 -23.27082 -19.04782 
-14.3816 -16.1086 -11.9547 -12.9449 -12.438 -8.665001 -8.7025 -7.991 -9.5565 -8.997001 -15.5978 -18.2985 -15.1113 -30.73282 -23.27082 
-19.8999 -16.8871 -15.9466 -16.2594 -12.4605 -9.0305 -12.2484 -10.3745 -10.3295 -16.4976 -20.0231 -20.9715 -32.42162 -30.73282 
