-4.759 
n/a 
n/a 
n/a 
n/a 
-4.759 
n/a 
n/a 
n/a 
n/a 
-4.759 
n/a 
n/a 
n/a 
n/a 
-4.759 
n/a 
n/a 
n/a 
n/a 

n/a 
n/a 
n/a 
n/a 
-3.508 -3.062 0 -4.3105 -4.432 -4.328 -4.3385 -6.9865 -5.3535 -3.237 -5.4325 -2.264 -4.5925 -1.7565 -1.4985 -3.5435 -2.0935 -6.228 -5.49 -3.5385 -1.7565 -4.3105 -5.0505 -2.5195 -2.985 -4.1455 -3.5455 -5.408 -1.756 -4.652 
-5.4365 -3.062 -4.3105 -7.135 -4.899 -6.9615 -10.862 -13.0032 -8.097501 -6.9355 -7.335501 -4.7155 -4.707 -2.4195 -4.2755 -5.7 -9.035 -10.1815 -8.4495 -5.079 -5.761001 -9.200001 -7.4385 -4.751 -5.0825 -6.9345 -8.6175 -7.099 -7.2125 
-5.4365 -7.763 -7.135 -7.198 -7.0245 -15.355 -16.8787 -15.7472 -12.8962 -8.2015 -8.1925 -4.7185 -5.097 -5.3025 -6.266 -13.4493 -13.0779 -13.141 -10.204 -9.162001 -11.1359 -11.6974 -9.3015 -6.819 -7.482 -12.5177 -9.948501 -10.335 
-10.6465 -10.238 -7.198 -7.729 -16.7874 -21.3717 -19.6227 -20.5459 -14.1622 -9.531 -8.194501 -5.107 -6.9125 -7.3615 -14.2421 -17.4922 -16.0374 -14.8955 -14.5612 -15.1609 -13.6333 -13.5604 -11.4603 -8.750501 -13.1854 -13.8487 -13.5225 
-13.1215 -10.7018 -7.729 -17.7173 -22.8041 -24.1157 -24.4214 -21.8119 -15.4917 -9.5345 -8.569501 -6.919001 -8.5635 -15.6188 -18.285 -20.4517 -17.7919 -19.2527 -20.5601 -17.6583 -15.4963 -15.7192 -13.3918 -14.6439 -14.5164 -17.4227 
-3.508 -3.062 0 -1.934 -3.8655 -3.5455 -1.4985 -3.158 -5.408 0 -4.652 -4.938 -3.736 -3.152 -4.0875 -2.5195 -2.985 -4.0355 -6.993001 -2.0935 -3.45 -4.688 -3.8655 -3.757 -4.3385 -5.9645 -6.035 -1.7695 -1.4985 -3.1385 -2.264 -4.5925 -1.7565 -4.3105 -3.5435 0 
-5.4365 -3.062 -1.934 -4.9135 -7.121 -3.91 -4.178 -8.188001 -5.408 -4.652 -9.813001 -7.81 -7.049 -8.4545 -6.6225 -4.751 -5.3795 -10.7335 -8.827001 -4.440001 -8.615001 -9.444 -7.9595 -7.273001 -11.325 -12.7433 -6.620501 -2.7955 -4.2575 -5.179501 -4.7155 -4.707 -5.761001 -5.7775 -3.5435 
-5.4365 -5.578 -4.9135 -7.5445 -7.451 -5.429 -8.454 -8.188001 -8.560501 -9.813001 -13.0546 -12.3166 -12.6939 -9.760501 -8.5 -6.6555 -12.4557 -12.5675 -11.6949 -10.223 -14.0444 -13.8148 -11.7953 -14.6293 -18.1038 -13.3288 -7.181 -5.4345 -6.2375 -8.078501 -4.7185 -8.5915 -7.4855 -5.7775 
-8.366 -9.019501 -7.5445 -7.878 -8.835501 -9.645 -8.454 -11.6655 -14.0235 -13.0546 -17.5612 -17.9615 -13.9999 -11.7682 -10.513 -14.0583 -14.2897 -15.4354 -17.4779 -15.6524 -18.4152 -17.6506 -19.1516 -21.4081 -18.6893 -13.8893 -8.9055 -7.43 -9.211 -8.085 -8.593 -9.746501 -7.4855 
-12.0225 -11.7627 -7.878 -9.161 -13.2869 -9.645 -12.0695 -17.1285 -17.2651 -17.5612 -23.2061 -19.2675 -16.0076 -13.7812 -17.9158 -15.8923 -17.1576 -21.2184 -22.9073 -20.0232 -22.251 -25.0069 -25.9304 -21.9936 -19.2498 -15.6138 -11.3802 -9.898001 -9.216001 -12.2305 -9.746 -9.746501 
-3.508 -3.062 -3.8655 -2.229 -6.8885 -3.5385 -3.152 -9.671 -4.794 -2.5195 -3.277 -1.934 -1.4985 -3.8405 -10.06 -2.7415 -6.035 -2.3345 -1.4985 -9.674001 -4.3385 -3.704 -2.0935 -1.4985 -5.043 -1.7565 -4.3105 -3.5435 0 
-5.4365 -7.172501 -5.1985 -9.4505 -10.7665 -5.624 -14.1328 -14.743 -5.6105 -5.3095 -4.5955 -2.6125 -4.7545 -11.807 -11.297 -9.2775 -8.7325 -3.233 -10.4765 -14.0821 -8.138 -6.33 -2.9725 -6.654 -7.135 -5.761001 -5.7775 -3.5435 
-10.5855 -8.826 -13.4978 -13.4151 -12.852 -17.069 -19.2048 -15.5595 -7.7245 -6.762 -5.2215 -5.7585 -13.1536 -15.4761 -18.496 -12.1912 -10.135 -12.479 -14.8846 -17.8816 -11.8988 -7.3485 -8.347501 -8.311501 -12.0053 -7.4855 -5.7775 
-12.239 -17.4023 -17.4624 -15.5006 -24.297 -22.141 -20.0213 -17.6735 -9.145 -7.308001 -8.870501 -13.3701 -15.7221 -22.3731 -21.4097 -13.5937 -19.5912 -16.8871 -18.6841 -21.6424 -12.9173 -12.9983 -8.908001 -13.0696 -13.7298 -7.4855 
-20.8153 -21.3669 -19.5479 -26.9456 -29.369 -22.9575 -22.1353 -19.094 -9.586 -10.513 -16.8073 -16.5208 -22.6191 -25.2868 -22.8122 -23.0499 -23.9993 -20.6866 -22.4449 -22.6609 -18.5671 -13.5588 -13.7439 -14.7941 -13.7298 
