-4.759 
n/a 
n/a 
n/a 
n/a 
-4.759 
n/a 
n/a 
n/a 
n/a 
-4.759 
n/a 
n/a 
n/a 
n/a 
-4.759 
n/a 
n/a 
n/a 
n/a 
-2.5195 -5.129 -5.648 -2.5045 -4.955 -5.2545 -4.0885 -1.8085 -5.192 -3.3435 -2.356 -3.332 -4.121 0 
-7.455 -9.2805 -7.884 -6.9165 -9.422501 -9.566501 -6.041 -8.127501 -8.758 -5.3805 -4.6815 -5.3765 -4.121 
-9.4185 -11.6761 -12.5276 -11.9608 -13.8301 -11.8178 -13.1816 -11.8837 -10.304 -7.136001 -6.481 -5.3765 
-11.8579 -16.3197 -17.5719 -16.3684 -16.0814 -18.9584 -16.9378 -13.4297 -12.3693 -8.7965 -6.481 
-16.5015 -21.364 -21.9795 -18.6197 -23.222 -22.7146 -18.4838 -15.495 -14.0298 -8.7965 
-2.5195 -1.4985 -3.158 -5.129 -5.2545 -4.657 -1.8085 -6.085001 -3.3435 -2.356 -3.091 -4.121 -1.934 -4.955 
-3.1695 -4.178 -7.388 -10.7335 -9.109501 -6.3035 -7.1875 -7.634001 -5.3805 -4.513 -5.304 -5.741 -5.8925 
-6.3945 -8.1925 -13.7121 -14.5885 -10.3965 -8.814501 -8.256001 -9.418 -7.1355 -6.465 -6.7295 -9.933001 
-9.910501 -14.2156 -17.5671 -15.8755 -13.4437 -9.160001 -9.852 -10.635 -8.8765 -7.5505 -10.5975 
-15.9336 -18.0706 -18.8541 -18.9227 -13.7892 -10.675 -11.0836 -12.376 -9.812501 -11.3525 
-5.2545 -4.657 -1.934 -4.955 -2.264 -5.129 -2.356 -3.091 -4.121 -2.5045 -1.8085 -4.938 0 
-9.109501 -5.156 -5.8925 -7.205501 -8.8225 -7.9735 -4.513 -5.304 -6.625501 -3.3625 -6.516001 -4.938 
-9.670501 -8.4415 -7.442 -14.5492 -11.763 -9.460501 -6.465 -7.425 -7.397 -7.9015 -6.516001 
-10.272 -10.3342 -15.0563 -17.4897 -13.25 -11.5541 -8.4925 -8.124001 -12.2988 -7.9015 
-12.1647 -17.9485 -17.9968 -18.9767 -15.3436 -13.5816 -9.207001 -13.141 -12.2988 
-8.226501 -1.934 -5.129 -3.584 -3.3435 -2.356 -4.121 -9.8575 
-10.6095 -6.3805 -9.725 -7.461 -5.3805 -6.5655 -15.0557 
-15.056 -11.6267 -13.6968 -8.578501 -8.931001 -17.829 
-20.3022 -15.5985 -14.8143 -12.3974 -20.2957 
-24.274 -16.716 -18.6332 -23.7621 
