-4.759 
n/a 
n/a 
n/a 
n/a 
-4.759 
n/a 
n/a 
n/a 
n/a 
-4.759 
n/a 
n/a 
n/a 
n/a 
-4.759 
n/a 
n/a 
n/a 
n/a 
-2.264 -3.531 -3.0605 0 -3.0105 0 -1.4985 -3.7375 -3.275 -4.099 -2.3335 -4.278 -3.251 -3.7905 -1.8085 -5.144 -3.602 -1.934 -1.4985 -2.8845 -5.214 -4.219 -4.1665 0 
-4.8755 -5.499 -3.0605 -3.0105 -3.0105 -1.4985 -4.9415 -5.031 -6.8175 -5.113 -7.198501 -8.2755 -5.5965 -4.255 -6.264 -5.745 -5.007 -2.6125 -5.016 -6.4925 -7.133 -6.041 -4.1665 
-6.4485 -5.499 -4.9945 -3.0105 -4.7935 -4.9415 -5.238 -7.145 -7.4215 -9.6405 -9.201 -9.913 -6.341 -7.609 -6.41 -7.07 -5.555 -5.9855 -7.2135 -9.343 -8.4705 -6.041 
-6.4485 -6.6365 -4.9945 -4.7935 -7.111001 -5.238 -7.1575 -7.668 -10.0785 -10.049 -10.0415 -10.048 -9.252501 -7.625 -7.5195 -7.473 -9.067 -8.011001 -9.67 -10.4845 -8.771501 
-7.5665 -6.6365 -6.778 -7.111001 -7.1485 -7.1575 -7.686501 -10.0775 -10.0845 -10.068 -10.0805 -10.0805 -9.2665 -8.59 -7.908 -9.9855 -10.0825 -9.6315 -10.0235 -9.7165 
-4.278 -2.8845 -1.934 -1.4985 -3.383 -3.699 -3.9825 -1.934 -3.531 -6.071 -3.7375 -4.219 0 
-8.037001 -5.2765 -2.6125 -4.554501 -5.014 -5.406 -4.624 -5.012 -7.433001 -8.5885 -8.59 -4.219 
-10.1305 -6.199 -5.789001 -6.9925 -6.7945 -5.6055 -8.6765 -8.8725 -9.960501 -12.388 -8.59 
-11.053 -9.573 -8.3885 -8.366001 -6.993 -10.4755 -14.0071 -13.535 -14.429 -12.71 
-14.427 -12.2845 -10.044 -10.0955 -12.008 -15.8061 -17.4081 -17.9517 -14.4542 
-1.934 -3.531 -3.0605 0 -3.0105 -3.7375 -3.275 -3.264 -4.278 -2.7415 -3.307 -1.7565 -2.8845 -4.219 -4.1665 0 
-5.012 -5.499 -3.0605 -3.0105 -6.6045 -5.031 -7.0515 -8.5705 -7.714001 -8.083501 -4.8035 -5.125 -6.011 -6.041 -4.1665 
-7.735 -5.499 -4.9945 -6.6045 -8.082001 -7.971 -12.6588 -10.0675 -13.4016 -9.021001 -9.389501 -8.264501 -8.168 -6.041 
-7.735 -6.6365 -8.318501 -8.082001 -11.278 -13.7869 -14.1558 -15.7551 -14.3391 -13.6216 -10.4955 -10.1065 -8.168 
-10.134 -10.0375 -9.7535 -11.278 -17.0939 -15.2839 -19.8434 -16.6926 -18.9397 -14.7276 -12.3375 -10.1065 
-1.934 -3.531 -3.0605 0 -3.0105 0 -2.871 -3.7375 -3.275 -3.522 -4.4155 -2.3335 -4.278 -2.7415 -1.4985 -4.886 -3.307 -1.7565 -4.219 -4.783 -1.934 -2.8845 0 
-5.012 -5.499 -3.0605 -3.0105 -3.0105 -2.871 -6.831 -5.031 -6.609 -7.436 -5.6635 -7.198501 -7.714001 -4.063 -6.898001 -9.616 -4.8035 -5.991001 -6.759501 -6.2465 -4.7805 -2.8845 
-7.735 -5.499 -4.9945 -3.0105 -6.355 -6.831 -8.821 -7.1175 -9.5295 -8.2965 -10.316 -8.8275 -8.982 -9.859001 -11.802 -11.1773 -10.0255 -7.929501 -8.040001 -8.7035 -4.7805 
-7.735 -6.6365 -4.9945 -6.355 -10.9582 -8.821 -10.035 -9.653501 -10.6485 -12.9082 -11.945 -10.01 -14.937 -14.8742 -13.3633 -16.3993 -11.964 -9.008501 -10.2865 -8.7035 
-10.134 -6.6365 -8.035001 -10.9582 -12.9482 -10.035 -12.6468 -10.9273 -15.2602 -14.5372 -13.1275 -16.1184 -19.9522 -16.4355 -18.5853 -18.3378 -13.043 -11.5342 -10.2865 
