-4.759 
n/a 
n/a 
n/a 
n/a 
-4.759 
n/a 
n/a 
n/a 
n/a 
-4.759 
n/a 
n/a 
n/a 
n/a 
-4.759 
n/a 
n/a 
n/a 
n/a 
-2.5195 -4.447 -1.7695 -4.377 0 -2.3615 -4.5675 -4.8445 -3.325 -3.091 -4.886 -1.756 -4.979 -3.9115 -2.0935 -3.2895 -2.0935 -4.4655 -1.7565 -4.536 0 -4.109 -3.58 -1.756 -4.6175 
-6.5235 -6.354 -6.7165 -4.377 -2.3615 -6.74 -8.9315 -7.943501 -5.621 -7.4005 -5.818 -6.446 -9.901001 -4.9945 -6.5465 -5.6595 -6.3615 -5.2045 -6.055 -4.536 -4.109 -6.859 -4.684 -6.0235 
-6.8375 -7.734 -6.7165 -6.934 -6.74 -10.0505 -12.0633 -8.9165 -7.5275 -8.3915 -11.5896 -12.031 -10.138 -9.426001 -8.375 -10.6241 -6.6145 -10.5745 -6.055 -8.646 -6.859 -8.274501 -10.177 
-7.9885 -7.734 -8.922501 -10.2185 -10.0505 -13.4619 -13.0363 -11.2614 -8.528501 -14.3835 -17.1746 -12.268 -15.1525 -12.2839 -13.598 -10.8771 -12.1037 -10.5745 -11.0968 -10.159 -8.274501 -13.9553 
-7.9885 -10.122 -12.3384 -14.1712 -13.4619 -14.4349 -15.3812 -12.2624 -14.5813 -19.9685 -17.4116 -17.2825 -18.0104 -17.5069 -13.851 -16.3663 -12.1037 -15.6163 -12.6098 -11.8591 -13.9553 
-3.325 -3.091 -3.9555 0 -2.3615 -3.9235 -4.254 -2.5195 -4.447 -1.7695 -4.377 -1.934 -4.3915 -1.4985 -3.1385 -1.7565 -3.9975 -2.3345 -4.663 -3.277 -2.0935 -3.5865 0 -4.0515 -3.8435 -3.58 -1.756 -4.3615 -2.925 -3.9115 -2.0935 -3.635 -3.2895 0 
-5.621 -6.185 -3.9555 -2.3615 -5.7745 -8.197001 -6.7675 -6.5235 -6.354 -6.7165 -6.4495 -6.2415 -5.311 -4.2575 -4.861 -5.1415 -6.754001 -6.726 -6.8385 -4.957 -5.3455 -3.5865 -4.0515 -6.4685 -6.0125 -4.684 -6.0385 -6.377 -6.8815 -4.9945 -5.865 -5.2415 -3.2895 
-7.7985 -6.185 -6.3665 -5.7745 -9.584001 -11.0511 -9.488501 -6.8375 -7.734 -8.331 -11.0934 -6.9265 -7.1875 -5.1835 -7.89 -7.685501 -11.6543 -8.224 -7.072001 -7.907001 -5.3455 -7.539001 -6.4685 -8.311501 -7.103 -9.505501 -7.717501 -7.755 -7.406001 -8.974001 -7.522 -5.2415 
-7.7985 -8.5425 -9.693001 -9.584001 -12.4065 -13.7721 -9.726001 -7.9885 -9.387 -13.2191 -11.7784 -8.5705 -7.4275 -8.012 -10.0035 -12.9286 -13.1523 -8.524 -8.809 -7.907001 -9.874001 -10.259 -8.311501 -9.095501 -12.2251 -10.6235 -9.123 -8.119 -11.6525 -10.7464 -7.522 
-10.047 -12.1556 -13.6713 -12.4065 -15.1275 -14.0096 -11.0518 -9.436501 -14.3533 -13.9041 -13.4224 -8.843 -10.172 -10.0375 -15.4534 -14.4266 -13.4523 -10.103 -8.809 -12.8281 -12.594 -12.102 -9.095501 -14.3456 -13.3431 -12.029 -9.456 -12.5463 -13.4249 -10.7464 
-2.9805 -4.3025 -1.7695 -3.5185 -4.536 0 -3.0435 0 -1.934 -1.4985 -2.95 -3.8405 -1.7565 -4.447 -1.7695 -4.377 0 
-7.8535 -5.715 -4.134 -9.755501 -4.536 -3.0435 -3.0435 -1.934 -2.6125 -3.9285 -5.133 -4.563 -6.508 -6.354 -6.7165 -4.377 
-10.1675 -7.793 -10.0005 -9.755501 -6.771501 -3.0435 -4.937 -2.6125 -5.674 -5.974 -6.517 -8.617001 -8.2085 -7.734 -6.7165 
-12.2455 -13.7929 -10.0005 -12.1518 -6.771501 -4.937 -5.646 -5.674 -7.2585 -7.02 -10.0095 -9.198501 -10.172 -7.734 
-18.2454 -13.7929 -12.4754 -12.1518 -10.459 -5.646 -9.014501 -7.2585 -8.3195 -10.138 -10.5475 -11.5792 -10.172 
-3.325 -3.091 -4.886 -2.5195 -1.4985 -3.158 -4.447 -1.7695 -4.377 0 -2.3615 -4.5675 -3.251 -4.7195 -4.3915 -1.7695 -3.859 -4.536 -2.0935 -1.4985 -3.1385 -1.7565 -3.9975 0 -3.8435 -3.58 0 -1.756 -4.1885 -7.6635 -2.0935 -5.15 -5.812 -2.229 -3.2895 
-5.621 -7.4005 -7.095 -3.1695 -4.178 -6.706 -6.354 -6.7165 -4.377 -2.3615 -6.74 -7.462 -6.109 -9.861 -5.3125 -4.462 -9.408501 -6.5795 -2.9725 -4.2575 -4.861 -5.1415 -3.9975 -3.8435 -6.0125 -3.58 -1.756 -5.6005 -13.0954 -9.6315 -6.1005 -10.703 -6.855 -5.268 
-7.5275 -9.786 -7.6225 -6.3945 -7.8075 -9.094501 -7.734 -6.7165 -6.934 -6.74 -9.051001 -9.6975 -12.0225 -10.378 -6.823 -9.613 -11.5198 -7.528 -5.5795 -5.1835 -7.89 -5.1415 -8.059 -6.0125 -6.0125 -4.684 -5.6005 -14.8396 -15.0634 -13.6321 -11.9581 -10.7425 -8.4875 
-9.883 -10.612 -11.3093 -9.4145 -9.7045 -10.5011 -7.734 -8.922501 -10.2185 -9.051001 -11.3421 -15.6022 -12.5395 -12.1079 -12.4248 -11.7317 -12.4683 -10.7592 -6.2405 -8.012 -7.89 -9.539001 -11.1912 -6.0125 -7.103 -8.4965 -14.8396 -16.8076 -19.064 -19.4897 -11.9976 -13.215 
-10.7215 -14.2988 -14.3293 -10.0795 -11.1743 -10.5011 -10.122 -12.3384 -13.1717 -11.3421 -17.2468 -16.1192 -14.2694 -17.7097 -14.5435 -12.6802 -15.6995 -11.4202 -9.0115 -8.012 -12.9015 -12.9996 -11.1912 -7.103 -10.6885 -17.854 -16.8076 -20.8082 -24.9216 -19.5292 -14.4701 
