-4.759 
n/a 
n/a 
n/a 
n/a 
-4.759 
n/a 
n/a 
n/a 
n/a 
-4.759 
n/a 
n/a 
n/a 
n/a 
-4.759 
n/a 
n/a 
n/a 
n/a 
-2.882 -2.489 -1.8085 -4.7285 -2.9705 -2.186 -4.6835 -2.3345 -1.4985 -3.4605 -4.0465 0 
-3.631 -3.799 -5.717 -6.9455 -3.89 -7.6335 -6.5205 -3.233 -4.652 -6.5575 -4.0465 
-5.078 -7.913001 -7.671 -7.750501 -9.0485 -7.988 -7.475501 -6.74 -6.7865 -6.5575 
-9.502501 -10.044 -8.3435 -13.1166 -9.196501 -8.773001 -11.4345 -8.2075 -6.7865 
-11.6223 -10.723 -13.9242 -13.2646 -10.0895 -12.841 -12.902 -8.2075 
-2.3615 -2.7765 -1.8085 -4.5005 -2.229 -4.0285 -4.7285 
-4.876 -5.43 -5.943501 -6.484 -5.448 -8.545 
-8.2325 -8.597501 -7.3395 -8.6415 -9.992001 
-11.5092 -10.7445 -10.111 -13.8979 
-13.6562 -13.516 -15.4724 
-8.972 -3.115 -1.8085 -4.7285 
-12.544 -4.2095 -5.717 
-13.6385 -8.291 
-17.72 
n/a 
-4.1115 -4.7285 -3.115 -4.5005 
-10.0645 -7.3665 -7.718501 
-12.7025 -12.2712 
-17.6072 
n/a 
