-4.759 
n/a 
n/a 
n/a 
n/a 
-4.759 
n/a 
n/a 
n/a 
n/a 
-4.759 
n/a 
n/a 
n/a 
n/a 
-4.759 
n/a 
n/a 
n/a 
n/a 
-1.934 -4.766 -1.8085 -5.5035 -2.8645 -4.9345 -8.567 -4.3215 -1.756 -1.4985 -4.3395 -2.9705 -3.7445 -3.2295 -2.4265 0 -1.756 -8.2565 -4.303 -3.5015 -1.7565 -9.4475 -2.7415 -3.9595 -3.222 -4.1115 
-5.9565 -6.926001 -7.035501 -7.9905 -6.6655 -14.3985 -9.343 -5.782001 -3.0405 -5.3695 -7.040501 -6.6285 -6.001 -5.3715 -2.4265 -1.756 -10.688 -13.3509 -7.3125 -4.783 -12.1532 -12.3802 -5.2105 -5.316 -7.4485 
-7.7215 -10.7495 -9.234501 -10.292 -16.7403 -15.1745 -10.8275 -6.75 -7.0805 -7.735001 -10.2925 -8.584001 -7.896 -5.3715 -4.303 -10.688 -15.7824 -16.3604 -8.6155 -15.8771 -15.0859 -14.8492 -6.5105 -11.1189 
-11.7674 -12.9485 -11.7128 -20.3668 -17.5163 -16.659 -11.7955 -9.7985 -9.6255 -11.168 -12.248 -10.9804 -7.896 -6.468 -14.3044 -15.7824 -18.7919 -17.6634 -19.738 -18.8098 -17.5549 -16.1492 -12.309 
-13.9664 -15.4268 -21.7876 -21.1428 -19.0008 -17.627 -14.844 -12.4299 -13.1339 -13.1235 -14.6444 -10.9804 -9.04 -16.7754 -19.3988 -18.7919 -20.0949 -28.7859 -22.6707 -21.2788 -18.8549 -21.9477 
-1.934 -1.4985 -3.158 -4.766 -4.3395 -3.958 -2.356 -4.9655 -3.7515 -1.4985 -8.567 -4.3215 -1.756 -3.074 -6.5625 -2.229 -4.303 -3.5015 -8.465501 -4.913 -1.934 -4.7525 0 
-2.6125 -4.178 -7.241 -10.123 -7.236001 -5.908 -7.0935 -8.967501 -4.6795 -9.3835 -9.343 -5.782001 -4.566 -10.647 -8.172501 -6.267 -7.3125 -12.962 -13.9013 -6.407 -6.481 -4.7525 
-5.265 -8.259001 -12.972 -13.0195 -9.796 -10.543 -11.3897 -9.5585 -12.9599 -9.7665 -10.8275 -8.537001 -12.325 -12.257 -12.5853 -8.8985 -16.9024 -18.3978 -15.3953 -11.684 -6.481 
-8.729501 -14.32 -15.8685 -15.5795 -14.402 -14.8392 -11.9807 -17.9947 -13.3429 -11.251 -13.5825 -16.4312 -13.935 -16.6698 -15.2168 -18.6504 -22.3382 -19.8918 -20.6723 -11.684 
-14.9205 -17.2165 -18.4285 -20.1855 -18.6982 -15.4302 -20.4169 -18.3777 -14.8274 -14.006 -21.4767 -18.0412 -18.3478 -19.3013 -24.9687 -24.0862 -23.8322 -25.1688 -20.6723 
-1.934 -4.766 -1.8085 -5.5035 -4.9345 -1.4985 -8.567 -4.3215 -1.4985 -4.9225 -3.0695 -2.4945 -3.6515 -1.934 -1.4985 -4.3215 -1.756 -1.4985 -4.3395 -2.9705 -4.6515 -1.934 -1.4985 -4.3215 0 -2.4265 -5.601 -8.2565 -7.627 -3.6245 
-5.9565 -6.926001 -7.035501 -9.023001 -5.9515 -9.3835 -9.343 -5.7225 -6.040501 -6.854 -4.2085 -4.7215 -5.66 -2.6125 -5.2155 -5.782001 -3.0405 -5.3695 -7.040501 -6.559501 -6.476501 -2.6125 -5.2155 -4.3215 -2.4265 -6.950001 -14.9791 -16.6749 -12.0897 
-7.7215 -10.7495 -9.709001 -9.951501 -14.1849 -9.7665 -10.768 -10.8353 -7.757 -7.7985 -6.4535 -6.8655 -6.298501 -6.9545 -6.4795 -6.75 -7.0805 -7.735001 -9.633501 -8.642 -7.084 -6.9545 -5.2155 -6.839001 -6.950001 -16.9797 -23.3975 -21.1376 
-11.7674 -13.423 -10.2945 -18.1849 -14.5679 -11.1915 -15.8808 -12.5518 -8.647 -10.403 -8.7775 -7.342 -11.2935 -8.1675 -7.405001 -9.7985 -9.6255 -10.3815 -11.939 -9.127001 -11.9022 -6.9545 -7.485001 -11.9127 -16.9797 -25.3981 -27.8602 
-14.4409 -14.0085 -18.5279 -18.5679 -15.9929 -16.3043 -17.5973 -13.4418 -11.5377 -12.6812 -9.4355 -12.6718 -12.5065 -9.21 -10.1985 -12.4299 -12.3474 -12.687 -12.424 -14.2678 -11.9022 -9.139501 -12.8259 -21.9424 -25.3981 -29.8608 
-1.934 -4.766 -2.871 -3.8665 -7.775001 -5.198 -4.889 -2.664 -4.3215 -1.756 -2.264 -4.2215 -1.7565 -1.4985 -4.3215 -4.9655 -4.3395 0 -1.756 -9.4475 -2.186 -3.074 -4.452 0 
-5.9565 -7.9975 -7.1565 -13.0427 -13.4286 -9.781501 -7.302001 -8.719 -5.782001 -4.4925 -7.0825 -5.904 -2.4195 -5.2155 -9.4755 -8.865001 -4.3395 -1.756 -11.1415 -11.8247 -4.156 -6.9605 -4.452 
-8.6085 -12.7138 -16.7091 -18.6963 -18.0121 -12.9337 -14.2734 -10.451 -8.153001 -9.672 -7.8425 -7.059 -6.088 -10.1895 -13.4886 -8.865001 -5.8065 -11.1415 -13.5187 -13.7947 -10.3045 -6.9605 
-13.603 -22.2664 -22.3627 -23.2798 -21.1643 -19.9051 -16.0054 -12.822 -13.7765 -10.511 -10.4721 -10.702 -11.4556 -14.2026 -13.4886 -10.468 -16.1204 -13.5187 -15.4887 -19.9432 -10.3045 
-23.1556 -27.92 -26.9462 -26.432 -28.1357 -21.6371 -18.3764 -18.4455 -14.6155 -13.1406 -14.1151 -16.0696 -15.4687 -14.2026 -15.0916 -20.7819 -18.4976 -15.4887 -21.6372 -19.9432 
