-4.759 
n/a 
n/a 
n/a 
n/a 
-4.759 
n/a 
n/a 
n/a 
n/a 
-4.759 
n/a 
n/a 
n/a 
n/a 
-4.759 
n/a 
n/a 
n/a 
n/a 
-1.8085 -5.34 0 -4.6785 -3.9205 -1.7695 -7.009 -2.229 -4.0355 0 -5.8525 -3.332 -3.5935 -6.658 -4.446 -1.7695 -3.595 
-6.3575 -5.34 -4.6785 -9.4875 -4.971 -8.9575 -7.806 -5.7765 -4.0355 -5.8525 -8.825001 -6.0495 -10.9575 -9.015 -6.159 -4.741 
-6.3575 -10.9075 -9.4875 -10.2245 -13.0192 -9.431001 -9.8785 -5.7765 -10.127 -8.825001 -10.76 -13.8547 -13.3145 -10.8954 -9.546 
-12.5894 -15.7165 -10.2245 -18.4105 -13.4927 -11.5491 -9.8785 -12.2154 -13.1511 -10.76 -18.5652 -16.2117 -15.1949 -14.2824 
-17.3984 -16.4535 -18.4105 -18.884 -15.6108 -11.5491 -16.512 -15.2395 -15.0861 -18.5652 -20.9222 -18.0921 -18.5819 
-1.8085 -5.34 -4.385 -3.9205 -2.3345 -3.091 -4.0355 -4.1585 -2.7455 -3.332 -5.186 -3.034 -7.009 -2.7415 -3.736 0 
-6.3575 -8.068501 -8.56 -5.811 -4.9475 -5.579 -7.138 -6.271 -5.2285 -8.31 -7.513 -9.5705 -8.623 -7.5825 -3.736 
-8.634501 -12.6447 -10.233 -7.1175 -6.739 -8.365 -9.689 -8.1195 -9.887501 -10.7768 -14.2853 -10.47 -13.7004 -7.5825 
-13.5951 -14.3177 -11.5297 -10.328 -9.9368 -11.6628 -10.7625 -12.9595 -12.4131 -17.5491 -15.1848 -15.5474 -13.7004 
-15.2681 -15.6144 -14.7402 -13.5258 -13.2346 -12.7363 -15.6025 -15.4851 -19.1854 -18.4486 -20.2622 -15.5474 
-1.8085 -5.34 -3.0695 -2.7415 -3.3235 -3.3785 -1.7695 -3.091 -4.0355 -4.6505 -3.332 -3.718 -1.7695 -3.595 
-6.3575 -7.1505 -4.6395 -5.541 -6.351501 -5.632 -4.458 -5.579 -8.5635 -7.415 -6.092 -5.410501 -4.741 
-7.6645 -8.2205 -7.49 -8.700001 -8.166 -8.73 -6.787 -9.651501 -11.7524 -9.714001 -7.3995 -8.402 
-8.7135 -11.2562 -10.0095 -9.615001 -11.5736 -11.3898 -11.2379 -12.8144 -14.0514 -10.3505 -9.8675 
-11.8144 -13.7757 -11.2897 -13.1588 -14.2334 -15.8407 -14.4008 -15.1134 -14.6879 -12.8185 
-4.1205 -5.1845 -5.7505 -1.756 -5.4135 -8.2615 -9.886001 -2.8645 -5.724 -2.3335 -7.009 -2.229 0 -5.1765 -1.7695 -1.4985 -4.0195 -1.7565 -1.4985 -5.1845 -6.844 -2.7415 -6.712 0 -2.9805 -2.7415 -1.4985 -3.098 -3.6385 -1.934 -4.628 -4.743 -3.0695 -3.423 -4.5445 -2.7835 -3.0365 -3.2645 -2.489 -3.8275 -2.4285 -4.241 
-8.676001 -9.513 -7.7955 -6.9375 -10.375 -10.1635 -11.1355 -7.108 -6.296 -8.816501 -7.806 -2.229 -5.1765 -5.719501 -2.7955 -5.06 -4.874001 -2.4195 -6.5205 -6.9655 -9.2815 -8.458 -6.712 -2.9805 -4.004 -4.063 -4.123 -6.662 -5.1365 -5.9605 -4.7515 -7.972 -5.397 -6.705501 -5.796 -4.4665 -5.2955 -3.7195 -7.3245 -6.103 -6.951 
-13.7111 -11.8266 -13.4562 -12.0252 -10.4385 -11.413 -15.379 -7.778 -13.2584 -9.855 -7.806 -6.568501 -5.719501 -6.4025 -6.251 -5.29 -5.635 -7.2335 -8.643001 -9.420501 -15.0566 -8.458 -8.982 -4.004 -5.390501 -5.4855 -6.7565 -7.5395 -9.582001 -5.9845 -7.9905 -10.341 -8.617001 -8.2145 -7.6705 -7.280001 -5.3645 -8.9165 -9.040001 -7.5935 
-16.0247 -17.4873 -18.5439 -12.0887 -11.688 -15.6565 -16.049 -15.0178 -14.2969 -9.855 -12.7641 -6.743501 -6.4025 -7.948 -6.5705 -5.8465 -9.963501 -9.159 -11.1762 -15.1842 -15.0566 -9.852501 -9.908501 -5.390501 -6.6365 -7.6525 -7.5595 -12.5162 -9.665001 -8.505 -10.3605 -13.561 -10.3345 -10.081 -9.219001 -7.367001 -9.338501 -10.375 -9.497001 
-21.6854 -22.575 -18.6074 -13.3382 -15.9315 -16.3265 -23.2888 -16.0563 -14.2969 -14.8131 -12.9391 -7.578501 -7.948 -8.2965 -7.2535 -10.0435 -12.0956 -11.8012 -16.9399 -15.1842 -16.4511 -10.438 -11.3288 -6.6365 -8.059 -8.3465 -12.5692 -12.5992 -10.5265 -10.586 -13.5805 -15.2785 -12.201 -11.6455 -9.232 -10.103 -10.495 -10.832 
