-4.759 
n/a 
n/a 
n/a 
n/a 
-4.759 
n/a 
n/a 
n/a 
n/a 
-4.759 
n/a 
n/a 
n/a 
n/a 
-4.759 
n/a 
n/a 
n/a 
n/a 
-3.4635 -2.3335 0 -2.9805 -3.251 -4.96 -3.3195 -2.0935 -1.4985 -3.7805 -3.115 -9.8155 -10.4705 0 -8.2865 -10.7545 -9.962501 -1.4985 -4.235 -3.402 -4.7285 -4.1455 -1.934 -3.1495 -3.7805 -3.152 -3.4915 -5.237 0 
-6.2075 -2.3335 -2.9805 -4.429 -7.557501 -7.348 -5.3015 -2.9725 -5.3595 -6.477 -13.7061 -20.7878 -10.4705 -8.2865 -19.3684 -20.717 -11.5376 -5.058001 -7.455501 -7.971001 -6.35 -5.8585 -4.5395 -6.506001 -6.8285 -6.054501 -7.6155 -5.237 
-6.2075 -4.1515 -4.429 -8.030001 -9.421 -7.707 -6.156 -7.236501 -8.277 -17.4707 -24.6784 -20.7878 -18.757 -19.3684 -29.3309 -22.2921 -15.0971 -8.582001 -10.4855 -9.948001 -7.976001 -8.6385 -7.3525 -8.167001 -9.358 -9.9455 -7.6155 
-7.989 -5.2495 -8.030001 -9.986 -9.566001 -8.4235 -8.458 -9.913001 -19.4039 -28.443 -24.6784 -29.0743 -29.8389 -29.3309 -30.906 -25.8516 -18.6211 -11.7902 -12.7501 -11.642 -10.8812 -10.6095 -9.8915 -10.8535 -13.4562 -9.9455 
-9.519001 -8.927501 -9.986 -10.2035 -10.0345 -10.6215 -11.5493 -21.0399 -30.3762 -28.443 -32.9649 -40.1562 -39.8014 -30.906 -34.4655 -29.3756 -21.8293 -14.0548 -14.4441 -14.5472 -12.8522 -13.1485 -12.578 -14.9517 -13.4562 
-4.3895 -2.3345 -9.8155 -10.4705 0 -8.2865 -10.225 -9.2945 -2.4945 -3.135 -1.7565 -1.4985 -3.6975 -4.0865 -4.1455 -2.356 -1.4985 -5.8195 -1.7565 -1.4985 -4.5475 -4.927 -3.152 -2.7415 -5.237 -2.3345 -2.5685 0 
-4.6785 -12.4806 -20.7878 -10.4705 -8.2865 -11.117 -11.0145 -12.3418 -4.575 -3.9195 -2.4195 -5.259501 -7.909 -6.724 -6.085 -3.1615 -6.8795 -6.7355 -2.4195 -5.662001 -9.9405 -8.4195 -7.264 -6.736 -6.264 -4.884 -2.5685 
-15.5882 -23.4529 -20.7878 -18.757 -11.117 -11.9065 -14.0618 -14.4223 -5.097 -4.168 -5.9315 -8.731001 -8.907001 -8.717 -7.207 -8.5985 -7.103 -7.123001 -6.448501 -10.1265 -13.433 -12.7501 -11.4581 -7.138 -7.7545 -4.884 
-26.5605 -23.4529 -29.0743 -21.5875 -11.9065 -14.9538 -16.1423 -14.9443 -5.465 -7.090001 -9.204 -10.361 -10.2485 -9.750501 -13.0796 -8.928 -7.53 -11.8114 -11.0252 -13.619 -17.7636 -16.9442 -11.8601 -8.672 -7.7545 
-26.5605 -31.7394 -31.9048 -22.377 -14.9538 -17.0343 -16.6643 -15.3123 -7.553 -10.9059 -11.1666 -11.7025 -12.1304 -15.6231 -13.4091 -9.3835 -12.0582 -16.3881 -14.5177 -17.9496 -21.9577 -17.3462 -13.3941 -8.672 
-1.4985 -5.1955 -1.7565 -2.3335 -1.4985 -4.3225 -3.115 0 -10.14 -12.16972 0 0 -8.2865 -9.396501 -9.962501 0 -3.251 -1.8085 -3.4155 -4.02 -3.433 -1.7565 -1.4985 -4.4015 -6.5675 -2.9705 -2.186 -3.8535 -2.3345 -3.595 
-5.9565 -5.5305 -4.314 -3.3515 -5.8325 -6.565001 -3.115 -10.14 -22.36252 -12.16972 0 -8.2865 -10.004 -10.9575 -9.962501 -3.251 -4.1695 -4.0495 -5.834001 -6.867 -4.1845 -2.4195 -5.5385 -10.089 -8.98 -3.89 -4.972 -5.069 -5.597 
-6.067 -7.56 -6.3585 -7.712 -8.724501 -6.565001 -14.0306 -22.36252 -22.36252 -12.16972 -8.2865 -10.004 -11.8842 -10.9575 -13.2901 -4.1695 -5.5535 -6.192 -8.383 -7.586 -4.6515 -6.320001 -10.3155 -12.8987 -10.5865 -6.909 -5.838 -7.5325 
-8.0585 -9.688001 -10.733 -10.7595 -8.724501 -17.75 -26.25312 -22.36252 -22.36252 -20.45622 -10.004 -11.8842 -11.8842 -14.2851 -14.2086 -5.5535 -8.304001 -8.59 -8.8675 -8.0265 -8.705501 -11.2814 -13.8872 -14.5052 -13.6055 -7.511001 -9.116 
-10.4415 -14.2985 -13.7805 -10.7595 -20.0697 -29.97252 -26.25312 -22.36252 -30.64902 -22.17372 -11.8842 -11.8842 -15.2118 -15.2036 -15.5926 -8.304001 -10.7335 -9.074 -9.325001 -12.2267 -14.1025 -14.8531 -15.4937 -17.5242 -14.2075 -10.4105 
-4.448 -2.3335 -1.4985 -4.1455 -2.9805 -4.96 -2.356 -4.7285 -5.03 -1.934 -1.4985 -3.7805 -9.8155 -12.16972 0 -8.2865 -9.396501 -10.0455 -3.7555 -3.4915 -4.936 0 
-7.418 -3.3515 -5.3955 -6.7375 -6.9405 -7.156 -7.2065 -9.0045 -6.904 -2.6125 -5.3595 -14.8008 -22.48702 -12.16972 -8.2865 -10.004 -10.7025 -13.9948 -6.802 -7.521 -4.936 
-9.1665 -7.3505 -7.377 -8.966001 -9.09 -12.2737 -11.9273 -10.661 -7.5795 -6.3525 -16.9144 -27.47232 -22.48702 -20.45622 -10.004 -11.6292 -14.6518 -17.0413 -10.396 -7.521 
-13.2717 -9.3275 -9.528 -10.361 -14.2647 -16.9945 -13.5838 -11.3365 -11.6149 -18.2808 -29.58592 -27.47232 -30.77352 -22.17372 -11.6292 -15.5785 -17.6983 -20.6353 -10.396 
-15.2487 -11.6591 -10.9454 -15.5357 -18.9855 -18.651 -14.2593 -15.3719 -23.5432 -30.95232 -29.58592 -35.75882 -32.49102 -23.79892 -15.5785 -18.625 -21.2923 -20.6353 
