-4.759 
n/a 
n/a 
n/a 
n/a 
-4.759 
n/a 
n/a 
n/a 
n/a 
-4.759 
n/a 
n/a 
n/a 
n/a 
-4.759 
n/a 
n/a 
n/a 
n/a 
-3.5315 -2.1715 -2.8845 -4.02 -12.25 0 
-4.928 -4.7745 -7.263 -14.3965 -10.5975 
-5.9955 -8.272 -18.2447 -14.3667 
-8.315001 -20.1129 -18.2447 
-20.5761 -20.1129 
-3.5315 -2.1715 0 -2.8845 -4.02 -2.186 -12.25 0 
-4.928 -2.1715 -2.8845 -7.263 -5.624 -13.6185 -10.5975 
-4.928 -4.7745 -7.263 -9.4245 -15.9625 -13.5705 
-5.9955 -8.272 -9.4245 -20.0878 -16.0205 
-8.315001 -11.2927 -20.0878 -20.0878 
-12.2315 -4.02 -2.264 -3.5315 -2.1715 0 -2.8845 
-13.317 -6.628 -4.8735 -4.928 -2.1715 -2.8845 
-16.2152 -8.586 -6.019001 -4.928 -4.7745 
-18.5722 -8.6525 -6.019001 -5.9955 
-18.6387 -8.6525 -7.039001 
-4.02 -1.934 -4.208 -3.5315 -2.8845 -2.186 -12.25 
-5.502 -6.304 -6.6265 -4.6505 -5.885 -13.6185 
-10.5368 -9.7635 -7.586 -7.818501 -16.5065 
-13.9963 -10.7462 -10.6465 -18.7314 
-14.979 -13.8067 -21.5594 
