-4.759 
n/a 
n/a 
n/a 
n/a 
-4.759 
n/a 
n/a 
n/a 
n/a 
-4.759 
n/a 
n/a 
n/a 
n/a 
-4.759 
n/a 
n/a 
n/a 
n/a 
-3.859 -8.866501 -6.9645 -2.95 -5.1845 -3.177 -3.17 -6.4115 -4.245 -2.264 -12.16972 -3.881 -2.3345 -8.292001 
-13.9883 -16.741 -10.5397 -9.214001 -8.456 -6.564 -8.754 -11.3539 -5.8345 -15.46572 -16.05072 -4.5275 -10.485 
-21.8628 -20.3162 -16.8037 -12.4619 -12.9154 -12.6212 -13.9168 -12.9434 -19.41482 -19.34672 -16.69722 -13.445 
-25.438 -26.5802 -20.0516 -16.9213 -18.9726 -17.784 -15.5063 -26.52372 -23.29582 -19.99322 -25.61472 
-31.702 -29.8281 -24.511 -22.9785 -24.1354 -19.3735 -29.08662 -30.40472 -23.94232 -28.91072 
-2.871 -1.7565 -1.4985 -3.2825 -3.3785 -5.1845 -3.213 -1.7565 -2.3615 -3.8405 -2.186 -1.4985 -9.9495 -2.3345 -8.234 -3.0695 -6.180501 -3.5455 -1.4985 -5.362 -1.7565 -9.165 -4.1025 0 
-3.5385 -2.4195 -3.712 -7.264 -8.927 -9.343 -4.766 -3.523 -5.371 -5.629 -3.339 -10.884 -12.3858 -9.531 -10.543 -7.7425 -7.652501 -3.91 -6.038501 -5.843 -9.765501 -10.1425 -4.1025 
-3.7675 -4.687 -7.972501 -12.9025 -13.2217 -10.4955 -6.6755 -6.52 -6.887 -6.806 -13.2399 -13.3203 -19.5823 -12.0868 -15.216 -8.970501 -7.7935 -6.6785 -6.073501 -10.564 -10.589 -10.1425 
-4.982 -8.485001 -13.4934 -17.1972 -14.3742 -12.405 -8.4135 -7.8795 -8.001 -17.2139 -15.6762 -20.5168 -22.1381 -16.7598 -16.444 -9.057 -9.161501 -6.683001 -10.5635 -11.3875 -10.589 
-8.7445 -14.0269 -17.7881 -18.3497 -16.2837 -14.143 -9.252501 -8.6555 -18.3827 -19.6502 -22.8727 -23.0726 -26.8111 -17.9878 -16.5305 -9.890501 -9.164001 -10.757 -11.387 -11.3875 
-8.292001 -4.657 -1.934 -3.859 -8.866501 -8.164001 -2.229 -3.8405 0 -2.9805 -3.881 -1.934 -1.4985 -3.188 -2.229 -3.2825 -4.245 -7.174 -7.993001 0 
-13.3318 -5.156 -5.832 -13.9883 -10.4185 -10.329 -6.798501 -3.8405 -2.9805 -8.005501 -5.05 -2.6125 -3.619 -4.279 -4.672 -7.8785 -12.3848 -9.3085 -7.993001 
-13.8308 -9.475 -16.6687 -15.5403 -12.5835 -14.8985 -6.798501 -6.4635 -8.005501 -9.498501 -5.829 -4.377 -4.3695 -5.635 -8.359501 -16.6197 -14.5193 -9.3085 
-18.1498 -20.8109 -18.2207 -17.7053 -17.153 -14.8985 -9.534 -11.9527 -9.498501 -10.144 -8.990001 -6.130001 -5.772 -8.376 -17.7051 -18.7542 -14.5193 
-29.4857 -22.3629 -20.3857 -22.2748 -17.153 -17.634 -15.1054 -13.4457 -10.144 -13.305 -9.942501 -7.907001 -8.383 -17.7936 -19.8396 -18.7542 
-8.292001 -4.0385 -1.4985 -3.452 -12.16972 -1.934 -1.4985 -3.8405 -1.7565 -3.859 -12.16972 0 
-11.046 -5.3245 -4.4485 -16.69252 -14.10372 -2.6125 -4.7545 -4.563 -5.583 -17.29152 -12.16972 
-12.332 -6.6955 -18.12622 -18.62652 -14.78222 -5.7585 -5.365 -9.627 -19.94872 -17.29152 
-13.703 -20.74262 -20.06022 -19.30502 -17.92822 -6.6715 -10.0635 -23.96592 -19.94872 
-27.75012 -22.67662 -20.73872 -22.45102 -18.84122 -11.5576 -24.46542 -23.96592 
