-4.759 
n/a 
n/a 
n/a 
n/a 
-4.759 
n/a 
n/a 
n/a 
n/a 
-4.759 
n/a 
n/a 
n/a 
n/a 
-4.759 
n/a 
n/a 
n/a 
n/a 
0 -12.16972 -5.585 0 -3.718 -2.186 -3.793 -1.934 -12.16972 -3.852 0 
-12.16972 -17.75472 -5.585 -3.718 -5.353 -5.3225 -4.752 -15.11012 -16.02172 -3.852 
-17.75472 -17.75472 -10.276 -5.353 -8.2025 -6.244 -18.64712 -18.96212 -16.02172 
-17.75472 -22.44572 -11.911 -8.2025 -8.935 -20.77052 -22.49912 -18.96212 
-22.44572 -24.08072 -14.7605 -8.935 -23.60172 -24.62252 -22.49912 
0 -12.16972 -5.585 0 -2.9705 -2.186 -3.793 -1.934 -12.16972 -3.1065 -3.7425 
-12.16972 -17.75472 -5.585 -2.9705 -3.89 -5.3225 -4.752 -15.11012 -15.27622 -7.231 
-17.75472 -17.75472 -7.8265 -3.89 -6.759 -6.244 -18.64712 -18.21662 -19.40072 
-17.75472 -19.99622 -9.3615 -6.759 -7.606501 -20.77052 -21.75362 -22.34112 
-19.99622 -21.53122 -12.2559 -7.606501 -22.33442 -23.87702 -25.87812 
-12.16972 -5.585 -2.186 -3.614 -1.7565 -12.16972 -3.432 -3.213 -4.535 
-17.75472 -7.936 -7.863501 -4.9095 -14.87542 -15.60172 -6.553 -8.769 
-20.10572 -13.8029 -8.8815 -18.81942 -18.30742 -18.72272 -12.294 
-25.97262 -14.8209 -22.81062 -22.25142 -21.42842 -24.46372 
-26.99062 -28.75002 -26.24262 -25.37242 -27.16942 
-1.4985 -4.867 -2.264 0 -8.424001 -5.585 0 -2.3335 -2.7415 -3.793 -1.934 -1.4985 -3.16 -3.852 -1.7565 -12.16972 
-6.097 -6.0045 -2.264 -8.424001 -9.796 -5.585 -2.3335 -4.2725 -5.337501 -4.752 -2.6125 -4.0625 -6.709001 -6.0125 -14.87542 
-7.524 -6.0045 -11.72 -9.796 -9.796 -7.677 -4.2725 -6.817 -5.761 -5.2475 -5.7115 -8.006001 -8.477 -20.08662 
-7.524 -15.8639 -13.092 -9.796 -12.0686 -9.7405 -6.817 -7.146 -6.272 -8.3295 -9.477 -9.161501 -23.25772 
-17.4752 -17.2359 -13.092 -12.0686 -14.1321 -12.3496 -7.146 -7.5105 -10.047 -10.0185 -10.7569 -24.34202 
