-4.759 
n/a 
n/a 
n/a 
n/a 
-4.759 
n/a 
n/a 
n/a 
n/a 
-4.759 
n/a 
n/a 
n/a 
n/a 
-4.759 
n/a 
n/a 
n/a 
n/a 
-7.037 -3.6885 
-10.8215 
n/a 
n/a 
n/a 
-4.348 -3.4075 -4.0905 -2.186 -7.1525 -4.2915 0 
-7.188 -7.6245 -5.5435 -10.214 -12.0304 -4.2915 
-12.3802 -9.653 -14.0617 -15.0919 -12.0304 
-14.4087 -18.1954 -18.9396 -15.0919 
-22.9511 -23.0733 -18.9396 
-4.348 -3.4075 -8.8155 0 -3.881 -1.934 -7.1525 -3.6885 
-7.188 -9.567 -8.8155 -3.881 -5.05 -9.398001 -11.4274 
-14.3227 -9.567 -12.9747 -5.05 -13.4214 -13.8793 
-14.3227 -14.0114 -14.1437 -13.4214 -17.9027 
-18.7671 -15.1804 -22.5151 -17.9027 
-3.4075 -5.3865 -1.7565 -4.348 -2.7415 -3.881 -1.934 -5.693 -3.6885 0 
-6.029 -6.8255 -5.8355 -7.3645 -5.344501 -5.05 -7.3675 -7.456501 -3.6885 
-7.224 -9.656501 -8.4205 -10.6095 -6.251 -9.248501 -8.614 -7.456501 
-9.684 -12.3673 -11.7575 -11.516 -10.1225 -10.1075 -8.614 
-12.4024 -15.7043 -12.664 -15.3875 -10.26 -10.1075 
