-4.759 
n/a 
n/a 
n/a 
n/a 
-4.759 
n/a 
n/a 
n/a 
n/a 
-4.759 
n/a 
n/a 
n/a 
n/a 
-4.759 
n/a 
n/a 
n/a 
n/a 
-6.993001 -8.3265 -12.16972 -12.16972 -4.7015 -3.7875 0 
-15.8245 -20.95162 -24.33944 -16.87122 -8.75 -3.7875 
-28.44962 -33.12134 -29.04094 -20.91972 -8.75 
-40.61934 -37.82284 -33.08944 -20.91972 
-45.32084 -41.87134 -33.08944 
-6.869 -7.937 -4.7885 -3.6505 -12.16972 -3.7555 
-15.1726 -13.4667 -8.6125 -16.82282 -15.92522 
-20.7023 -17.2907 -22.12462 -20.57832 
-24.5263 -30.80282 -25.88012 
-38.03842 -34.55832 
-1.934 -2.5645 -3.277 -6.2485 -2.9805 -3.43 -3.237 -1.7695 -4.548 
-5.1975 -4.602 -10.8415 -10.3285 -5.2875 -5.759501 -5.6115 -5.304 
-6.54 -12.7371 -14.9215 -12.6355 -8.531 -7.735001 -9.224001 
-14.7983 -16.8171 -17.2285 -15.879 -10.5745 -11.8573 
-18.8783 -19.1241 -20.472 -17.9225 -14.6968 
-4.687 -4.875 -6.8525 -3.7555 -4.3895 -3.9225 -3.1385 
-9.353001 -12.7019 -11.5196 -8.614 -8.8935 -6.1675 
-17.6247 -17.369 -16.3781 -13.2038 -11.5247 
-22.2918 -22.2275 -20.9679 -15.835 
-27.1503 -26.8173 -23.5991 
