-4.759 
n/a 
n/a 
n/a 
n/a 
-4.759 
n/a 
n/a 
n/a 
n/a 
-4.759 
n/a 
n/a 
n/a 
n/a 
-4.759 
n/a 
n/a 
n/a 
n/a 
-1.4985 -4.622 -4.1455 -1.7565 -3.995 -4.0935 -4.916 -1.7565 -4.3 -1.756 -4.033 -4.045 -1.7565 -5.392 -3.183 -3.115 -2.8965 -4.2205 -5.2365 0 
-5.221 -6.457 -5.11 -5.423 -8.262501 -9.462 -5.372 -5.5075 -5.639 -5.167 -5.9675 -4.939 -6.4925 -9.1745 -4.7715 -5.740001 -6.977 -8.9445 -5.2365 
-6.749001 -6.7215 -7.788001 -9.592501 -13.7422 -9.5395 -8.661501 -6.5935 -6.6335 -6.820001 -6.4195 -7.557 -10.6465 -10.4685 -7.027 -9.637001 -10.2135 -8.9445 
-6.893 -10.0551 -12.3717 -15.2952 -13.8197 -12.8586 -9.613001 -7.6415 -7.215 -7.183001 -8.949 -12.0688 -11.9405 -12.724 -11.1372 -12.9717 -10.2135 
-10.3224 -14.6388 -18.0744 -15.3727 -17.1388 -13.8101 -10.4955 -8.587501 -7.567501 -9.671 -13.752 -13.3628 -14.196 -16.8342 -14.4719 -12.9717 
-1.4985 -4.4315 -1.7565 -1.4985 -3.995 0 -3.115 -2.3335 -1.7565 -1.4985 -2.8965 -5.383 -5.2365 0 -2.186 -4.7925 -3.222 -4.8515 -2.3345 -2.985 -4.3 -2.4285 -4.033 0 -6.776 0 -4.045 0 
-5.1515 -5.76 -2.4195 -4.712 -3.995 -3.115 -4.7415 -4.618 -2.4195 -3.928 -7.543 -7.2375 -5.2365 -2.186 -5.544001 -5.2095 -7.5005 -7.223 -4.871 -6.989501 -6.324 -5.8275 -4.033 -6.776 -6.776 -4.045 -4.045 
-5.8885 -6.029 -5.2205 -4.712 -6.72 -4.7415 -6.186501 -5.106 -4.976501 -8.632501 -8.5255 -7.2375 -7.427501 -5.544001 -5.673501 -8.747 -9.540501 -9.6185 -8.365001 -9.06 -7.3745 -5.8275 -9.597 -6.776 -7.3385 -4.045 
-6.114 -7.748001 -5.2205 -7.508 -8.913 -6.186501 -6.793 -6.9425 -9.442 -8.8745 -8.5255 -9.092501 -10.442 -5.673501 -9.076 -10.4035 -10.478 -10.577 -10.044 -9.336501 -7.3745 -10.634 -9.597 -7.3385 -7.3385 
-7.817 -7.748001 -8.157001 -9.421 -9.2965 -6.793 -8.686501 -10.047 -9.687 -8.8745 -9.878 -10.598 -10.5075 -9.076 -10.533 -10.5985 -10.614 -10.618 -10.424 -9.336501 -10.6465 -10.634 -10.2505 -7.3385 
-1.4985 -4.622 -4.3755 -1.7565 -3.995 -2.186 -3.074 -4.7925 -3.222 -4.887 -3.402 -2.264 -1.4985 -4.3 -2.4285 -7.469501 -4.045 -2.5045 -2.8965 -5.2365 0 
-5.221 -7.373 -4.5345 -5.423 -5.7465 -4.156 -7.34 -5.2095 -7.685 -8.3925 -3.793 -2.9195 -5.4455 -6.324 -9.557001 -9.8655 -6.2345 -5.2835 -6.56 -5.2365 
-7.6495 -7.6375 -8.474 -7.5575 -8.09 -7.87 -7.699 -8.5055 -9.889501 -8.4515 -4.34 -6.898 -7.580501 -14.6407 -11.9956 -12.1192 -9.0825 -9.186001 -6.56 
-7.829 -11.9652 -10.1515 -9.818001 -10.6875 -8.064 -10.9406 -10.9118 -9.981501 -9.0595 -8.075001 -9.2995 -16.1256 -17.0793 -14.2493 -14.9672 -13.1026 -9.186001 
-12.2891 -13.6427 -12.569 -12.4155 -10.757 -11.4552 -13.3469 -11.0038 -11.0275 -12.8763 -10.6205 -18.0848 -18.5642 -19.333 -17.0973 -18.9873 -13.1026 
-1.4985 -3.9875 -3.355 -1.7565 -1.4985 -3.995 -2.186 -3.1125 -5.898 -2.264 -1.4985 -3.918 -2.186 -1.7565 -4.3 0 -4.033 -5.058 -1.7565 -4.5105 -3.681 
-5.1005 -7.704 -3.725 -2.4195 -4.712 -5.7465 -6.9115 -10.4945 -8.9425 -2.9195 -4.8715 -5.801001 -4.858 -5.5075 -4.3 -4.033 -7.43 -5.5855 -6.126501 -9.007 
-7.9965 -7.97 -4.0515 -5.2205 -6.1195 -10.2865 -14.5027 -13.539 -9.320001 -6.2565 -6.646501 -8.515501 -9.750501 -5.5075 -6.888 -7.43 -7.909 -9.863501 -10.634 
-8.150001 -8.113001 -6.991 -6.912 -10.9567 -18.3241 -17.5472 -13.9165 -13.1378 -8.3835 -9.108001 -13.2894 -9.750501 -8.011001 -10.609 -7.909 -12.7164 -14.4744 
-8.2635 -11.3637 -8.433001 -11.9086 -18.9943 -21.3686 -17.9247 -17.7343 -15.2648 -11.0102 -13.8751 -13.2894 -12.3142 -12.1206 -11.088 -12.7164 -17.3273 
