-4.759 
n/a 
n/a 
n/a 
n/a 
-4.759 
n/a 
n/a 
n/a 
n/a 
-4.759 
n/a 
n/a 
n/a 
n/a 
-4.759 
n/a 
n/a 
n/a 
n/a 
-3.0365 -2.7415 -2.664 -3.8375 -1.934 -1.4985 -8.356501 -1.756 -2.3335 -3.2875 -2.742 -3.7905 -1.8085 -3.9535 -2.0935 -3.38 -3.8355 0 -2.5045 -3.543 -1.4985 -3.1385 -1.7565 -7.1525 0 
-4.2225 -4.6625 -5.739 -5.7375 -2.6125 -10.9315 -9.948501 -4.016 -6.135 -6.054 -5.126 -4.255 -6.124001 -4.9245 -5.0975 -5.2885 -3.8355 -2.5045 -5.323 -5.62 -4.2575 -4.861 -9.123501 -7.1525 
-5.384 -7.735001 -6.7565 -6.104 -12.4397 -12.5235 -12.2085 -8.0005 -8.432501 -8.294001 -5.951 -7.733 -6.7735 -6.604001 -6.93 -5.2885 -6.451 -5.323 -5.8685 -9.448501 -5.1835 -13.0986 -9.123501 
-8.559001 -8.729 -6.9875 -16.847 -14.0317 -14.7835 -16.193 -9.9615 -10.389 -8.957001 -8.9425 -8.354501 -8.509001 -8.411501 -6.93 -7.7815 -9.137501 -5.8685 -9.7755 -10.6601 -13.5537 -13.0986 
-9.515 -8.9235 -18.0589 -18.439 -16.2917 -18.768 -18.154 -11.9452 -11.219 -12.0485 -9.4635 -10.0605 -9.9975 -8.411501 -9.120501 -10.7175 -9.685 -9.7755 -11.3219 -19.0303 -13.5537 
-1.4985 -3.5125 -1.7565 -6.6995 -3.644 -2.3335 -3.0365 -2.7415 -2.664 -3.8375 -3.849 -1.4985 -8.966001 -3.8375 0 -1.8085 -3.8175 -3.0435 -3.307 -1.7565 -3.502 -3.75 -3.994 0 
-4.7015 -4.312 -7.89 -10.249 -4.989501 -4.2925 -4.2225 -4.6625 -5.739 -7.39 -4.7705 -11.5583 -13.2859 -3.8375 -1.8085 -4.55 -6.5195 -5.2325 -4.8035 -4.9855 -5.0795 -5.276 -3.994 
-4.846 -10.9877 -11.6135 -11.5945 -6.695001 -5.2565 -5.384 -7.735001 -7.9065 -8.514501 -14.7285 -15.8782 -13.2859 -6.3085 -4.55 -7.444 -8.849001 -7.710001 -7.5115 -6.653 -5.751 -5.276 
-11.9243 -14.7112 -12.959 -13.3 -7.9775 -6.5395 -8.559001 -9.285501 -9.2645 -18.6219 -19.0484 -15.8782 -15.7569 -8.847 -7.444 -9.057501 -9.998 -10.134 -9.691501 -7.0445 -5.751 
-15.6478 -16.0567 -14.6645 -14.5825 -8.986001 -9.7115 -9.501501 -9.679001 -19.6445 -22.9418 -19.0484 -18.3492 -18.2954 -11.864 -9.057501 -10.647 -12.5414 -12.314 -10.0665 -7.0445 
-1.4985 -5.693 -3.1385 -3.5125 -2.186 -6.6185 -2.3335 0 -3.8375 -1.7565 -8.819 0 -1.934 -2.3335 -2.95 -1.756 -2.4265 -2.7415 -1.8085 -3.699 -3.891 -3.9535 -1.7565 -9.8175 0 
-6.773001 -8.501 -6.8005 -5.685 -7.764501 -9.579 -2.3335 -3.8375 -5.3875 -10.419 -8.819 -1.934 -4.359 -4.8245 -4.287 -3.949 -3.681 -3.891 -6.9425 -7.288 -6.981 -5.163 -12.5232 -9.8175 
-8.962001 -12.2634 -9.0565 -11.7971 -11.4648 -9.579 -6.9785 -5.3875 -15.0726 -10.419 -11.3028 -4.359 -6.2115 -6.193501 -6.1455 -4.9795 -4.626 -8.7705 -10.6735 -8.706 -7.747001 -16.7869 -12.5232 
-12.8334 -14.5194 -15.3032 -15.4974 -11.4648 -14.3962 -8.6385 -15.0726 -15.0726 -12.9028 -13.7278 -6.2115 -7.6365 -7.758501 -7.0365 -5.991 -9.715 -12.6151 -12.0915 -9.767501 -19.5829 -16.7869 
-15.0894 -20.7661 -19.0035 -15.4974 -16.282 -16.0562 -18.57 -15.0726 -17.5564 -15.3278 -15.5803 -7.6365 -9.1815 -8.285501 -7.99 -11.3896 -13.5596 -14.0331 -13.153 -21.6138 -19.5829 
-5.693 -3.1385 -3.5125 -3.644 0 -1.8085 -3.2875 -3.8825 -1.934 -8.819 -3.8375 0 -1.4985 -3.2875 -2.7415 -1.4985 -3.699 -3.8355 -3.2875 -1.934 -4.749 -3.994 0 
-8.501 -6.8005 -7.1905 -3.644 -1.8085 -5.0185 -8.1295 -4.9695 -10.634 -13.2063 -3.8375 -1.4985 -4.127 -5.934 -4.063 -5.264 -7.303 -7.7475 -5.248 -5.849 -5.4505 -3.994 
-12.2634 -10.7025 -7.1905 -5.5865 -5.0185 -10.298 -10.025 -14.1809 -15.0213 -13.2063 -5.771 -4.127 -6.1715 -7.2545 -7.870501 -8.6695 -9.835501 -9.377501 -8.465501 -6.1715 -5.4505 
-16.1654 -10.7025 -9.173 -8.8325 -10.298 -12.3417 -19.4034 -18.5682 -15.0213 -15.1398 -7.529 -6.1715 -7.7075 -11.375 -11.6536 -11.4424 -11.5371 -12.8252 -8.921 -6.1715 
-16.1654 -12.685 -12.4976 -14.3376 -12.3417 -21.7201 -23.7907 -18.5682 -16.9548 -16.8978 -9.823501 -7.7075 -11.8616 -15.1581 -14.4265 -13.144 -14.9848 -13.2807 -8.921 
