-4.759 
n/a 
n/a 
n/a 
n/a 
-4.759 
n/a 
n/a 
n/a 
n/a 
-4.759 
n/a 
n/a 
n/a 
n/a 
-4.759 
n/a 
n/a 
n/a 
n/a 
-3.433 -1.7565 -3.5855 -1.756 -8.030001 -3.1015 -5.3885 -2.186 -4.164 -2.5045 -3.984 -3.8465 -3.2875 
-4.1845 -4.6335 -4.5585 -8.75 -11.6727 -8.595501 -7.7415 -5.757 -6.231 -7.357 -5.7385 -7.595 
-8.597 -5.386 -8.808001 -13.1493 -17.1667 -10.634 -11.6743 -7.6225 -11.7985 -8.538501 -8.393001 
-9.353001 -9.403501 -13.6583 -18.6433 -19.2052 -14.5668 -13.5398 -13.4964 -12.98 -11.3954 
-13.4485 -15.1404 -19.1523 -20.6818 -23.138 -16.4323 -19.4137 -14.6779 -15.8369 
-3.849 -7.830501 -4.4215 -2.4945 -3.074 -4.0225 -2.925 -1.934 -3.634 -3.5215 -5.5055 -1.7695 -1.4985 -3.898 -1.7565 -2.915 -3.433 
-10.4985 -10.072 -6.044 -4.4205 -6.8575 -5.245 -4.436501 -4.9425 -6.0365 -8.697001 -5.636 -2.7955 -5.0465 -4.9795 -4.387 -4.682 
-12.353 -10.632 -7.948501 -7.7025 -7.6955 -6.3525 -7.3865 -6.212501 -9.6955 -8.7235 -5.9935 -6.25 -5.3325 -7.940001 -5.687 
-14.8923 -13.0563 -11.4709 -8.6735 -8.676001 -9.899 -8.904 -9.834001 -9.715501 -9.136001 -8.7685 -6.477 -8.366501 -8.512001 
-16.7968 -16.5787 -12.4419 -9.748501 -12.4359 -10.764 -12.6965 -9.8535 -10.1305 -11.9254 -8.8955 -9.579 -8.8715 
-4.127 -4.4215 -2.4945 -3.922 -2.3345 -1.4985 -3.898 -1.7565 -2.915 -3.433 
-7.164001 -6.044 -7.9535 -5.9395 -3.233 -5.0465 -4.9795 -4.387 -4.682 
-8.526001 -12.0928 -9.899 -7.3595 -6.93 -5.3325 -7.940001 -5.687 
-14.782 -14.0383 -11.4208 -10.4765 -7.175 -8.366501 -8.512001 
-16.7275 -15.5601 -14.5378 -10.9387 -9.856001 -8.8715 
-4.0775 -3.3715 -4.127 -4.4215 -2.4945 -4.0225 -2.925 -3.433 -1.7565 -2.915 -3.433 -4.3035 -3.898 0 
-7.203501 -6.675 -7.164001 -6.044 -5.396 -5.245 -5.967 -4.1845 -4.387 -4.682 -6.7165 -8.2305 -3.898 
-10.6735 -8.766001 -8.526001 -9.054501 -6.645 -8.366 -6.8075 -7.648 -5.687 -7.591001 -10.5855 -8.2305 
-12.7645 -9.818501 -11.7437 -9.529501 -9.580501 -9.1835 -10.4855 -9.398001 -9.3865 -11.844 -10.5855 
-13.817 -13.025 -12.2187 -12.7798 -10.3235 -13.0321 -12.2355 -13.1953 -13.8861 -11.844 
