-4.759 
n/a 
n/a 
n/a 
n/a 
-4.759 
n/a 
n/a 
n/a 
n/a 
-4.759 
n/a 
n/a 
n/a 
n/a 
-4.759 
n/a 
n/a 
n/a 
n/a 
-12.16972 -2.186 -1.4985 -6.9285 -1.7565 -7.2975 -1.7565 -10.2105 0 
-14.35572 -3.339 -8.012 -8.570001 -8.432 -8.738501 -12.9162 -10.2105 
-15.50872 -9.535 -8.8695 -15.4795 -10.411 -20.1502 -12.9162 
-21.70472 -9.9025 -15.9384 -17.4585 -21.8227 -20.1502 
-22.07222 -17.1708 -17.9174 -28.8702 -21.8227 
-12.16972 -12.16972 -3.0835 -4.9225 -3.6885 
-24.33944 -15.25322 -6.415 -8.528 
-27.42294 -18.58472 -8.8955 
-30.75444 -21.06522 
-33.23494 
-8.373 -2.186 -1.4985 -3.6885 -1.7565 -10.283 0 
-10.0615 -3.339 -4.962501 -5.258 -12.9887 -10.283 
-11.2145 -6.6125 -5.514501 -17.2182 -12.9887 
-14.488 -6.991 -17.6683 -17.2182 
-14.8665 -19.3888 -17.6683 
-6.7025 -2.186 -1.4985 -3.0835 -3.6885 -2.0935 -7.4405 0 
-8.845501 -3.339 -3.535 -6.1635 -5.5805 -10.495 -7.4405 
-9.507501 -4.8925 -7.123501 -8.184 -14.7524 -10.495 
-10.6235 -8.0655 -8.648001 -17.7229 -14.7524 
-13.7965 -9.2155 -18.3647 -17.7229 
