-4.759 
n/a 
n/a 
n/a 
n/a 
-4.759 
n/a 
n/a 
n/a 
n/a 
-4.759 
n/a 
n/a 
n/a 
n/a 
-4.759 
n/a 
n/a 
n/a 
n/a 
-1.4985 -4.6195 -1.756 -1.4985 -5.711 -2.4945 -3.074 -3.998 -2.3335 -1.7695 -4.9335 -2.3335 -4.685 -2.5195 -1.4985 -3.5855 
-5.9655 -5.5745 -3.0405 -6.774 -7.504001 -4.4205 -6.413 -5.1075 -5.0415 -7.815501 -5.9215 -6.831 -5.093 -3.1695 -5.1475 
-7.093 -7.012 -7.896501 -8.612 -9.538501 -7.7565 -7.08 -7.829 -11.6321 -9.333501 -10.0185 -6.881501 -5.585001 -6.93 
-8.094 -10.177 -9.882501 -10.7621 -12.9191 -9.959901 -9.764 -14.6436 -13.1501 -13.5327 -10.0585 -7.357501 -9.522 
-10.3155 -12.163 -12.0326 -14.1427 -15.1225 -12.6439 -16.7048 -16.1616 -17.3493 -13.5727 -10.3445 -11.3967 
-4.116 -3.5855 -4.245 -3.396 -2.8645 -3.3715 -4.422 -3.458 -4.269 0 -4.873 -3.644 -3.3715 -3.89 -4.683 -3.3255 -5.552 -2.3615 -2.7765 -2.489 -4.9335 -2.5045 -3.3715 -3.644 0 
-7.9145 -6.815001 -5.8865 -6.207 -5.473001 -8.705001 -6.505001 -6.922 -4.269 -4.873 -7.199 -6.753 -7.644501 -6.962 -7.7575 -9.0775 -7.982 -4.876 -3.495 -6.2885 -7.251 -4.771 -8.189501 -3.644 
-11.6552 -9.177 -8.213 -9.474001 -11.2497 -11.103 -10.3894 -6.922 -10.634 -7.199 -10.586 -11.4028 -10.001 -10.4505 -13.7149 -11.7185 -10.27 -5.155 -6.8795 -8.014501 -10.078 -9.820001 -8.189501 
-14.0172 -11.6999 -11.8934 -15.3529 -13.6477 -14.9874 -10.3894 -13.981 -12.96 -10.586 -15.2358 -13.7593 -13.7315 -16.4079 -16.3559 -14.0065 -10.5035 -8.0835 -8.535501 -11.2901 -15.127 -9.820001 
-16.5401 -15.3803 -17.7723 -17.7509 -17.5321 -14.9874 -17.4484 -16.307 -16.347 -15.2358 -17.5923 -17.4898 -19.6889 -19.0489 -18.6439 -14.24 -13.432 -9.3695 -12.1271 -16.3391 -15.127 
-1.8085 -3.32 -1.7565 -4.8045 -3.9845 -2.3335 -2.3615 -2.7765 -2.489 -4.196 -5.717 -3.074 
-5.226501 -4.658 -6.62 -7.3835 -5.2675 -4.2805 -4.876 -3.495 -5.4045 -8.457001 -9.605501 
-5.656 -10.1635 -9.842 -7.7705 -6.8995 -6.48 -5.155 -6.419 -9.7165 -12.6371 
-11.5819 -13.3855 -10.378 -9.1355 -9.236501 -6.7445 -8.4715 -10.269 -13.9146 
-14.8039 -13.9215 -11.743 -11.5061 -9.479501 -9.915501 -12.6247 -14.5785 
-3.135 -5.759501 -2.4265 -1.756 -4.2665 -8.175 -3.6245 -4.115 -2.3335 -2.3615 -3.423 -2.489 -4.9335 -5.717 0 
-8.281 -7.3675 -4.303 -5.529 -13.9701 -11.136 -7.797 -5.623 -4.2805 -5.114 -4.122 -6.2885 -8.612 -5.717 
-9.557501 -8.6745 -8.717501 -15.8276 -16.9311 -15.3085 -9.1335 -7.157001 -6.415 -5.452 -7.573 -9.145 -8.612 
-10.636 -13.2252 -19.5511 -18.7886 -21.1036 -16.645 -10.7385 -9.146 -6.757 -9.019 -10.347 -9.145 
-16.1619 -24.0588 -22.5121 -22.9611 -22.4401 -18.25 -12.7275 -9.4475 -10.233 -12.177 -10.347 
