-4.759 
n/a 
n/a 
n/a 
n/a 
-4.759 
n/a 
n/a 
n/a 
n/a 
-4.759 
n/a 
n/a 
n/a 
n/a 
-4.759 
n/a 
n/a 
n/a 
n/a 
-1.934 -2.3615 -3.8405 -3.074 -1.4985 -5.808 -3.458 -7.680501 -1.756 -12.16972 -1.7695 -3.0465 -1.4985 -3.5015 -1.7565 -6.864 -3.9555 0 
-3.539 -5.371 -6.9425 -4.6505 -7.153001 -6.7175 -11.9107 -9.297501 -14.93432 -13.93922 -3.683 -4.046 -4.737 -4.783 -8.661 -10.368 -3.9555 
-6.410501 -7.7215 -8.1975 -10.5298 -8.039001 -15.8642 -13.5277 -22.80562 -16.70382 -15.85272 -4.634 -7.9475 -5.5595 -12.3849 -12.4432 -10.368 
-8.903501 -9.1495 -14.1338 -11.4158 -17.2893 -17.4812 -27.03582 -24.57512 -18.61732 -16.80372 -8.261001 -9.576 -13.253 -16.1671 -12.4432 
-9.794001 -15.0858 -15.0198 -20.6661 -18.9063 -30.98932 -28.80532 -26.48862 -19.56832 -20.43072 -10.0275 -17.3267 -17.0352 -16.1671 
-1.934 -2.3335 -2.95 -7.4885 -2.8645 -4.319 -2.356 -12.16972 
-4.359 -4.8245 -11.3721 -10.932 -8.598001 -5.885 -15.43652 
-6.2115 -13.5204 -14.8156 -16.6655 -9.488501 -19.46952 
-15.2482 -16.9639 -20.5491 -17.556 -23.47902 
-18.6917 -22.6974 -21.4396 -31.54652 
-3.5455 -2.3335 -3.8405 -1.4985 -6.864 -3.1385 
-5.498 -5.7085 -5.224 -7.8675 -10.802 
-6.219501 -6.765501 -10.688 -12.4031 
-7.206501 -12.3757 -15.2236 
-12.8829 -16.9113 
-1.4985 -4.696 -1.7565 -1.4985 -4.3215 -1.7565 -1.4985 -3.9075 -7.235 -2.3345 -9.000501 -4.114 -1.7695 -2.489 -3.0835 -4.4155 -2.3345 -1.4985 -12.16972 -4.8155 -1.7565 -12.16972 0 -1.8085 -5.7865 -7.706 -3.9725 -1.7565 -1.4985 -4.99 -2.4285 -1.4985 -5.1235 -4.153 
-6.4835 -6.4215 -2.4195 -5.394 -5.7605 -2.4195 -4.9185 -8.659 -10.131 -9.5845 -13.6121 -4.4525 -3.1405 -5.9325 -6.567 -6.1375 -3.233 -14.76202 -16.98522 -6.48 -14.87542 -12.16972 -1.8085 -8.0185 -10.287 -10.8215 -4.9685 -2.4195 -5.446 -7.5 -4.002501 -5.604 -7.061501 
-6.6405 -6.9805 -6.485001 -5.962501 -5.9805 -5.650001 -8.9185 -11.9252 -17.5112 -15.1415 -13.9506 -4.8225 -6.496 -9.7535 -8.05 -6.9265 -16.76452 -19.57752 -18.64972 -20.11472 -14.87542 -13.97822 -8.0185 -12.9412 -13.4025 -11.8175 -5.588 -6.2535 -7.857501 -8.8415 -8.5375 -7.233 
-7.2115 -10.0535 -7.909501 -6.074501 -6.775001 -9.2285 -12.2853 -19.3054 -23.0682 -15.48 -14.3206 -8.692 -10.0345 -10.76 -8.952001 -20.84202 -21.58002 -21.24202 -32.28444 -20.11472 -16.68392 -20.18822 -12.9412 -16.0567 -14.3985 -12.437 -10.0675 -8.682501 -9.073501 -9.706 -10.5325 
-10.0885 -10.4395 -8.185 -6.832 -9.819501 -12.7255 -19.6655 -24.8624 -23.4067 -15.85 -18.1901 -12.4129 -11.0552 -11.662 -22.96852 -25.65752 -23.24452 -34.87674 -32.28444 -21.92322 -22.89392 -25.11092 -16.0567 -17.0527 -15.018 -16.9165 -12.6199 -9.693001 -9.729501 -11.701 
