-4.759 
n/a 
n/a 
n/a 
n/a 
-4.759 
n/a 
n/a 
n/a 
n/a 
-4.759 
n/a 
n/a 
n/a 
n/a 
-4.759 
n/a 
n/a 
n/a 
n/a 
-1.4985 -6.09 -4.2085 -3.147 -4.0935 -4.232 -5.12 -1.7565 -5.7755 -4.178 
-7.880501 -10.9121 -7.708001 -7.735001 -8.609 -9.438001 -6.7825 -7.0505 -6.993001 
-13.1366 -14.4116 -12.7398 -12.4817 -14.0074 -11.2305 -12.4509 -7.832 
-16.6361 -19.4434 -17.4865 -17.8801 -15.7999 -16.8989 -13.2324 
-21.6679 -24.1901 -22.8849 -19.6726 -21.4683 -17.6804 
-4.9545 -3.115 -7.788001 -4.2085 -4.6015 -3.93 -4.4345 -1.7565 -5.7755 -3.681 -3.152 -3.8245 0 
-8.1295 -11.6786 -12.3829 -8.755501 -8.8885 -6.3455 -4.719 -7.0505 -10.862 -5.8265 -6.242001 -3.8245 
-17.0365 -16.2735 -16.9299 -13.2119 -11.426 -6.464001 -9.135 -12.5178 -13.0075 -9.792001 -6.242001 
-21.6314 -20.8205 -21.3863 -15.7494 -11.5445 -10.634 -15.1565 -14.6633 -16.973 -9.792001 
-26.1784 -25.2769 -23.9238 -15.8679 -15.7145 -16.6555 -17.302 -18.6288 -16.973 
-3.147 -3.0365 -2.186 -6.864 -4.2085 -3.115 -2.3335 -3.3715 -4.674 0 -3.299 -5.7755 -3.355 0 -5.7755 0 -4.0455 -2.925 -2.674 0 
-5.7475 -3.66 -9.916 -11.8603 -7.770501 -4.7415 -4.9725 -7.290501 -4.674 -3.299 -8.462 -9.27 -3.355 -5.7755 -5.7755 -4.0455 -6.907001 -4.1785 -2.674 
-6.405 -12.3586 -15.0987 -15.4223 -9.570001 -7.993001 -9.619501 -7.290501 -7.7675 -8.462 -12.5417 -9.27 -9.505 -5.7755 -9.134501 -6.907001 -8.1855 -4.1785 
-15.3266 -17.5413 -18.6607 -17.2218 -12.9029 -12.8822 -9.619501 -10.2805 -13.3791 -12.5417 -12.5417 -16.2172 -9.505 -9.134501 -12.1896 -8.1855 -8.1855 
-20.5093 -21.1033 -20.4602 -20.5547 -17.7921 -12.8822 -12.7281 -16.1883 -17.4588 -12.5417 -19.4889 -16.2172 -13.8652 -12.1896 -13.4681 -8.1855 
-1.4985 -5.285 -4.9545 -3.147 -2.4945 -3.962 -1.7695 -2.489 -4.367 -5.7755 -3.9755 
-6.427501 -7.315001 -8.182 -4.5385 -5.752 -5.7845 -3.1405 -8.282001 -9.6945 -9.796 
-8.038 -10.304 -8.998501 -8.999001 -6.78 -6.1685 -8.811001 -13.7221 -14.1714 
-10.7595 -11.1205 -13.2656 -10.004 -7.1455 -12.3056 -14.3019 -18.199 
-11.576 -15.3876 -14.2706 -10.2185 -13.3362 -17.7965 -18.7788 
