-4.759 
n/a 
n/a 
n/a 
n/a 
-4.759 
n/a 
n/a 
n/a 
n/a 
-4.759 
n/a 
n/a 
n/a 
n/a 
-4.759 
n/a 
n/a 
n/a 
n/a 
-3.2615 -3.9185 -10.3 0 -3.522 -5.1645 -3.8195 -6.83 0 -3.428 -8.644 -12.16972 -4.3225 -3.074 -2.9805 -3.7555 -3.4075 -3.9795 
-7.346001 -14.6569 -10.3 -3.522 -8.935 -7.0965 -10.3165 -6.83 -3.428 -12.6448 -21.88692 -16.49222 -7.476501 -6.274 -5.3095 -8.131001 -6.398001 
-18.5676 -14.6569 -13.8938 -8.935 -10.443 -14.2143 -10.3165 -10.513 -12.6448 -25.88772 -26.20942 -19.64622 -10.1595 -8.668 -9.5965 -9.8675 
-18.5676 -18.2507 -19.3068 -10.443 -17.8298 -14.2143 -13.9995 -19.7298 -25.88772 -30.21022 -29.36342 -22.32922 -12.5535 -13.1574 -11.4794 
-22.1614 -23.6637 -20.8148 -17.8298 -17.8298 -17.8973 -23.2163 -32.97272 -30.21022 -33.36422 -32.04642 -24.72322 -17.0429 -15.0403 
-3.321 -1.934 -3.9185 -8.687 -8.364 0 -3.522 -7.472 0 -3.428 -8.644 -10.35 -3.8195 -4.098 -3.4075 -3.9795 
-5.4075 -5.22 -13.0439 -8.934501 -8.364 -3.522 -9.832001 -7.472 -3.428 -12.6448 -10.4595 -14.1695 -7.240001 -7.469 -6.398001 
-8.078501 -14.8714 -13.2914 -8.934501 -10.802 -9.832001 -9.832001 -10.3165 -12.6448 -14.4603 -14.279 -17.59 -10.316 -8.473001 
-17.8517 -15.1189 -13.2914 -11.5459 -17.112 -9.832001 -12.9177 -19.5333 -14.4603 -18.2798 -17.6995 -20.666 -11.7718 
-18.0992 -15.1189 -15.9028 -17.8559 -17.112 -12.9177 -22.1345 -21.3488 -18.2798 -21.7003 -20.7755 -22.1218 
-3.321 -10.3 -1.934 -3.9185 0 -5.1645 -3.8195 -6.83 -3.522 -1.756 -12.16972 -12.16972 -1.8085 -6.0115 -3.8195 -1.934 -3.428 -2.4945 -4.3155 -3.595 -3.4075 -3.9035 0 
-14.5294 -12.3058 -5.22 -3.9185 -5.1645 -7.0965 -10.3165 -10.9575 -5.399 -14.93432 -24.33944 -13.97822 -8.243501 -7.332 -5.8345 -4.979 -6.646501 -5.9725 -6.108 -7.987501 -6.542001 -3.9035 
-16.5352 -15.5918 -5.22 -8.904 -7.0965 -14.2143 -14.444 -12.8345 -19.19372 -27.10404 -26.14794 -20.41322 -8.678 -10.2135 -8.747001 -7.739501 -10.2045 -10.0885 -8.76 -10.2135 -6.542001 
-19.8212 -15.5918 -10.7315 -11.5442 -14.2143 -18.3418 -16.321 -26.62922 -31.36344 -28.91254 -32.58294 -20.84772 -10.7175 -13.126 -11.5511 -11.3475 -14.8579 -13.0223 -11.7462 -10.2135 
-19.8212 -21.1033 -13.3717 -18.662 -18.3418 -20.2188 -30.11572 -38.79894 -33.17194 -35.34754 -33.01744 -22.88722 -13.63 -15.9301 -15.1591 -16.0009 -17.7917 -16.0085 -11.7462 
-3.2615 -2.3335 -1.934 -3.9185 -10.3 0 -1.934 -3.522 -7.472 0 -1.934 -3.428 -8.644 -10.35 -1.934 -6.0115 -4.423 -3.595 -3.4075 -3.9035 
-5.0495 -4.468 -5.22 -14.6569 -10.3 -1.934 -5.0285 -9.832001 -7.472 -1.934 -4.979 -12.6448 -10.4595 -12.284 -7.5935 -11.5497 -6.8855 -7.987501 -6.542001 
-7.2185 -7.6425 -16.4844 -14.6569 -12.3058 -5.0285 -11.7839 -9.832001 -9.4415 -4.979 -14.6228 -14.4603 -12.3935 -17.9435 -13.5125 -14.0122 -11.8238 -10.2135 
-9.983001 -18.9993 -16.4844 -16.6627 -15.4003 -11.7839 -11.7839 -12.0427 -12.6447 -14.6228 -16.4383 -16.3943 -18.053 -23.8625 -15.975 -18.9505 -14.0498 
-21.3398 -18.9993 -18.4902 -19.7572 -22.1557 -11.7839 -13.9946 -15.2459 -22.2885 -16.4383 -18.3723 -22.0538 -23.972 -26.325 -20.9133 -21.1765 
