-4.759 
n/a 
n/a 
n/a 
n/a 
-4.759 
n/a 
n/a 
n/a 
n/a 
-4.759 
n/a 
n/a 
n/a 
n/a 
-4.759 
n/a 
n/a 
n/a 
n/a 
-1.4985 -10.9935 -2.229 -3.452 -2.8645 -3.17 -1.7565 -2.915 -2.7455 -3.729 -3.9195 0 
-13.5858 -13.2225 -5.1815 -5.886 -6.4795 -4.179 -4.387 -4.0865 -6.2045 -5.707 -3.9195 
-15.8148 -16.175 -7.486 -9.3125 -7.039001 -8.5495 -5.7475 -7.620501 -8.904 -5.707 
-18.7673 -18.4795 -10.9853 -9.813001 -11.8059 -10.028 -9.3015 -10.233 -8.904 
-21.0718 -21.9788 -11.4858 -14.6575 -13.2844 -13.614 -11.964 -10.233 
-4.023 -5.593 -2.4945 -3.333 -2.7455 -1.4985 -8.253 -9.139001 -1.934 -11.0905 -10.7895 -2.5045 -3.3235 -2.5045 -1.934 -1.4985 -5.92 -5.1995 -3.452 0 -12.16972 0 -3.881 -2.3345 -10.8905 0 
-8.551001 -7.497001 -4.3655 -6.377 -3.637 -9.8875 -10.368 -11.3538 -14.0309 -21.88 -13.294 -3.7105 -3.8485 -4.5825 -2.6125 -6.998501 -10.155 -7.791 -3.452 -12.16972 -12.16972 -3.881 -4.5275 -13.5556 -10.8905 
-10.007 -8.706501 -7.7495 -7.023 -12.4244 -12.0025 -12.5828 -23.4507 -24.8204 -24.3845 -14.5 -3.8545 -5.514 -5.1685 -8.145 -11.7221 -12.8659 -7.791 -16.69252 -12.16972 -16.05072 -4.5275 -16.5156 -13.5556 
-11.3017 -10.5435 -8.309 -16.098 -14.5394 -14.2173 -24.6797 -34.2402 -27.3249 -25.5905 -14.644 -5.516 -6.061 -10.096 -13.084 -14.433 -12.8659 -21.68012 -16.69252 -16.05072 -16.69722 -16.5156 -16.5156 
-13.1387 -10.7675 -17.5284 -18.213 -16.7542 -26.3142 -35.4692 -36.7447 -28.5309 -25.7345 -16.3055 -6.0625 -11.1079 -15.035 -15.7949 -14.433 -26.75502 -21.68012 -20.57352 -16.69722 -28.68532 -16.5156 
-2.8965 -3.1575 -8.777 -6.3495 0 -1.4985 -5.92 -3.452 -3.849 -8.332001 -7.279 -3.881 -2.3345 -8.291 0 -3.0365 -2.4945 -5.091 -3.509 -2.7455 -8.253 -9.139001 0 
-4.4055 -13.0515 -9.3035 -6.3495 -1.4985 -6.998501 -9.304 -6.285 -10.8025 -9.217001 -10.1635 -4.5275 -9.610001 -8.291 -3.0365 -3.688 -6.871 -8.9445 -5.192 -10.1595 -10.368 -9.139001 
-14.5063 -13.578 -9.3035 -7.907001 -6.998501 -10.3095 -12.2984 -13.5427 -11.6875 -12.2377 -10.7245 -12.57 -9.610001 -12.0191 -3.688 -7.6695 -11.4735 -10.0855 -13.2144 -12.9303 -10.368 
-15.0328 -13.578 -10.524 -10.4035 -10.3095 -13.3039 -19.5561 -14.4277 -14.7082 -12.7987 -18.767 -12.57 -13.6389 -12.6706 -7.6695 -12.9194 -12.6145 -18.0795 -15.9852 -12.9303 
-15.0328 -14.7985 -13.0205 -13.9315 -13.3039 -20.5616 -20.4411 -17.4484 -15.2692 -20.8412 -18.767 -16.5989 -14.2904 -16.6521 -12.9194 -14.0604 -20.6085 -20.8503 -15.9852 
-4.685 -2.5195 -11.0905 -6.3495 0 -12.16972 0 -1.4985 -5.92 -5.2975 -3.452 -2.3345 -12.16972 -3.074 -2.674 -5.411 -2.915 -2.264 -8.253 -7.259501 0 
-5.093 -14.2836 -17.44 -6.3495 -12.16972 -12.16972 -1.4985 -6.998501 -12.0381 -8.825001 -5.3825 -14.83482 -15.24372 -4.7925 -6.780001 -7.802 -4.093 -10.1465 -9.3485 -7.259501 
-17.4921 -20.6331 -17.44 -19.11222 -12.16972 -13.66822 -6.998501 -13.6052 -15.5656 -11.3159 -18.70502 -17.90882 -16.96222 -8.488501 -9.124001 -8.478001 -12.3417 -10.5295 -9.3485 
-23.8416 -20.6331 -30.20272 -19.11222 -13.66822 -19.16822 -13.6052 -17.1327 -18.0565 -24.63842 -21.77902 -19.62732 -20.65822 -11.0165 -9.894501 -16.9205 -12.7247 -10.5295 
-23.8416 -33.39582 -30.20272 -20.61072 -19.16822 -25.77492 -17.1327 -19.6236 -31.37902 -27.71242 -23.49752 -23.32332 -23.18622 -11.787 -18.2558 -17.3035 -12.7247 
