-4.759 
n/a 
n/a 
n/a 
n/a 
-4.759 
n/a 
n/a 
n/a 
n/a 
-4.759 
n/a 
n/a 
n/a 
n/a 
-4.759 
n/a 
n/a 
n/a 
n/a 
-9.112 -7.2405 -2.186 -1.4985 -3.0835 -4.5005 -3.2945 -2.5045 -3.9205 0 
-17.2015 -9.648001 -3.339 -3.535 -7.913 -8.2135 -6.178 -6.7395 -3.9205 
-19.609 -11.03 -4.8925 -8.108001 -12.2086 -11.686 -10.172 -6.7395 
-20.991 -12.5835 -9.472501 -12.7466 -15.6811 -15.68 -10.172 
-22.5445 -17.1635 -14.3173 -16.2191 -19.6751 -15.68 
-3.0835 -5.1845 -4.5005 -2.7415 -7.0135 -7.2405 
-8.6225 -11.136 -7.679501 -10.9315 -8.8795 
-14.814 -14.315 -16.1457 -12.7975 
-17.993 -22.7812 -18.0117 
-26.4592 -24.6472 
-1.4985 -3.0835 -5.1845 -3.473 -3.6765 -2.9965 -7.836 -1.934 -7.0135 -6.660501 0 
-3.535 -8.6225 -10.27 -8.356501 -7.5275 -10.8241 -9.2685 -10.041 -10.427 -6.660501 
-8.973001 -13.948 -15.1535 -12.5321 -15.5503 -12.2566 -17.6055 -13.4545 -10.427 
-14.2883 -18.8315 -19.3291 -20.5549 -16.9828 -20.5936 -21.019 -13.4545 
-19.1718 -23.0071 -27.3519 -21.9874 -25.3198 -24.0071 -21.019 
-8.664001 -7.2405 -2.186 -4.1205 -2.5045 -3.0835 -5.1845 -3.4605 -4.6385 0 
-16.4181 -9.648001 -5.007 -5.3175 -5.9195 -8.6225 -9.135 -9.374001 -4.6385 
-18.8256 -12.698 -6.317 -8.370501 -12.0175 -12.813 -15.2499 -9.374001 
-21.8756 -14.008 -9.5695 -14.9703 -16.208 -18.9279 -15.2499 
-23.1856 -17.2605 -16.2529 -19.1608 -22.3229 -18.9279 
