-4.759 
n/a 
n/a 
n/a 
n/a 
-4.759 
n/a 
n/a 
n/a 
n/a 
-4.759 
n/a 
n/a 
n/a 
n/a 
-4.759 
n/a 
n/a 
n/a 
n/a 
-4.696 -3.691 -4.2695 -1.7565 -3.3195 0 -4.447 -4.9475 -5.1195 -2.3345 -4.3665 0 
-9.046 -8.569 -6.460501 -4.8675 -3.3195 -4.447 -10.147 -9.785 -6.5145 -6.674001 -4.3665 
-14.1038 -11.1468 -10.6095 -4.8675 -6.447001 -10.147 -14.9845 -10.3255 -9.896501 -6.674001 
-16.6816 -15.2958 -10.6095 -8.183001 -13.2268 -14.9845 -15.525 -14.2357 -9.896501 
-20.8306 -15.2958 -13.925 -15.6194 -18.0643 -15.525 -19.4352 -14.2357 
-4.2085 -4.0915 -3.115 -3.3195 0 -4.447 -2.4945 -1.4985 -4.4695 -3.681 -1.934 -3.676 0 
-7.112 -7.23 -6.352 -3.3195 -4.447 -7.678 -3.9315 -5.252501 -8.210501 -5.219 -4.7985 -3.676 
-10.8661 -10.541 -6.352 -6.447001 -7.678 -9.1545 -7.623 -9.467501 -9.6555 -7.97 -4.7985 
-14.1771 -10.541 -10.0095 -10.7578 -9.1545 -12.975 -12.0246 -10.587 -12.3629 -7.97 
-14.1771 -14.1985 -14.4955 -12.2343 -12.975 -17.3766 -13.1441 -13.2944 -12.3629 
-3.147 -1.4985 -4.2085 -4.169 -1.934 -1.4985 -3.6445 -1.7565 -3.3195 -1.756 -4.447 -2.674 -5.1575 -3.4915 -1.934 -3.676 0 
-4.88 -4.987 -7.086 -5.7875 -2.6125 -4.4795 -4.775001 -4.8675 -4.768 -6.3595 -8.02 -6.2505 -7.855 -5.4385 -4.7985 -3.676 
-8.5445 -8.698501 -8.590501 -6.382 -4.8345 -5.062 -7.540501 -5.926 -7.4725 -9.304001 -12.0981 -8.4615 -8.774501 -8.597501 -4.7985 
-12.4226 -10.7272 -9.266001 -8.2705 -5.2075 -7.606 -8.568001 -8.258 -10.335 -13.4229 -14.3091 -9.4525 -11.9735 -8.597501 
-14.4513 -11.4027 -10.4275 -8.575001 -7.736001 -8.618001 -11.06 -11.5293 -14.4539 -15.6339 -15.3001 -12.6485 -11.9735 
-3.147 -3.691 -4.0915 -3.3195 0 -4.447 -2.4945 -1.4985 -4.418 -1.7565 -3.676 -2.4945 -4.246 -5.1885 
-7.1385 -8.277 -7.051001 -3.3195 -4.447 -7.678 -3.9315 -5.659 -5.915 -4.4345 -6.278 -5.529 -9.012501 
-12.6749 -11.5939 -7.051001 -6.447001 -7.678 -9.1545 -7.280001 -6.3285 -9.826501 -7.112501 -9.280001 -10.757 
-15.9918 -11.5939 -10.9569 -10.7578 -9.1545 -12.632 -7.4055 -10.071 -12.7381 -9.969001 -14.6574 
-15.9918 -15.4998 -15.2677 -12.2343 -12.632 -12.7575 -11.4646 -13.2008 -15.5946 -15.7288 
