-4.759 
n/a 
n/a 
n/a 
n/a 
-4.759 
n/a 
n/a 
n/a 
n/a 
-4.759 
n/a 
n/a 
n/a 
n/a 
-4.759 
n/a 
n/a 
n/a 
n/a 
-2.985 -4.3285 -2.186 -3.383 -5.857 0 -1.756 -3.383 -4.2425 0 
-6.966001 -6.1335 -4.438 -7.271501 -5.857 -1.756 -5.029 -8.801001 -4.2425 
-8.1745 -8.2995 -9.928 -7.271501 -6.745 -5.029 -10.699 -8.801001 
-10.0815 -13.9337 -9.928 -8.0655 -9.017501 -10.699 -10.699 
-15.7157 -13.9337 -10.754 -9.173 -15.1195 -10.699 
-3.091 -4.377 -1.756 -5.5165 -4.3285 -3.2345 -3.1385 -1.7695 -3.5095 -3.436 -4.5715 -3.595 -3.6175 0 -3.4765 -3.1385 -3.0695 -5.2265 -6.2045 -4.3285 -3.074 -3.9335 -5.973 -3.436 -3.091 -4.3285 0 
-6.8525 -5.533501 -6.576 -9.088 -8.206 -5.940001 -4.6115 -4.698 -6.311 -6.561501 -6.3615 -7.272501 -3.6175 -3.4765 -6.4975 -4.286 -8.899 -12.3626 -11.046 -7.5745 -6.285501 -8.677501 -9.6915 -5.6415 -6.0005 -4.3285 
-8.1705 -9.4755 -9.785 -13.1989 -10.6875 -8.312 -6.659 -7.276 -9.447001 -8.574 -7.9125 -7.272501 -7.2035 -6.4975 -6.961 -9.755501 -16.5727 -17.2041 -14.292 -11.1066 -11.4419 -12.8618 -12.0956 -8.237 -6.0005 
-12.3773 -12.6925 -13.9775 -15.6804 -13.0595 -9.727501 -8.8365 -10.2915 -11.3123 -10.354 -7.9125 -10.1345 -10.218 -6.961 -12.8675 -17.4646 -21.4142 -20.4501 -17.8241 -16.263 -15.6262 -15.2659 -14.6911 -8.237 
-15.5943 -16.885 -16.459 -18.0524 -14.475 -11.9104 -12.2072 -12.1568 -13.0923 -10.354 -10.8529 -13.149 -11.0287 -12.8675 -20.5766 -22.3061 -24.6602 -23.9822 -22.9805 -20.4473 -18.0303 -17.8614 -14.6911 
-3.091 -4.3285 -3.43 -3.4765 -3.091 -7.634501 -1.7695 -3.5095 -1.756 -3.43 -3.277 -3.9335 -2.0935 -2.985 -5.271 -4.3285 0 
-6.0005 -7.245 -6.469 -6.284 -9.1435 -9.001 -4.698 -5.688001 -5.055 -5.7705 -6.176001 -5.7945 -4.3315 -7.8015 -8.626 -4.3285 
-8.7535 -10.634 -8.1875 -12.5783 -10.6475 -12.1463 -6.389 -9.089001 -6.7205 -7.14 -9.193001 -7.7 -8.9245 -11.4283 -8.626 
-12.5583 -12.3525 -15.5006 -14.0823 -13.7928 -13.8373 -10.122 -11.0501 -8.288 -9.885 -11.2053 -12.5336 -12.6973 -11.4283 
-14.2768 -19.6656 -17.0046 -17.2276 -15.4838 -17.5703 -12.1979 -12.6176 -11.3682 -11.8909 -16.0389 -16.3064 -12.6973 
-3.091 -4.3285 -2.186 -6.174 0 -1.756 -3.6175 -2.742 -3.2345 -2.8965 -1.7695 -3.5095 0 -3.091 -3.9355 -2.742 -3.2345 -3.277 -1.7695 -3.9335 -5.613 0 
-6.0005 -6.1335 -7.991501 -6.174 -1.756 -5.452 -6.122 -4.746 -6.219 -5.735 -4.698 -3.5095 -3.091 -5.9295 -6.4725 -4.746 -5.126 -4.261 -5.1355 -6.9925 -5.613 
-7.6165 -12.3836 -7.991501 -7.061501 -5.452 -7.958 -8.6555 -7.9915 -10.1945 -8.64 -4.698 -6.2925 -5.9295 -8.065001 -8.395 -6.514501 -7.508 -6.988 -7.818 -6.9925 
-14.061 -12.3836 -8.594001 -11.4187 -7.958 -10.7175 -12.2464 -12.0932 -13.0995 -8.64 -7.711 -8.649 -8.065001 -9.972 -9.869 -8.505 -9.7615 -9.504001 -7.818 
-14.061 -12.9861 -13.066 -13.9247 -10.7175 -14.3084 -16.3481 -14.9982 -13.0995 -11.7504 -10.088 -10.411 -9.972 -11.452 -11.9901 -11.2199 -12.3403 -9.504001 
