-4.759 
n/a 
n/a 
n/a 
n/a 
-4.759 
n/a 
n/a 
n/a 
n/a 
-4.759 
n/a 
n/a 
n/a 
n/a 
-4.759 
n/a 
n/a 
n/a 
n/a 
-3.882 -3.034 -4.1865 -3.8375 -4.339 -1.756 -4.0865 -10.939 0 -4.386 -1.7565 -4.221 -5.3905 -4.088 
-5.8765 -7.826 -7.4865 -8.5215 -6.153 -5.631001 -16.1025 -10.939 -4.386 -4.539 -6.1875 -10.022 -9.747 
-10.5535 -11.3508 -12.7145 -10.348 -9.8085 -18.2636 -16.1025 -15.325 -4.539 -8.380501 -12.2963 -14.4621 
-14.0783 -16.5788 -14.541 -14.0035 -22.5403 -18.2636 -20.4885 -15.478 -8.380501 -14.7087 -16.7364 
-19.3063 -18.4053 -18.1965 -26.7353 -22.5403 -22.6496 -20.6415 -19.3195 -14.7087 -19.1488 
-3.882 -3.034 -4.1865 -3.8375 -6.04 -2.356 -12.16972 -3.8375 0 -2.3615 -4.111 -3.3715 -3.8245 -5.164 -1.7695 -5.3705 0 
-5.8765 -7.826 -7.4865 -11.0145 -8.354 -15.43652 -16.00722 -3.8375 -2.3615 -5.325 -7.0835 -7.450001 -6.658 -6.716 -5.874001 -5.3705 
-10.5535 -11.3508 -15.2075 -13.3285 -21.86112 -19.27402 -16.00722 -6.607 -5.325 -8.288 -11.5878 -9.1105 -8.2815 -10.523 -5.874001 
-14.0783 -19.0718 -17.5215 -26.83562 -25.69862 -19.27402 -18.77672 -9.7155 -8.288 -12.8643 -13.2483 -10.368 -12.2157 -10.523 
-21.7993 -21.3858 -31.02862 -30.67312 -25.69862 -22.04352 -21.88522 -12.6817 -12.8643 -14.5248 -14.5058 -14.6504 -12.2157 
-3.321 0 -4.1865 -3.8375 -4.339 -2.264 0 -9.259001 -3.873 -6.32 -5.198 0 -4.031 -2.0935 -5.211 -1.7565 -3.3715 -5.2735 -1.7695 -2.8965 -3.9035 0 
-3.321 -4.1865 -7.4865 -8.5215 -5.816 -2.264 -9.259001 -13.6054 -7.683001 -12.1282 -5.198 -4.031 -4.8935 -7.0045 -6.630001 -4.845 -7.603001 -7.0175 -4.497 -5.4185 -3.9035 
-8.1595 -7.4865 -12.7145 -10.2149 -5.816 -12.555 -13.6054 -17.4154 -13.8146 -12.1282 -9.995001 -4.8935 -9.126 -8.6505 -9.8205 -9.004001 -9.556001 -9.43 -6.418 -5.4185 
-11.7469 -12.7145 -14.4079 -10.2149 -16.952 -16.9014 -17.4154 -23.547 -13.8146 -16.9252 -11.0121 -9.126 -10.7575 -11.879 -13.9795 -11.117 -12.0319 -11.5386 -6.418 
-16.9749 -14.4079 -14.4079 -21.3509 -21.2984 -20.7114 -23.547 -23.547 -18.6116 -17.9423 -15.2446 -10.7575 -13.986 -16.038 -16.0925 -13.5929 -14.1405 -11.5386 
-3.321 0 -3.3715 -3.8245 -4.178 -3.251 -1.7695 -2.489 -5.3895 
-3.321 -3.3715 -7.450001 -7.2055 -7.184 -4.3285 -3.1405 -6.865001 
-6.79 -7.450001 -9.396001 -10.163 -8.854 -5.192 -7.399 
-11.1041 -9.396001 -12.4615 -11.8998 -9.2245 -9.4285 
-13.0501 -12.4615 -14.1983 -12.2703 -13.461 
