-4.759 
n/a 
n/a 
n/a 
n/a 
-4.759 
n/a 
n/a 
n/a 
n/a 
-4.759 
n/a 
n/a 
n/a 
n/a 
-4.759 
n/a 
n/a 
n/a 
n/a 
-1.934 -5.0655 -4.142 -4.5655 -3.251 -3.7905 -4.2775 -3.1715 -2.5195 -3.502 -3.8655 0 
-6.3935 -9.429501 -5.6765 -7.679501 -5.5965 -7.893 -7.104 -5.969 -5.674 -5.3985 -3.8655 
-11.1965 -10.094 -8.561001 -9.3275 -9.673 -11.2435 -9.0705 -9.206 -7.559 -5.3985 
-11.861 -13.4839 -10.4908 -13.6342 -13.1023 -13.21 -12.4535 -11.4892 -7.559 
-15.2509 -15.4137 -14.7975 -17.0635 -15.0688 -16.593 -14.7367 -11.4892 
-1.934 -5.0655 0 -3.5455 -3.892 -3.7555 -4.794 -2.5195 -1.4985 -3.502 -3.8655 -1.756 -4.3195 -2.664 -4.015 -3.1715 0 
-6.3935 -5.0655 -3.5455 -6.956 -8.4065 -7.7795 -5.6105 -3.1695 -4.5955 -5.3985 -5.2725 -5.563 -5.769 -4.926 -6.625501 -3.1715 
-6.3935 -8.478001 -6.956 -11.7603 -12.6051 -8.0895 -5.9935 -5.887 -7.879001 -6.8945 -8.8055 -6.847 -7.19 -6.9895 -6.625501 
-10.2925 -12.1571 -11.7603 -15.9589 -12.9151 -8.5745 -9.247001 -9.361501 -9.485001 -10.243 -9.943001 -8.1905 -8.2185 -6.9895 
-13.9716 -16.9614 -15.9589 -16.2689 -13.4001 -12.2258 -12.8829 -10.9849 -13.3187 -11.3805 -11.4271 -9.689501 -8.2185 
-5.0655 -8.144 -3.355 -3.222 -4.3075 -3.892 
-13.8143 -11.9666 -7.203001 -9.208 -9.394501 
-17.6369 -15.8146 -13.5448 -14.3456 
-21.4849 -22.1564 -18.6824 
-27.8267 -27.294 
-1.934 -5.0655 -3.158 -3.502 -3.8655 -3.5725 -3.5455 -8.316 -1.7695 -5.043 -1.4985 -3.776 -3.468 0 
-6.3935 -8.748 -7.250501 -5.3985 -7.72 -8.370001 -13.3461 -10.75 -5.9445 -5.8035 -4.8975 -7.517 -3.468 
-10.7025 -13.4637 -9.217501 -9.6555 -12.8727 -18.4824 -15.7801 -14.925 -6.4505 -10.068 -8.5705 -7.517 
-15.4182 -15.4307 -13.5529 -14.8256 -22.9851 -20.9164 -19.9551 -15.431 -10.702 -13.741 -8.5705 
-17.3852 -19.7661 -18.723 -24.938 -25.4191 -25.0914 -20.4611 -19.6825 -14.375 -13.741 
