-4.759 
n/a 
n/a 
n/a 
n/a 
-4.759 
n/a 
n/a 
n/a 
n/a 
-4.759 
n/a 
n/a 
n/a 
n/a 
-4.759 
n/a 
n/a 
n/a 
n/a 
-3.535 -3.522 0 -3.1385 -7.679501 -1.7565 -4.628 -6.9645 
-5.913 -3.522 -3.1385 -12.0652 -8.797001 -6.107501 -7.012 
-5.913 -7.421 -12.0652 -13.1827 -13.28 -8.132501 
-9.190001 -16.5175 -13.1827 -17.6657 -15.305 
-19.1045 -17.635 -17.6657 -19.6907 
-3.0835 -4.584 0 -4.628 -4.743 -3.8475 
-7.693501 -4.584 -4.628 -4.7515 -8.59 
-7.693501 -9.9725 -4.7515 -8.599 
-13.4456 -10.4635 -8.599 
-13.9366 -14.8356 
-3.0835 -3.473 0 -6.4165 -3.1385 -3.8475 
-6.9355 -3.473 -6.4165 -9.951 -7.1425 
-6.9355 -11.08 -9.951 -14.1118 
-15.3293 -14.6145 -14.1118 
-18.8638 -18.7753 
-3.0835 -3.518 -3.522 0 -6.899 -3.1385 -3.8475 
-5.979 -7.7975 -3.522 -6.899 -9.762501 -7.1425 
-10.7595 -7.7975 -10.598 -9.762501 -14.0219 
-10.7595 -15.3929 -13.4615 -14.0219 
-18.3549 -18.2564 -17.7209 
