-4.759 
n/a 
n/a 
n/a 
n/a 
-4.759 
n/a 
n/a 
n/a 
n/a 
-4.759 
n/a 
n/a 
n/a 
n/a 
-4.759 
n/a 
n/a 
n/a 
n/a 
-3.1385 -5.1275 -3.222 -4.2085 -2.186 -4.031 -2.0935 -4.7905 -1.7695 -4.2225 -1.934 -3.814 -4.191 -3.277 
-9.1045 -6.032 -7.5865 -6.384501 -6.427 -4.8935 -6.978 -5.9285 -6.099501 -5.681 -5.544 -6.266 -5.1085 
-9.911 -11.3059 -10.31 -11.0361 -7.397501 -10.5975 -8.688 -9.108 -7.4525 -9.851001 -8.981001 -6.339 
-15.3887 -14.0294 -14.9616 -12.0066 -13.4833 -12.3075 -12.0987 -10.4045 -11.8721 -13.3522 -9.054501 
-18.1122 -18.681 -15.9321 -18.0924 -15.1933 -15.7182 -13.3952 -14.8241 -15.3733 -13.4257 
-1.4985 -12.16972 -1.7565 -4.2085 -2.186 -3.383 -8.118501 -2.0935 -4.282 -4.2225 0 
-14.76202 -13.92622 -5.647 -6.384501 -4.438 -9.280001 -9.608001 -6.4485 -6.007 -4.2225 
-16.51852 -17.81672 -8.187 -8.5495 -9.832001 -10.3895 -14.1402 -7.7635 -6.007 
-20.40902 -20.35672 -10.218 -14.1061 -10.5565 -14.9217 -15.4552 -7.7635 
-22.94902 -22.38772 -15.7746 -14.8306 -15.0887 -16.2367 -15.4552 
-2.0935 -1.4985 -3.634 -2.6615 -3.277 0 -5.814 -1.7565 -4.9545 -2.3345 -3.1385 -4.3195 -3.383 -4.6345 -1.7695 -1.4985 -3.3435 -1.7565 -4.178 0 
-2.9725 -4.943501 -6.916 -4.7555 -3.277 -5.814 -8.789001 -6.241001 -7.226501 -5.443501 -6.974 -6.281 -6.1445 -5.9465 -2.7955 -4.6745 -4.7005 -5.6105 -4.178 
-6.7415 -8.359501 -8.360001 -4.7555 -8.779 -8.789001 -13.4977 -8.293501 -9.903501 -10.45 -8.701501 -9.2985 -7.3175 -6.84 -6.285 -5.03 -9.0825 -5.6105 
-9.878501 -9.248501 -8.360001 -10.281 -12.0502 -13.4977 -15.5502 -10.0925 -15.2096 -12.1775 -11.8912 -10.2095 -8.365001 -8.8625 -6.7225 -10.0185 -9.0825 
-10.159 -9.248501 -14.1043 -13.575 -16.7589 -15.5502 -17.3492 -15.6988 -16.9371 -15.3672 -12.8022 -11.257 -10.597 -9.535501 -11.972 -10.0185 
-1.934 -3.634 -2.6615 -3.277 0 -3.6835 -5.267 -4.9345 -1.4985 -4.282 -4.2225 
-4.9425 -6.916 -4.7555 -3.277 -3.6835 -8.008501 -9.158501 -5.9515 -5.0715 -6.007 
-9.066001 -8.360001 -4.7555 -7.564501 -8.008501 -12.1954 -10.6225 -9.517501 -7.2885 
-9.362 -8.360001 -9.0515 -12.3021 -12.1954 -13.6594 -14.1885 -9.835501 
-9.362 -12.8748 -14.2063 -16.489 -13.6594 -17.2254 -14.5065 
