-4.759 
n/a 
n/a 
n/a 
n/a 
-4.759 
n/a 
n/a 
n/a 
n/a 
-4.759 
n/a 
n/a 
n/a 
n/a 
-4.759 
n/a 
n/a 
n/a 
n/a 
-4.2125 -1.4985 -4.7295 -2.4945 -3.699 0 
-5.5075 -6.0375 -6.041 -5.304 -3.699 
-10.0285 -7.1155 -8.4665 -5.304 
-10.5185 -9.826 -8.4665 
-13.229 -9.826 
-4.2125 -4.486 -2.186 -4.1205 -2.5045 -1.8085 -3.699 -2.871 
-9.406 -6.2635 -5.007 -5.3175 -3.3625 -6.9425 -6.3315 
-10.735 -8.7935 -6.317 -5.9545 -8.4935 -9.527 
-13.265 -9.6625 -6.883 -10.181 -11.23 
-14.134 -9.7945 -10.759 -12.9175 
-5.2515 -4.3395 -2.186 -1.7695 -2.489 -3.383 -4.4525 0 
-10.7495 -6 -3.8745 -3.1405 -4.85 -8.5185 -4.4525 
-12.41 -7.409 -4.7485 -5.442 -10.76 -8.5185 
-13.819 -8.278501 -7.769001 -11.3772 -10.76 
-14.6885 -11.7214 -14.0922 -11.3772 
-4.2125 -3.4905 -2.186 -4.1205 -2.5045 -3.699 0 
-8.651501 -5.4155 -5.007 -5.3175 -5.56 -3.699 
-9.9725 -8.372001 -6.317 -7.8495 -5.56 
-12.929 -9.6405 -8.779 -7.8495 
-14.1975 -12.0875 -8.779 
