-4.759 
n/a 
n/a 
n/a 
n/a 
-4.759 
n/a 
n/a 
n/a 
n/a 
-4.759 
n/a 
n/a 
n/a 
n/a 
-4.759 
n/a 
n/a 
n/a 
n/a 
-2.5045 -1.4985 -3.486 -2.95 0 -2.9805 -3.074 -4.09 -4.537 -5.437 -4.33 -3.091 -4.235 
-3.1915 -3.5655 -4.563 -2.95 -2.9805 -4.8805 -6.1805 -7.521501 -9.2495 -7.1995 -6.5725 -5.1065 
-4.538 -4.577 -4.563 -5.2005 -4.8805 -7.457001 -9.397 -12.5372 -10.342 -9.193001 -8.298 
-4.615 -4.577 -6.3855 -7.073501 -7.457001 -10.522 -14.4351 -13.6297 -12.3355 -10.16 
-4.615 -6.395 -7.9735 -9.282001 -10.522 -15.5601 -15.5276 -15.6232 -13.3025 
-2.872 -1.4985 -3.486 -2.95 -2.9805 -4.3745 -3.091 -3.6245 -3.4915 0 
-4.035 -3.5655 -4.563 -5.2005 -7.691501 -7.2655 -7.477 -4.5955 -3.4915 
-6.3175 -4.577 -6.3855 -10.5149 -9.190001 -12.1395 -9.154 -4.5955 
-8.454 -6.395 -11.8137 -12.0134 -14.395 -13.8165 -9.154 
-10.1375 -11.8228 -13.3122 -17.2184 -16.072 -13.8165 
-2.5045 -1.4985 -3.486 -2.95 0 -3.091 -5.437 -4.33 -3.091 -4.235 -3.074 -4.157 0 
-3.1915 -3.5655 -4.563 -2.95 -3.091 -7.129 -7.1995 -6.5725 -5.1065 -7.069 -6.1595 -4.157 
-4.538 -4.577 -4.563 -6.248 -7.129 -8.9355 -9.193001 -8.298 -7.751 -10.6567 -6.1595 
-4.615 -4.577 -7.3215 -10.159 -8.9355 -10.341 -10.16 -11.1547 -11.5629 -10.6567 
-4.615 -7.328001 -11.3529 -11.9333 -10.341 -11.308 -13.0167 -14.9666 -11.5629 
-4.8735 -2.9805 -3.7905 -4.9475 -3.7015 -3.091 -4.235 0 
-8.0105 -7.118001 -7.217 -8.3605 -5.8685 -5.1065 -4.235 
-12.3594 -9.486501 -10.476 -10.092 -7.554 -5.1065 
-14.7279 -13.0507 -12.2075 -11.9317 -7.554 
-18.2921 -14.7822 -14.0472 -11.9317 
