-4.759 
n/a 
n/a 
n/a 
n/a 
-4.759 
n/a 
n/a 
n/a 
n/a 
-4.759 
n/a 
n/a 
n/a 
n/a 
-4.759 
n/a 
n/a 
n/a 
n/a 
-3.995 -4.2485 -3.564 -1.756 -5.4075 -3.9515 -1.7695 -3.355 -1.7565 -3.1385 -5.044 -1.7565 -3.922 -1.7695 -4.2065 -1.4985 -3.135 -1.7565 -3.695 -1.7695 -5.6525 -3.859 -4.5735 -1.7565 -3.515 -3.741 -4.5055 -1.7565 -4.0395 -1.4985 -3.962 0 
-8.0625 -9.51 -4.925 -6.1405 -8.4755 -5.9375 -5.72 -3.725 -4.388 -9.5315 -6.294 -6.2555 -5.883 -4.563 -4.732 -6.4025 -3.9195 -5.0305 -5.349 -7.725501 -7.8995 -9.669001 -7.4385 -5.895501 -7.699 -8.059 -8.269501 -7.237501 -6.023 -6.993501 -3.962 
-13.629 -10.7585 -7.572001 -9.22 -10.76 -10.238 -6.822001 -7.239501 -11.3426 -10.8419 -11.7208 -8.297 -8.725 -5.081501 -9.9615 -6.856 -9.897 -6.633 -12.0222 -10.426 -15.5527 -12.534 -12.2747 -9.889501 -12.294 -12.057 -13.9463 -9.335001 -11.8182 -6.993501 
-14.8775 -13.4055 -9.7845 -11.7439 -15.0605 -10.412 -10.6867 -14.5313 -12.653 -16.2687 -13.7623 -11.3708 -9.362 -10.5535 -10.2425 -13.1065 -11.4995 -13.4866 -14.7227 -18.3382 -18.4177 -17.3702 -16.2687 -14.4845 -16.292 -17.7338 -16.0438 -15.1628 -11.8182 
-17.5245 -15.618 -12.3038 -16.0444 -15.2345 -14.6993 -17.9785 -15.8417 -18.0798 -18.3102 -16.8361 -12.0078 -14.9228 -10.8345 -16.3436 -14.709 -18.3531 -16.1871 -22.6349 -21.2032 -23.2539 -21.3642 -20.8637 -18.4825 -21.9688 -19.8313 -21.8716 -15.1628 
-1.4985 -3.6605 -4.7425 -4.6205 -3.3715 -4.7905 -4.63 -2.0935 -3.6835 -5.164 0 -1.756 -3.074 -2.8965 -3.8245 -3.681 0 
-4.6365 -4.8735 -8.892 -7.4465 -9.178 -9.8265 -6.919 -5.189 -5.399 -5.164 -1.756 -4.566 -6.226 -6.6505 -6.1385 -3.681 
-6.350501 -8.986 -11.7118 -13.66 -14.5204 -12.4303 -9.7135 -6.941 -5.399 -6.3 -4.566 -7.321 -9.967001 -7.391 -6.1385 
-11.2888 -11.8056 -17.9253 -19.0024 -17.1242 -15.2248 -10.566 -6.941 -6.4905 -8.7145 -7.321 -10.7595 -10.7631 -7.391 
-14.1084 -18.0191 -23.2677 -21.6062 -19.9187 -16.0773 -10.566 -7.997001 -8.904501 -11.6579 -10.7595 -11.5556 -10.7631 
-1.4985 -3.974 -1.7565 -3.6605 -4.7425 -2.264 -3.564 -1.756 -3.8565 -3.618 -1.934 -1.4985 -4.4465 -3.8195 -1.4985 -4.02 -1.7565 -1.4985 -3.1385 -2.186 -3.299 -3.321 -1.4985 -3.974 -2.186 -3.074 -3.299 -2.356 -2.9905 -5.718 -4.2875 -4.113 -1.4985 -3.956 -3.6395 -2.742 -4.7075 -2.9705 -2.186 -3.074 -4.49 -1.934 -2.3335 -3.4425 -2.5045 -4.554 -3.768 -3.9515 -1.756 -3.634 -4.17 -1.7565 -1.4985 -3.9515 -1.934 -4.3885 -2.7765 -2.489 -3.557 -1.934 -1.4985 -3.859 -3.326 -3.277 -4.175 -2.3345 -5.6525 -2.3345 -2.4265 -2.229 -4.544 -3.2795 -3.741 0 
-4.772 -4.613 -5.1155 -4.8735 -6.882 -5.4355 -4.925 -4.9165 -5.569 -5.285501 -2.6125 -5.542001 -6.268001 -5.443501 -4.914001 -5.1665 -2.4195 -4.2575 -5.6995 -5.5155 -6.950001 -4.481 -4.772 -5.62 -4.156 -6.726501 -6.110001 -5.712501 -9.156501 -10.1725 -6.827001 -6.285501 -4.8985 -5.7595 -6.098001 -6.24 -7.8155 -3.89 -4.156 -6.6175 -5.6995 -4.359 -5.650001 -5.6725 -6.5955 -9.280001 -6.6365 -5.4465 -5.8475 -8.461 -4.606 -2.4195 -4.8235 -5.5835 -5.508 -7.9185 -3.495 -4.467 -4.4175 -2.6125 -4.4795 -7.851501 -5.493 -6.316501 -4.6685 -7.8 -8.575001 -5.412 -3.3415 -6.567 -7.8785 -6.370501 -3.741 
-4.923 -7.475 -5.95 -6.9835 -10.7291 -6.679 -5.605 -6.662 -6.749001 -5.850501 -6.481501 -6.763501 -7.6245 -8.231001 -5.776 -6.016 -5.013 -6.807 -8.811001 -7.676001 -7.674001 -7.6695 -6.2365 -7.625 -7.309 -8.566 -9.528501 -10.7495 -13.7588 -12.712 -8.494501 -10.1465 -6.685 -8.696 -8.212501 -8.882 -8.646501 -5.816 -7.7955 -7.601501 -8.122001 -5.9315 -7.429 -9.213 -12.1003 -12.2105 -8.505 -9.1105 -9.932501 -8.7015 -4.9975 -5.933001 -7.277 -9.683001 -8.995001 -8.243501 -4.7 -5.022 -4.9675 -5.3215 -8.1945 -9.67 -7.2165 -6.993501 -10.4538 -10.7025 -11.8525 -6.462 -8.3545 -9.918501 -11.2847 -6.370501 
-7.907001 -7.897 -7.2045 -10.9622 -11.9726 -7.016001 -7.2355 -7.521 -7.174 -8.942 -7.1165 -8.0345 -10.5325 -8.718 -6.3345 -9.131001 -7.1285 -10.047 -11.0553 -8.071501 -10.403 -8.375501 -8.497001 -11.0172 -8.9315 -12.1019 -14.5747 -15.3518 -16.2983 -14.3795 -12.4503 -10.593 -8.9965 -10.586 -11.0355 -9.981001 -10.5225 -10.0505 -7.957 -10.75 -8.900001 -7.6835 -11.2447 -14.9054 -15.0308 -14.079 -12.3998 -10.293 -10.5365 -8.9775 -7.4225 -8.133 -11.6903 -13.207 -9.4505 -8.774501 -5.2165 -5.4425 -8.175 -9.6435 -10.1545 -11.6031 -9.8935 -13.1928 -13.3563 -13.98 -12.9025 -11.5096 -11.9034 -13.3247 -11.2847 
-8.183001 -8.362 -11.4698 -12.2057 -12.3096 -8.660001 -8.045 -7.967 -10.3405 -9.489 -8.324 -10.9879 -11.0195 -9.451501 -9.429501 -11.5313 -10.185 -12.3687 -11.4508 -10.6465 -11.1464 -10.9746 -12.0128 -12.6397 -12.493 -17.1481 -19.177 -17.8913 -17.9658 -18.3353 -12.8968 -12.9045 -10.9953 -13.409 -12.1345 -11.857 -14.757 -10.4282 -11.2023 -11.528 -10.6735 -11.6782 -16.9371 -17.8359 -16.8993 -17.9738 -13.5823 -12.2752 -10.8125 -11.5479 -10.7485 -12.6749 -15.2143 -13.6625 -10.187 -9.9425 -5.614501 -8.639501 -12.5442 -11.4049 -12.0876 -14.2801 -15.9966 -16.0953 -16.6338 -15.03 -17.9501 -15.0585 -15.3096 -13.3247 
-3.188 -4.593 -1.7695 -3.4985 -2.3345 -4.042 -4.889 
-9.178 -6.9635 -4.8425 -5.9425 -6.738 -8.796501 
-11.9489 -9.719501 -7.535 -9.953501 -12.0013 
-14.7049 -12.5614 -11.895 -15.2168 
-17.5468 -16.9214 -17.1583 
