-4.759 
n/a 
n/a 
n/a 
n/a 
-4.759 
n/a 
n/a 
n/a 
n/a 
-4.759 
n/a 
n/a 
n/a 
n/a 
-4.759 
n/a 
n/a 
n/a 
n/a 
-2.872 -2.4265 -2.7415 -5.0495 -1.934 -5.0815 -1.7565 -1.4985 -4.537 -4.2875 -3.8275 -1.934 -4.6585 0 
-4.062 -3.681 -6.382501 -6.802001 -6.071 -5.3875 -2.4195 -6.164001 -7.292 -5.364501 -5.2615 -5.8095 -4.6585 
-5.1385 -7.4445 -7.619 -10.139 -6.283 -5.91 -7.038001 -8.2565 -9.003401 -7.1415 -8.9805 -5.8095 
-8.385 -8.6455 -11.3788 -10.2305 -6.762 -9.204 -9.267 -10.2251 -10.7804 -10.264 -8.9805 
-9.753501 -12.5405 -11.4703 -10.7755 -9.7545 -11.4814 -11.3394 -12.0021 -13.9029 -10.264 
-2.872 -1.934 -1.4985 -3.158 -4.6585 0 -2.4265 -2.7415 -5.387 -3.2615 -4.318 -4.058 -3.8275 0 
-4.659 -2.6125 -4.178 -7.08 -4.6585 -2.4265 -3.681 -6.613501 -7.281 -6.9785 -7.5305 -4.954 -3.8275 
-5.27 -5.265 -8.09 -7.08 -7.228001 -3.681 -7.673 -7.8295 -10.287 -10.9818 -10.228 -4.954 
-8.111501 -8.577001 -8.09 -9.852501 -7.8025 -7.673 -8.8205 -10.354 -14.9091 -13.6793 -10.228 
-11.5291 -8.577001 -10.0065 -10.3995 -11.9871 -8.8205 -11.5346 -15.4197 -17.6066 -13.6793 
-2.872 0 -2.3335 -3.2895 -4.2 -3.851 -1.7695 -4.058 -3.8275 -1.934 -4.6585 
-2.872 -2.3335 -7.138 -9.455501 -7.889 -4.0015 -6.036 -4.954 -5.2615 -5.8095 
-4.5445 -7.138 -13.6952 -13.4055 -7.895 -8.1155 -7.071 -6.3775 -8.9805 
-9.83 -13.6952 -17.6452 -13.4115 -12.494 -8.764001 -8.527 -9.8785 
-16.5012 -17.6452 -17.6512 -18.0105 -13.1425 -9.5965 -12.1514 
-2.872 0 -1.4985 -3.486 -2.7415 -5.0495 -1.934 -4.6585 -3.4635 -4.537 -6.6625 -1.756 -4.345 
-2.872 -1.4985 -3.5655 -6.593 -6.382501 -6.802001 -5.8095 -8.243 -7.527 -9.9305 -7.525001 -5.718 
-4.035 -3.5655 -6.62 -10.6465 -7.619 -9.790501 -8.453 -12.9197 -13.4195 -10.764 -10.19 
-6.3175 -6.62 -10.7595 -11.883 -9.98 -12.434 -13.2715 -18.8122 -14.253 -13.429 
-8.5235 -10.7595 -11.996 -14.244 -12.6235 -17.2525 -19.164 -19.6457 -16.918 
