-4.759 
n/a 
n/a 
n/a 
n/a 
-4.759 
n/a 
n/a 
n/a 
n/a 
-4.759 
n/a 
n/a 
n/a 
n/a 
-4.759 
n/a 
n/a 
n/a 
n/a 
-5.1845 -5.74 -3.5435 0 -1.934 -3.333 -1.7695 -4.933 -5.5785 -2.229 -5.1645 -2.8645 -4.0835 -4.1385 -1.756 -5.2155 -1.934 -7.175 0 -5.3885 0 
-5.7465 -7.83 -3.5435 -1.934 -3.9835 -4.022 -6.324 -9.64 -6.6785 -6.851501 -7.797501 -5.8155 -8.477501 -5.5335 -7.4375 -6.842501 -9.215501 -7.175 -5.3885 -5.3885 
-7.8315 -7.83 -5.3395 -3.9835 -4.0425 -8.818501 -11.4764 -11.4036 -10.6095 -9.040501 -11.1019 -10.9891 -9.844001 -9.573001 -9.14 -14.6454 -9.215501 -7.346 -5.3885 
-7.8315 -9.419001 -7.0955 -4.0425 -8.831 -14.1487 -13.24 -15.3346 -12.7985 -12.3939 -16.2755 -12.3556 -13.9891 -11.4737 -17.1589 -14.6454 -10.3295 -7.346 
-9.418501 -11.2304 -7.122 -8.831 -14.1742 -15.9123 -17.171 -17.5236 -16.1519 -17.5675 -17.642 -16.5007 -15.8898 -19.4926 -17.1589 -15.7594 -10.3295 
-4.426 -1.7565 -1.4985 -3.0835 -4.7285 -4.1555 -8.3315 -5.74 -3.5435 -2.8645 -4.0835 -1.8085 -5.5785 -5.9185 -1.756 -1.8085 -4.1385 -2.5045 -8.045501 -1.934 -5.3885 -2.0935 -3.091 -5.851501 -3.3435 
-5.47 -2.4195 -3.535 -6.042 -8.4455 -11.062 -9.001 -7.83 -5.259501 -5.8155 -5.547 -7.870501 -9.231501 -7.416501 -3.584 -5.866 -6.214 -11.245 -10.5035 -6.4035 -7.875501 -4.5345 -9.338 -8.728001 
-5.9535 -4.6785 -6.335501 -9.523001 -14.5215 -12.1235 -11.8975 -8.915501 -8.253 -6.362 -12.4014 -11.9401 -11.0009 -9.1785 -7.474 -8.102 -15.4793 -13.703 -14.973 -8.342501 -9.892 -10.647 -12.3643 
-8.021 -7.476501 -10.0095 -15.6835 -15.895 -14.2085 -12.983 -12.0502 -8.8985 -13.7018 -16.471 -13.7095 -12.7629 -13.1569 -9.5985 -17.6097 -17.9373 -18.1725 -16.912 -10.3605 -16.0045 -13.6733 
-9.983001 -11.3061 -16.28 -17.057 -17.98 -15.294 -16.1173 -12.6957 -16.3503 -17.7714 -18.2404 -15.4715 -16.7413 -15.2814 -19.2162 -20.0677 -22.4068 -20.1115 -18.93 -16.473 -19.0308 

n/a 
n/a 
n/a 
n/a 
-1.934 -3.333 -1.7695 -8.583 -5.5785 -1.4985 -6.557 -3.5435 -2.8645 -4.834 -1.8085 -4.1385 -1.934 -7.175 0 
-3.9835 -4.022 -8.672 -14.7941 -7.3145 -8.1955 -8.731501 -5.259501 -6.987 -6.421 -5.866 -5.713 -9.215501 -7.175 
-4.0425 -12.3091 -14.9791 -16.5301 -14.4473 -9.27 -10.089 -8.981001 -7.448501 -9.901001 -7.119 -13.7083 -9.215501 
-12.72 -18.6162 -16.7151 -23.6629 -15.5218 -10.2705 -13.8105 -9.512 -11.1065 -10.761 -15.4245 -13.7083 
-19.0271 -20.3522 -23.8479 -24.7374 -16.5223 -13.992 -14.3415 -13.2064 -11.9665 -19.0665 -15.4245 
