-4.759 
n/a 
n/a 
n/a 
n/a 
-4.759 
n/a 
n/a 
n/a 
n/a 
-4.759 
n/a 
n/a 
n/a 
n/a 
-4.759 
n/a 
n/a 
n/a 
n/a 
-3.5455 -5.075 0 -6.144 -2.3345 -5.044 -3.333 -3.985 -3.277 -1.7695 -3.9355 -6.4705 0 
-8.278 -5.075 -6.144 -8.62 -7.157001 -9.0375 -8.378 -6.0575 -4.261 -4.679 -9.5725 -6.4705 
-8.278 -10.841 -8.62 -13.5713 -11.5381 -14.2917 -10.8297 -6.3735 -6.793 -9.6855 -9.5725 
-14.1244 -13.317 -13.5713 -17.9524 -16.7923 -16.7434 -11.1457 -8.1445 -11.9109 -9.6855 
-16.6004 -18.2683 -17.9524 -23.2066 -19.244 -17.0594 -12.9167 -13.416 -11.9109 
-1.934 -5.2245 0 -6.144 -4.8865 -4.6185 -3.277 -1.7695 -3.9355 -2.985 -4.088 0 
-7.803 -5.2245 -6.144 -10.688 -8.168 -6.724501 -4.261 -4.679 -5.9865 -6.527 -4.088 
-7.803 -12.2533 -10.688 -13.9695 -10.749 -6.8335 -6.793 -6.329 -8.858001 -6.527 
-15.1456 -16.7973 -13.9695 -16.5505 -10.858 -8.404501 -7.8355 -9.1315 -8.858001 
-19.6896 -20.0788 -16.5505 -16.6595 -12.429 -9.054001 -10.634 -9.1315 
-1.934 -5.075 -5.3745 -4.891 -1.7565 -5.1845 -6.844 -4.584 -3.277 -1.7695 -6.0485 -3.325 -4.1485 -3.685 0 
-7.3975 -10.884 -7.061501 -6.8725 -6.580501 -6.9655 -12.3666 -6.788 -4.261 -6.276501 -9.298 -7.1835 -7.689 -3.685 
-13.2959 -12.571 -7.1715 -7.181 -7.1625 -12.6575 -14.5706 -7.138 -8.298501 -9.561001 -13.2973 -10.718 -7.689 
-14.9829 -12.681 -7.185 -7.202001 -13.0623 -14.8615 -14.9206 -9.799 -11.8384 -13.5341 -16.8318 -10.718 
-15.0929 -12.6945 -7.2055 -13.2114 -15.2663 -15.2115 -17.5816 -13.4961 -15.8115 -17.0686 -16.8318 
-2.925 -2.4945 -3.0465 -2.9905 -2.5195 -6.885 -2.3085 -3.788 -2.229 
-3.7675 -6.7005 -4.989 -5.134 -9.5295 -8.7925 -6.2425 -5.66 
-7.741001 -8.762001 -7.0065 -12.8556 -11.6234 -12.7707 -8.9615 
-9.830001 -11.0235 -15.6543 -14.9495 -15.6016 -15.4897 
-12.0871 -19.6713 -17.7482 -18.9277 -18.3206 
