-4.759 
n/a 
n/a 
n/a 
n/a 
-4.759 
n/a 
n/a 
n/a 
n/a 
-4.759 
n/a 
n/a 
n/a 
n/a 
-4.759 
n/a 
n/a 
n/a 
n/a 
-3.0835 -4.153 -5.42 -5.3885 -3.2875 -3.307 -3.511 -2.9805 -2.229 -4.284 -2.882 -7.9275 0 
-5.844501 -8.505001 -10.451 -7.8685 -5.6105 -6.3785 -6.872 -4.2145 -5.422 -7.125501 -12.6125 -7.9275 
-10.647 -13.8066 -13.8344 -9.9615 -9.692501 -11.2281 -8.019 -9.254001 -8.06 -17.1982 -12.6125 
-15.9486 -17.19 -15.9274 -14.0435 -14.7127 -12.3751 -13.2885 -12.066 -18.6487 -17.1982 
-19.332 -19.283 -20.0094 -19.0637 -15.8597 -17.6446 -16.1005 -22.6547 -18.6487 
-1.934 -4.208 -4.153 0 -2.9805 -3.511 -1.934 -3.9615 -5.3885 0 -1.756 -3.091 -4.284 -3.098 -2.186 -7.9275 
-6.304 -6.7115 -4.153 -2.9805 -7.128 -4.582 -6.076 -7.894 -5.3885 -1.756 -4.2995 -4.863 -7.997001 -4.7005 -10.4115 
-8.529 -6.7115 -6.680501 -7.128 -7.9665 -8.392 -10.5963 -7.894 -7.176001 -4.2995 -5.423 -8.939 -9.287001 -12.9812 
-8.529 -9.795 -11.218 -7.9665 -11.9537 -13.1561 -10.5963 -9.500501 -9.925 -5.423 -9.477001 -9.9385 -17.5677 
-11.8945 -14.4007 -12.0565 -11.9537 -16.7178 -13.1561 -12.2028 -12.2975 -11.0485 -9.477001 -10.623 -18.2192 
-2.4265 -2.186 -4.7815 0 -2.3335 -1.934 -4.4175 -3.0835 -4.153 0 -2.9805 -4.657 -3.9615 -5.5965 -5.3885 -1.756 -3.091 -4.284 -3.098 -2.186 -7.9275 
-3.292 -5.5035 -4.7815 -2.3335 -4.468 -6.2395 -7.7095 -5.844501 -4.153 -2.9805 -5.941 -6.914001 -10.0195 -11.957 -7.176001 -4.2995 -4.863 -7.997001 -4.7005 -10.4115 
-6.001 -5.5035 -5.3995 -4.468 -9.192 -9.2465 -10.019 -5.844501 -6.680501 -5.941 -8.2425 -13.3422 -16.38 -13.7445 -9.925 -5.423 -8.939 -9.287001 -12.9812 
-6.001 -6.1675 -7.410001 -9.192 -12.3026 -11.6776 -10.019 -8.276501 -9.0275 -8.2425 -14.7283 -19.7027 -18.1675 -16.4935 -11.0485 -9.477001 -9.9385 -17.5677 
-6.17 -8.0965 -12.341 -12.3026 -14.7337 -11.6776 -13.0714 -10.8147 -11.6312 -14.7283 -21.0888 -21.4902 -20.9165 -17.617 -15.1025 -10.623 -18.2192 

n/a 
n/a 
n/a 
n/a 
