-4.759 
n/a 
n/a 
n/a 
n/a 
-4.759 
n/a 
n/a 
n/a 
n/a 
-4.759 
n/a 
n/a 
n/a 
n/a 
-4.759 
n/a 
n/a 
n/a 
n/a 
-1.934 -1.4985 -3.5455 -5.749 0 -6.219 -3.468 -1.756 -1.934 -1.4985 -3.641 -5.4885 -2.4945 -4.99 0 
-2.6125 -4.554 -8.137501 -5.749 -6.219 -10.3606 -4.7175 -4.0205 -2.6125 -4.644 -9.901001 -8.117001 -6.2325 -4.99 
-5.298 -9.392 -8.137501 -9.8205 -10.3606 -11.6101 -6.4425 -4.6845 -5.3205 -10.3475 -12.6075 -11.978 -6.2325 
-9.8335 -9.392 -12.4926 -14.7455 -11.6101 -13.3351 -7.26 -7.3915 -10.7175 -13.1788 -16.4685 -11.978 
-9.8335 -14.0133 -17.4176 -15.995 -13.3351 -14.1526 -9.4375 -13.0059 -13.5488 -17.0398 -16.4685 
-3.0365 -2.4945 -5.749 0 -6.219 -5.447 -1.934 -1.4985 -3.5455 0 -5.4885 -1.934 -1.4985 -3.641 
-3.688 -9.467501 -5.749 -6.219 -7.665 -7.3845 -2.6125 -4.554 -3.5455 -5.4885 -7.5755 -2.6125 -4.644 
-11.4984 -9.467501 -9.8205 -7.665 -8.8225 -8.104 -5.298 -4.554 -8.4005 -7.5755 -8.311501 -5.3205 
-11.4984 -13.7208 -9.8955 -8.8225 -10.419 -9.175 -5.298 -9.846001 -9.876 -8.311501 -10.115 
-15.7517 -13.7958 -11.3068 -10.419 -11.49 -9.175 -10.2035 -10.6635 -10.2625 -10.115 
-5.749 -1.756 -5.7725 -1.934 -3.5455 0 -5.4885 -1.934 -3.641 
-7.3505 -7.5585 -8.849 -4.8495 -3.5455 -5.4885 -7.5755 -5.245 
-8.286 -10.1945 -12.0521 -4.8495 -8.4005 -7.5755 -10.647 
-11.3088 -13.5842 -12.0521 -8.882001 -9.876 -10.647 
-14.6985 -13.5842 -16.0846 -10.3965 -13.0889 
-3.5455 -3.7575 -5.749 0 -5.7725 -3.1495 -3.468 -1.756 -3.641 -3.7575 -2.674 -1.934 -5.4885 
-5.799001 -10.3415 -5.749 -5.7725 -10.4035 -6.167 -4.7175 -5.3625 -5.455501 -7.032001 -5.0615 -6.47 
-13.0738 -10.3415 -8.0845 -10.4035 -13.421 -7.5325 -8.353001 -7.4285 -8.882 -9.734 -10.5745 
-13.0738 -12.677 -13.2259 -13.421 -14.7865 -11.3872 -11.2556 -10.1805 -11.5762 -15.4242 
-15.4093 -17.8184 -16.2434 -14.7865 -18.6412 -14.2898 -14.0076 -12.8747 -17.2664 
