-4.759 
n/a 
n/a 
n/a 
n/a 
-4.759 
n/a 
n/a 
n/a 
n/a 
-4.759 
n/a 
n/a 
n/a 
n/a 
-4.759 
n/a 
n/a 
n/a 
n/a 
-3.047 -8.356 -1.934 -5.1845 -1.7565 -3.968 0 -1.756 -5.1845 -3.6885 -3.737 -3.9355 -3.254 0 
-12.3414 -10.304 -6.564 -8.8925 -5.739501 -3.968 -1.756 -7.0085 -7.323501 -7.6355 -7.689 -7.2325 -3.254 
-14.2894 -15.4324 -9.7305 -13.0695 -5.739501 -5.4415 -7.0085 -8.9875 -11.7719 -10.564 -11.335 -7.2325 
-19.4178 -18.5989 -13.9281 -13.0695 -7.4995 -11.789 -8.9875 -13.5897 -14.7004 -14.21 -11.335 
-22.5843 -22.7965 -13.9281 -14.8295 -14.229 -13.768 -13.5897 -16.5182 -18.3464 -14.21 
-3.047 0 -3.254 -1.7565 -5.1845 -3.9355 -1.756 -1.4985 -3.254 -1.7565 -3.9355 -4.5485 -2.5195 -1.4985 -5.1845 -3.9355 -1.934 -1.4985 -9.121 0 
-3.047 -3.254 -4.0065 -6.580501 -8.764 -5.2215 -3.0405 -4.4095 -4.0065 -5.442 -8.0635 -6.042 -3.1695 -6.5205 -8.764 -5.415 -2.6125 -10.523 -9.121 
-6.3265 -4.0065 -9.036 -9.76 -9.836 -6.6445 -6.183 -4.8735 -6.6855 -9.217501 -8.6475 -6.638 -8.0505 -9.59 -9.863001 -5.9935 -12.0312 -10.523 
-6.574 -9.036 -10.5135 -10.5665 -11.3714 -9.698501 -6.711 -7.739501 -11.0854 -9.849001 -9.2515 -11.907 -10.0155 -10.689 -10.753 -16.0198 -12.0312 
-12.0955 -10.5135 -11.7142 -12.1019 -14.4254 -10.192 -9.500501 -12.5676 -11.7169 -10.527 -15.0033 -13.872 -11.1145 -11.579 -20.7793 -16.0198 
-4.0995 0 -4.3225 -2.186 -5.1845 -3.9355 -1.756 -5.1845 -3.6885 -1.934 -4.2215 -3.9355 0 
-4.0995 -4.3225 -6.514501 -8.139501 -8.764 -5.2215 -7.0085 -7.323501 -5.5135 -7.42 -9.229501 -3.9355 
-8.646501 -6.514501 -13.1094 -12.0816 -9.836 -11.492 -8.9875 -9.102 -11.6083 -12.737 -9.229501 
-10.27 -13.1094 -17.0515 -13.1536 -16.2189 -13.471 -10.7495 -15.2966 -16.9253 -12.737 
-16.8649 -17.0515 -18.1235 -19.5365 -18.1979 -15.233 -16.9441 -20.6136 -16.9253 
-3.047 0 -5.1845 -3.9355 -1.934 -4.3225 -3.254 -1.756 -3.9355 -3.557 -2.9905 -2.5195 -5.1845 -3.6885 0 
-3.047 -5.1845 -8.764 -5.415 -5.849 -7.904 -5.103 -6.0745 -7.128 -5.269 -5.134 -7.594501 -7.323501 -3.6885 
-8.827001 -8.764 -9.863001 -8.701 -9.116 -9.4655 -9.327001 -9.321501 -10.19 -7.2475 -10.7025 -10.143 -7.323501 
-12.7017 -9.863001 -13.076 -12.3708 -11.7537 -13.8249 -13.0732 -12.4605 -12.3075 -13.2296 -13.251 -10.143 
-13.8007 -13.076 -16.7458 -15.0085 -16.1131 -17.5711 -16.2122 -14.578 -18.2896 -15.7781 -13.251 
