-4.759 
n/a 
n/a 
n/a 
n/a 
-4.759 
n/a 
n/a 
n/a 
n/a 
-4.759 
n/a 
n/a 
n/a 
n/a 
-4.759 
n/a 
n/a 
n/a 
n/a 
-2.9805 -3.9955 -1.4985 -3.2825 -4.4095 -4.681 -1.934 -3.8195 -5.0845 -3.9795 -2.0935 -1.4985 -3.8195 -9.267501 -9.267501 
-5.513 -5.0175 -3.712 -6.353001 -6.502 -6.131001 -5.8135 -8.248501 -8.902 -5.1125 -2.9725 -4.771 -14.1444 -9.638501 
-6.2655 -6.8035 -7.5305 -6.6905 -7.357 -8.716001 -9.5535 -9.0655 -9.97 -6.159 -6.207 -15.5961 -14.5154 
-8.2465 -8.413501 -7.9505 -7.7025 -10.3955 -12.9974 -11.1685 -9.990001 -10.528 -8.413 -17.2211 -15.9671 
-9.484501 -8.764001 -9.406501 -10.5635 -14.6769 -14.6124 -12.093 -10.5285 -12.782 -19.7001 -17.5921 
-1.4985 -3.8195 -1.7565 -8.4025 -8.4025 -2.186 -7.180501 -1.4985 -3.2825 -3.7575 -4.681 -2.0935 -3.8195 -5.0845 -3.9035 
-4.771 -5.8865 -10.7665 -8.7175 -10.9315 -10.209 -8.088 -3.712 -7.318501 -9.0445 -6.8195 -5.9535 -8.248501 -8.801001 
-6.9685 -15.6637 -10.7885 -10.9955 -18.9545 -11.1165 -10.195 -7.6455 -12.9921 -11.3258 -9.5185 -10.4855 -8.858001 
-17.1097 -15.6857 -13.0665 -19.0185 -19.862 -13.2235 -14.2995 -13.7223 -15.2734 -14.0248 -14.2801 -11.095 
-17.1317 -17.9637 -21.0895 -19.926 -21.969 -17.328 -20.3763 -16.0036 -17.9724 -18.7864 -14.8896 
-9.267501 -12.16972 -2.9805 -3.251 -3.9955 -1.4985 -3.2825 -4.4095 -4.681 -3.9795 0 
-21.74182 -15.15022 -4.429 -6.1365 -5.0175 -3.712 -6.353001 -6.502 -7.3555 -3.9795 
-24.72232 -16.59872 -7.062 -6.698501 -6.8035 -7.5305 -6.6905 -8.201 -7.3555 
-26.17082 -19.23172 -7.5795 -8.979 -8.413501 -7.9505 -8.27 -8.201 
-28.80382 -19.74922 -9.98 -10.7025 -8.764001 -8.668501 -8.27 
-2.9805 -3.0465 -3.2825 -4.269 -3.819 -3.9795 -2.0935 -12.16972 -12.16972 -3.8195 0 
-6.364 -6.723001 -7.997001 -5.621 -7.48 -5.1125 -15.25422 -24.33944 -15.98922 -3.8195 
-10.5975 -12.0929 -9.095501 -10.4945 -8.285501 -19.04102 -27.42394 -28.15894 -15.98922 
-15.9674 -13.1914 -14.3 -11.3 -22.46182 -31.21074 -31.24344 -28.15894 
-17.0659 -18.3959 -15.1055 -25.47632 -34.63154 -35.03024 -31.24344 
