-4.759 
n/a 
n/a 
n/a 
n/a 
-4.759 
n/a 
n/a 
n/a 
n/a 
-4.759 
n/a 
n/a 
n/a 
n/a 
-4.759 
n/a 
n/a 
n/a 
n/a 
-8.3245 -4.147 -1.934 -3.9195 -3.8375 -1.756 -4.8305 -3.8375 -2.9705 -2.4945 -4.0435 -4.6445 -3.873 -3.4425 0 -2.8645 -1.4985 -4.142 -1.7565 -7.491 -4.8565 0 
-12.8131 -6.257 -6.0555 -8.434501 -5.325 -5.5435 -7.2565 -6.654 -4.302 -6.009501 -8.749001 -8.406 -6.015 -3.4425 -2.8645 -4.3545 -5.4315 -5.3145 -8.940001 -10.8455 -4.8565 
-14.9231 -10.9651 -11.2317 -9.774501 -5.7545 -7.909 -11.641 -8.3815 -7.113 -11.5382 -12.9801 -10.674 -6.015 -5.824 -4.3545 -8.3625 -5.589 -11.334 -10.886 -9.347 
-19.6312 -16.1413 -12.5717 -10.6125 -8.529 -12.5877 -13.3685 -11.3621 -13.0945 -15.7693 -15.2481 -10.674 -8.473001 -7.2905 -8.3625 -9.156 -13.2629 -15.1293 -11.4704 
-24.8074 -17.4813 -13.4097 -12.088 -13.4515 -14.3152 -16.3491 -17.3436 -17.3256 -18.0373 -15.2481 -13.132 -10.238 -11.7685 -9.156 -16.9567 -16.5166 -15.1293 
-4.1715 -1.4985 -4.5435 -1.4985 -4.142 -1.7565 -6.15 -4.653 -1.7565 -4.765 -4.417 -1.934 -1.4985 -4.9625 -1.7565 -3.9195 -3.8375 -1.756 -4.8305 -3.8375 0 
-4.693 -5.5535 -6.326 -5.4315 -5.3145 -9.0175 -11.449 -6.7405 -6.965001 -9.346001 -6.487 -2.6125 -6.024 -6.403 -5.477 -8.434501 -5.325 -5.5435 -7.2565 -3.8375 
-9.265 -7.0375 -10.0035 -5.589 -13.5007 -14.5039 -13.5365 -12.4972 -12.1126 -11.934 -7.0445 -7.0695 -6.798501 -10.9199 -10.0035 -9.774501 -5.7545 -7.909 -7.2565 
-10.703 -10.411 -10.3655 -14.1528 -18.9871 -16.5914 -19.2932 -17.6448 -14.7006 -12.4915 -10.3475 -7.7 -11.4766 -15.4464 -11.3935 -10.6125 -8.529 -7.909 
-14.0765 -10.6865 -18.9243 -19.6392 -21.0746 -22.3481 -24.4408 -20.2328 -15.2581 -15.7945 -10.978 -12.6393 -16.0031 -16.8364 -12.2315 -12.088 -8.529 
-1.4985 -4.0435 -4.1455 -1.7565 -1.4985 -3.8655 -4.0935 -1.8085 -6.0745 -3.8375 -1.756 -12.16972 0 -1.4985 -4.257 -4.147 -2.186 -7.491 -4.653 -4.142 0 
-5.16 -7.1365 -5.11 -2.4195 -6.342 -8.410501 -4.9645 -8.410501 -10.8122 -5.325 -14.93432 -12.16972 -1.4985 -5.1765 -8.394501 -6.445001 -9.84 -11.853 -8.0725 -4.142 
-7.390501 -7.413001 -5.3235 -7.166501 -11.7652 -9.377001 -12.4325 -13.3446 -12.2997 -19.46912 -14.93432 -13.66822 -5.1765 -8.967501 -10.4855 -13.7375 -15.0637 -15.7157 -8.0725 
-7.544001 -7.572501 -11.0389 -12.8543 -12.7317 -16.9158 -17.3666 -14.8321 -26.44382 -19.46912 -16.43282 -17.34622 -8.967501 -12.2953 -17.8296 -19.4836 -18.694 -15.7157 
-7.6625 -13.5423 -16.7267 -13.8208 -20.2705 -21.8499 -18.8541 -28.97622 -26.44382 -20.96762 -20.11082 -21.13722 -12.2953 -19.6394 -23.5241 -22.9031 -18.694 
-1.4985 -7.679501 -4.147 -9.448501 -1.934 -6.0745 -1.756 -7.8825 -3.8375 -2.8645 -1.8085 -4.142 -1.7565 -6.15 -4.8565 
-9.856501 -12.9079 -14.7733 -9.811001 -8.616501 -7.9035 -10.3845 -11.958 -6.482 -3.9785 -5.942 -5.3145 -9.0175 -10.389 
-15.3215 -23.5342 -15.1358 -16.8789 -10.361 -16.8787 -14.0877 -16.1651 -7.376 -7.5245 -6.2675 -13.5007 -13.4439 
-25.9478 -23.8967 -22.2037 -18.6234 -19.3362 -20.8074 -18.1336 -17.0591 -11.2756 -7.832 -15.1365 -17.9271 
-26.3103 -30.9646 -23.9482 -27.5986 -23.2649 -24.8533 -19.0276 -20.9587 -11.5831 -16.7564 -19.5629 
