-4.759 
n/a 
n/a 
n/a 
n/a 
-4.759 
n/a 
n/a 
n/a 
n/a 
-4.759 
n/a 
n/a 
n/a 
n/a 
-4.759 
n/a 
n/a 
n/a 
n/a 
-1.934 -3.488 -3.225 -3.982 -4.0375 -4.0925 -2.985 -3.982 -4.824 -3.8355 -3.6205 0 -2.9705 -4.953 -1.934 -3.8805 -2.356 -6.168 -1.756 -3.5435 -1.7695 -3.197 -1.4985 -3.768 -4.029 -1.7695 -4.2065 -1.4985 -4.824 -1.756 -4.5055 -1.8085 -3.6605 -3.545 -4.824 -4.285 -3.8655 -4.661 -2.985 -4.824 -3.324 -1.934 -2.8845 -3.4975 -3.757 -6.389 -3.986 -3.074 -4.661 -1.4985 -3.9115 -1.7695 -5.269 -5.169 -3.9115 -1.7695 -4.2065 -1.4985 -4.824 
-4.9205 -5.143 -6.9995 -4.964 -8.328501 -6.23 -6.829 -8.002501 -8.488501 -7.56 -3.6205 -2.9705 -7.3295 -6.5965 -5.3795 -5.8605 -8.386001 -7.1675 -5.099 -5.157001 -3.9565 -4.291 -5.259501 -6.528 -4.395 -4.563 -4.732 -5.96 -6.5865 -5.7045 -5.5345 -5.331 -6.163 -9.1085 -9.339001 -8.460001 -8.13 -7.351 -7.489501 -8.769001 -4.971 -4.7805 -6.096 -6.415 -7.891001 -6.917 -6.861001 -7.408501 -5.7335 -5.578 -4.7405 -7.026 -6.476 -8.5425 -4.7405 -4.563 -4.732 -5.96 
-6.445 -9.232501 -8.2145 -9.078 -10.1595 -10.082 -11.4275 -10.0125 -12.549 -7.56 -5.8625 -7.3295 -9.3815 -10.647 -6.2255 -12.2801 -9.134501 -8.6925 -6.9215 -7.726501 -4.7825 -8.352001 -7.456 -6.932 -6.131001 -5.081501 -7.8405 -7.818501 -11.2232 -6.7725 -9.092501 -7.4925 -9.296 -13.7629 -13.639 -13.3199 -10.451 -12.5093 -11.8457 -10.186 -7.471 -8.265 -10.041 -9.7635 -7.941 -10.1305 -11.9059 -8.086 -9.836 -6.933001 -10.468 -8.8835 -10.181 -9.1975 -7.008501 -5.081501 -7.8405 
-10.609 -10.4945 -12.6607 -11.1586 -14.2011 -15.0103 -13.4375 -14.5144 -12.549 -9.628 -10.733 -9.3815 -13.7336 -11.493 -12.8531 -13.0286 -10.6105 -10.459 -9.066501 -8.756001 -8.6035 -10.3165 -8.0135 -8.6225 -6.976501 -8.0725 -10.0065 -12.8616 -12.2912 -10.5035 -11.541 -11.1251 -13.9856 -18.0629 -18.4989 -15.6409 -15.6093 -16.8655 -13.2627 -12.686 -11.1109 -12.535 -13.6467 -9.828501 -11.4941 -15.1754 -12.5834 -12.3177 -10.625 -12.7911 -12.3255 -12.7841 -10.9962 -11.5971 -7.626501 -8.0725 
-11.871 -14.9407 -14.7413 -15.2002 -19.1294 -17.0203 -17.9394 -14.5144 -14.617 -14.6063 -12.785 -13.7336 -14.5796 -18.1206 -13.6016 -14.5046 -12.377 -12.604 -10.382 -12.8904 -10.6095 -10.744 -9.873501 -9.111 -10.2805 -10.1425 -15.1404 -13.9296 -16.0222 -12.952 -15.1736 -15.8147 -18.2856 -22.9228 -20.8199 -20.7992 -19.9655 -18.2825 -15.7627 -16.3259 -15.3809 -16.1407 -13.7117 -13.3816 -16.539 -15.8529 -16.8151 -13.1067 -16.4831 -14.6486 -16.2261 -13.5993 -13.3958 -12.2151 -10.434 
-4.2665 -4.422 -2.186 -2.871 -1.7565 -1.4985 -6.6945 -1.7565 -3.326 -1.934 -3.909 0 -2.871 -1.7565 -1.4985 -3.535 -3.989 -4.0995 -2.9995 -4.2665 -4.7615 -2.186 -1.8085 -3.7545 0 -3.488 -3.225 -4.719 -1.756 -1.4985 -3.585 -4.7085 -4.651 -3.127 0 -1.934 -3.158 -8.111 -1.4985 -3.585 -4.7085 0 
-7.2755 -6.0315 -4.247 -3.5385 -2.4195 -7.705001 -7.757501 -4.8495 -4.9165 -4.3925 -3.909 -2.871 -3.5385 -2.4195 -4.255 -6.676 -6.8655 -7.1085 -6.889 -6.5125 -6.4715 -3.164 -4.5445 -3.7545 -3.488 -5.143 -10.4855 -6.3545 -3.0405 -4.369 -7.305501 -9.0895 -8.0905 -3.127 -1.934 -5.7375 -10.4345 -9.4495 -4.369 -7.305501 -4.7085 
-8.5315 -8.295501 -4.411 -3.7675 -8.153001 -7.941501 -11.2645 -6.101501 -7.843 -4.3925 -6.384501 -3.5385 -3.7675 -5.2175 -7.0465 -8.3695 -10.177 -10.341 -9.334001 -8.1225 -7.717 -5.995 -4.5445 -8.014501 -5.143 -13.0503 -12.121 -7.113 -6.074 -8.1905 -11.9655 -13.1434 -8.0905 -4.82 -5.7375 -14.0206 -11.773 -12.4014 -8.1905 -7.305501 
-11.1011 -8.706501 -4.5655 -8.227 -8.2305 -11.6331 -12.5165 -9.0535 -7.843 -6.4415 -6.728 -3.7675 -5.688 -7.8395 -8.411501 -11.815 -13.4095 -12.786 -10.4595 -9.0525 -9.589001 -5.995 -8.761001 -10.523 -13.0503 -14.6858 -12.8795 -10.8691 -9.5 -12.9015 -16.0194 -13.1434 -9.41 -8.942501 -14.0206 -15.3591 -14.7249 -16.2229 -8.1905 
-11.5121 -8.939001 -9.1505 -8.250501 -12.3459 -12.8851 -15.4685 -9.0535 -9.856001 -6.764 -6.875 -5.688 -8.3575 -8.896501 -11.8722 -15.0475 -15.8545 -13.9115 -11.3895 -11.2547 -9.589001 -11.2773 -11.9067 -18.4303 -14.6858 -15.4443 -16.6356 -14.2951 -14.1874 -16.9554 -16.0194 -14.4629 -13.8471 -17.5 -15.3591 -18.311 -18.5464 -16.2229 
-4.3685 -5.1585 -2.186 -6.2305 -2.5045 -3.644 -4.9515 0 -1.4985 -3.9545 -2.186 -6.4425 -2.5045 -3.93 -4.9515 -2.4265 -2.8645 -1.8085 -4.6745 0 -5.823 -5.4075 -2.4265 -2.742 -3.685 -2.5045 -2.664 -7.8265 -1.756 -2.664 -6.322001 -3.034 -5.91 -2.5045 -4.9515 -3.4915 -3.93 -3.1575 -4.6865 -5.014 -4.033 0 -2.4265 -2.7765 -4.3245 -1.8085 -5.298 -4.614 -1.934 -1.4985 -4.5995 -1.756 -1.8085 -6.22 -5.359 -1.934 -1.4985 -4.8905 -1.756 -5.0795 -3.1495 -3.9515 -3.777 -2.5195 -1.4985 -3.9545 -6.184 -1.934 -1.4985 -6.204 -5.5355 -1.756 -5.914001 0 -4.912 -1.8085 -4.761 -3.969 -1.7565 -6.5865 -6.1825 -4.7715 -3.635 -2.0935 -2.3615 -4.0535 -2.186 -2.3335 -4.2205 -4.3685 -5.1585 -7.7095 -4.0675 -3.222 -1.4985 -3.9545 -4.2555 -4.4885 -2.847 -4.541 -2.4265 -2.7765 -3.908 -2.489 -3.557 -1.934 -4.8385 -4.118 -1.756 -4.901 0 -1.756 -2.4265 -2.186 -3.074 -3.2955 -1.934 -1.4985 -3.824 -3.655 -1.4985 -4.1735 -8.264501 -2.9645 -2.0935 -4.3895 -4.208 -2.186 -4.8115 -4.3855 0 
-5.3085 -6.7375 -7.6755 -9.108 -5.4635 -6.6385 -4.9515 -1.4985 -5.339 -5.974 -7.72 -9.555 -5.709001 -6.705501 -7.573 -4.1435 -3.9785 -5.6055 -4.6745 -5.823 -9.127501 -7.6645 -4.095 -5.9605 -5.0275 -4.074 -8.578001 -9.1995 -4.3655 -7.214 -8.751501 -7.55 -8.479 -6.633 -8.530001 -5.5535 -4.9745 -5.835501 -9.398001 -7.781501 -4.033 -2.4265 -4.346 -5.702001 -5.1525 -6.686 -7.177001 -6.0765 -2.6125 -5.408 -5.6715 -3.584 -7.1295 -7.5745 -6.637 -2.6125 -5.686501 -5.775 -6.0565 -8.1735 -6.066 -7.8555 -5.4085 -3.1695 -5.339 -9.144501 -7.551001 -2.6125 -6.936001 -6.627 -6.4795 -7.211 -5.914001 -4.912 -5.5775 -5.7115 -7.43 -5.4795 -7.501 -9.26 -10.4035 -8.466001 -5.3805 -3.854 -5.467 -5.513 -3.9765 -7.208 -7.671 -5.3085 -9.887501 -9.8035 -5.5825 -3.7835 -5.339 -6.2625 -8.885 -6.6385 -7.4645 -7.374001 -4.346 -5.721001 -5.8465 -4.467 -4.4175 -6.786 -5.5395 -5.4795 -6.6335 -4.901 -1.756 -3.949 -3.292 -4.156 -5.43 -4.2285 -2.6125 -5.5395 -6.618 -5.3975 -4.445 -11.8935 -12.225 -4.7965 -6.256001 -6.409 -6.327001 -8.194 -7.276 -4.3855 
-6.8595 -9.9835 -9.951 -10.486 -7.2965 -6.6385 -6.762501 -5.339 -6.926001 -8.936501 -10.0315 -10.5765 -7.4665 -8.814501 -8.8365 -5.1925 -7.4975 -5.6055 -9.1465 -9.127501 -10.5335 -9.4665 -7.331 -6.217 -6.215 -9.255 -9.479501 -10.495 -8.867001 -9.334001 -10.096 -9.315001 -9.956 -8.9735 -8.952001 -6.1855 -7.2465 -10.335 -10.4865 -7.781501 -6.3555 -4.346 -6.988 -6.584001 -9.706 -7.546 -7.5895 -7.066 -6.122001 -6.5055 -7.319 -8.7425 -8.3225 -8.863501 -7.055501 -6.7115 -6.608 -6.2185 -8.932001 -10.1 -8.732 -8.189501 -6.0085 -6.8655 -9.876 -9.916 -8.2285 -8.0205 -7.271 -7.480501 -10.2085 -7.211 -9.832001 -5.5775 -9.212001 -7.7145 -7.7325 -9.4055 -9.522 -12.4765 -14.0435 -9.956 -7.6485 -5.5135 -7.048 -7.7685 -8.723001 -10.0475 -8.1905 -9.897 -10.664 -10.422 -5.94 -7.343 -6.878 -10.1345 -10.4685 -10.2135 -10.13 -8.680501 -7.076 -6.092501 -7.0075 -5.022 -8.33 -7.094501 -6.695 -9.6485 -6.6335 -6.1115 -3.949 -4.7355 -4.91 -5.8835 -6.292 -4.839 -6.879 -7.079 -8.147 -8.119 -11.015 -12.694 -12.1235 -8.818501 -8.439501 -7.99 -10.7175 -10.2755 -7.276 
-10.048 -12.3476 -10.6645 -10.602 -7.2965 -8.1785 -9.539501 -6.926001 -9.9055 -10.6095 -10.627 -10.606 -9.014501 -9.959001 -9.635 -8.556001 -7.4975 -9.709001 -10.375 -10.5335 -10.6915 -10.6615 -7.599 -7.386 -9.4565 -10.2595 -10.6485 -10.663 -10.7575 -10.348 -10.766 -10.186 -10.547 -9.3555 -8.990001 -8.523001 -10.426 -10.5335 -10.4865 -10.107 -7.816 -6.988 -7.918 -10.3815 -10.2775 -7.758 -8.295501 -7.477 -7.124001 -8.169001 -10.3815 -9.621 -9.1835 -9.2665 -9.1245 -7.562 -7.619 -9.1845 -10.3545 -10.51 -9.147 -8.7065 -9.989 -10.4505 -10.3015 -10.1855 -10.459 -8.441001 -8.219001 -10.2375 -10.2085 -10.4185 -10.2315 -9.212001 -10.3045 -7.8805 -9.797001 -11.044 -13.5713 -16.9258 -15.248 -10.754 -8.5625 -7.1565 -8.745001 -10.7595 -10.749 -10.4165 -10.403 -10.6645 -10.7595 -10.734 -9.154 -8.3595 -10.2375 -10.756 -10.765 -10.7655 -10.7555 -10.7335 -7.329 -7.0885 -7.709001 -8.931001 -8.440001 -7.851 -10.749 -9.6485 -7.7835 -8.7365 -4.7355 -6.5235 -6.511 -6.637001 -6.866 -8.9145 -7.7765 -8.401001 -10.5745 -14.0515 -10.7845 -11.0385 -11.533 -10.3225 -10.1185 -10.718 -10.743 -10.2755 
-12.4851 -13.0611 -10.7005 -10.602 -8.5835 -10.2975 -10.33 -9.9055 -10.613 -10.667 -10.6475 -10.686 -10.1805 -10.359 -10.5885 -8.556001 -10.2645 -10.4055 -10.686 -10.6915 -10.7145 -10.684 -8.5905 -10.542 -10.342 -10.6695 -10.6705 -12.5535 -11.7715 -11.018 -11.637 -10.551 -10.564 -9.365001 -10.5235 -10.5225 -10.5355 -10.5335 -10.549 -10.549 -10.0575 -7.918 -10.5855 -10.5445 -10.506 -8.4175 -8.495501 -8.4685 -8.4925 -10.3955 -10.4005 -10.1875 -9.603001 -10.254 -9.653501 -8.306 -9.821 -10.3615 -10.515 -10.526 -9.524501 -10.494 -10.499 -10.4815 -10.388 -10.4795 -10.482 -9.467001 -10.458 -10.2375 -10.493 -10.4635 -10.497 -10.3045 -10.3145 -9.8335 -11.5271 -15.8713 -18.0362 -17.8693 -15.8165 -10.79 -9.975 -8.854501 -10.7595 -10.765 -10.787 -10.778 -10.7 -10.76 -10.8105 -10.7915 -10.111 -10.513 -10.7655 -10.7835 -10.801 -10.7855 -10.7935 -10.7765 -8.960501 -7.804501 -10.122 -9.0505 -9.3155 -12.0148 -10.749 -11.0137 -9.9505 -9.234 -6.5235 -8.203 -7.308 -7.239 -10.459 -9.415 -9.0045 -10.597 -11.089 -10.792 -10.8045 -10.832 -10.82 -10.7135 -12.8465 -10.7435 -10.743 
-4.237 -3.922 -2.5045 -3.225 -3.875 
-8.5085 -6.4745 -6.7425 -7.5235 
-10.7575 -11.3299 -11.645 
-15.6129 -16.2324 
-20.5154 
