-4.759 
n/a 
n/a 
n/a 
n/a 
-4.759 
n/a 
n/a 
n/a 
n/a 
-4.759 
n/a 
n/a 
n/a 
n/a 
-4.759 
n/a 
n/a 
n/a 
n/a 
-3.8055 -2.9995 -4.482 -3.435 -3.098 0 -3.435 -3.098 0 
-6.373 -7.0295 -8.302501 -6.03 -3.098 -3.435 -6.03 -3.098 
-10.7914 -11.628 -10.181 -6.03 -6.786 -6.03 -6.03 
-15.3899 -13.5065 -10.181 -7.692 -7.791 -6.03 
-17.2684 -13.5065 -12.0496 -8.703501 -7.791 
-3.8055 -2.9995 -3.401 -3.098 -2.264 -1.4985 -3.435 -3.098 
-6.373 -5.9305 -7.019501 -5.445 -2.9195 -5.1695 -6.03 
-10.703 -11.0372 -9.1415 -5.946 -6.3925 -7.007501 
-15.8097 -13.1592 -9.5965 -8.1125 -8.3245 
-17.9317 -13.6142 -11.9188 -10.674 
-10.105 -3.16 -3.423 
-13.3186 -5.6415 
-15.8001 
n/a 
n/a 
-3.435 -3.098 0 -3.1725 -3.423 0 -3.6845 -2.9995 -4.482 -3.098 -3.147 
-6.03 -3.098 -3.1725 -3.986 -3.423 -3.6845 -5.9635 -7.0295 -7.5765 -6.1205 
-6.03 -4.636 -3.986 -3.986 -7.645 -5.9635 -10.7347 -10.5975 -11.2716 
-7.8925 -5.108 -3.986 -8.3955 -10.6468 -10.7347 -14.3027 -14.2926 
-8.441 -5.108 -8.3955 -12.0093 -15.418 -14.3027 -17.9978 
