-4.759 
n/a 
n/a 
n/a 
n/a 
-4.759 
n/a 
n/a 
n/a 
n/a 
-4.759 
n/a 
n/a 
n/a 
n/a 
-4.759 
n/a 
n/a 
n/a 
n/a 
-5.7875 -4.653 -4.7565 -4.773 -6.1685 -4.53 -2.186 -1.4985 -4.1925 -4.53 -1.934 -1.4985 -3.4225 -4.0965 0 
-11.0681 -7.612 -9.646501 -11.7043 -11.4837 -6.601 -3.339 -4.4615 -6.704 -6.089 -2.6125 -3.9655 -4.2 -4.0965 
-14.0271 -12.7264 -16.706 -17.0195 -13.5547 -7.67 -5.8545 -6.951 -7.2125 -6.571 -4.464 -5.179 -4.2 
-19.1415 -19.7859 -22.0212 -19.0905 -14.6237 -8.289001 -7.8055 -7.3375 -7.528 -8.914001 -5.5655 -5.179 
-26.201 -25.1011 -24.0922 -20.1595 -15.2427 -9.158 -8.011001 -7.6385 -9.4045 -10.1145 -5.5655 
-2.3335 -5.7875 -4.8565 -4.142 -1.4985 -4.773 -5.002 -4.417 -3.757 -9.952001 -3.383 -4.1925 -4.567 0 
-9.545501 -10.019 -7.836 -6.31 -5.8795 -10.5378 -10.688 -8.970501 -15.1076 -13.4254 -6.8435 -8.037001 -4.567 
-13.9576 -13.6087 -9.326 -11.0858 -12.3109 -16.2238 -15.2415 -20.3709 -18.581 -16.8859 -11.2456 -8.037001 
-17.5473 -15.0987 -14.0882 -17.5172 -17.9969 -20.7773 -26.6419 -23.8443 -22.0415 -21.288 -11.2456 
-19.0373 -19.8609 -20.5196 -23.2032 -22.5504 -32.1777 -30.1153 -27.3048 -26.4436 -21.288 
-8.7235 -5.002 -2.356 -1.8085 -4.142 -1.7565 -5.7875 -4.8565 -2.186 -1.4985 -4.1925 -4.53 -1.7565 -1.4985 -3.4225 -3.5435 0 
-11.7475 -8.5175 -3.4075 -5.942 -5.3145 -8.4315 -10.019 -7.193 -3.339 -4.4615 -6.704 -5.862 -2.4195 -3.9655 -8.1395 -3.5435 
-12.146 -9.333 -6.629001 -6.2675 -12.9147 -13.0036 -12.9657 -8.2025 -5.8545 -6.951 -7.5845 -6.4245 -4.6245 -9.0565 -8.1395 
-12.7972 -12.8821 -7.397 -14.5505 -17.4868 -15.9503 -13.9752 -9.1555 -7.8055 -7.639 -8.021 -9.981001 -9.7615 -9.0565 
-16.9037 -13.6501 -15.734 -19.1226 -20.4335 -16.9598 -14.9282 -9.8555 -8.691501 -8.078 -11.9113 -15.0954 -9.7615 
-3.1435 -5.7875 -4.653 -4.142 -4.773 -5.002 -2.186 -1.4985 -4.1925 -4.53 -1.7565 -1.4985 -3.4225 -4.0965 0 
-10.733 -11.0681 -8.0725 -9.554001 -10.5378 -7.946501 -3.339 -4.4615 -6.704 -5.862 -2.4195 -3.9655 -4.2 -4.0965 
-16.0136 -14.4876 -13.7711 -15.435 -13.4823 -8.948001 -5.8545 -6.951 -7.5845 -6.4245 -4.6245 -5.179 -4.2 
-19.4331 -20.1862 -19.6521 -18.3795 -14.4838 -9.627001 -7.8055 -7.639 -8.021 -9.981001 -6.037 -5.179 
-25.1317 -26.0672 -22.5966 -19.381 -15.1628 -10.525 -8.691501 -8.078 -11.9113 -11.3709 -6.037 
