-4.759 
n/a 
n/a 
n/a 
n/a 
-4.759 
n/a 
n/a 
n/a 
n/a 
-4.759 
n/a 
n/a 
n/a 
n/a 
-4.759 
n/a 
n/a 
n/a 
n/a 
-3.2615 -2.3615 -2.3335 -3.776 -3.432 -3.213 -3.3165 -1.756 -3.563 -1.4985 -3.669 -1.7565 -2.988 0 
-5.276 -5.6525 -6.0605 -8.101001 -6.553 -6.7715 -5.2055 -5.2 -5.088 -4.85 -5.46 -5.7405 -2.988 
-7.686501 -10.411 -10.6215 -10.2135 -10.411 -8.8925 -8.461 -6.3085 -7.177501 -5.632501 -9.344001 -5.7405 
-12.651 -14.972 -12.734 -14.0715 -12.532 -12.372 -9.4215 -8.292001 -9.887001 -9.679501 -9.344001 
-17.212 -17.0845 -16.592 -16.1925 -16.0115 -13.3325 -11.6048 -11.4037 -14.0558 -9.679501 
-3.16 -3.64 -2.4945 -4.8165 -1.756 -5.4035 -2.356 -1.4985 -5.6395 -4.0415 -4.239 0 -2.988 0 0 -2.9705 -2.882 -5.428 -5.119 -4.7945 
-4.892 -5.508 -6.422 -6.5465 -6.5055 -7.431 -3.1615 -6.829 -6.5635 -5.991 -4.239 -2.988 -2.988 0 -2.9705 -4.7675 -6.612 -8.871501 -8.637001 
-6.5375 -8.179001 -7.897 -9.2995 -8.509001 -8.0565 -8.4835 -7.528 -6.5695 -5.991 -6.259501 -2.988 -2.988 -2.9705 -4.7675 -7.915501 -8.9895 -9.411501 
-8.948501 -9.094001 -9.4075 -9.409 -8.9385 -9.410501 -9.1125 -7.534 -6.5695 -6.8265 -6.259501 -2.988 -7.7965 -4.7675 -7.915501 -9.408501 -9.412001 
-9.371 -9.4115 -9.411 -9.4115 -9.411 -9.4115 -9.115001 -7.534 -6.8595 -6.8265 -6.259501 -7.7965 -9.22 -7.915501 -9.408501 -9.413501 
-3.2615 -2.3615 -3.8925 0 -4.5125 -2.988 -3.669 -1.7695 -4.015 -2.9825 
-5.276 -6.112 -3.8925 -4.5125 -7.9755 -5.9675 -4.958 -6.027 -6.6835 
-10.609 -6.112 -8.5305 -7.9755 -8.904 -7.406 -9.967001 -9.38 
-10.609 -11.8522 -12.5003 -8.904 -9.794001 -13.0112 -13.32 
-16.3492 -15.822 -13.4288 -9.794001 -15.7192 -16.3642 
-3.321 -3.16 -3.8925 -2.742 -3.563 -2.664 -2.988 -3.669 -1.7695 -2.3335 -4.015 -3.16 -3.5495 0 
-7.811 -4.8765 -6.3 -5.246 -5.1055 -6.087 -5.9675 -4.958 -4.46 -5.5505 -6.910501 -5.0605 -3.5495 
-9.842001 -7.4195 -8.160501 -6.7005 -7.889 -6.994 -7.406 -7.735001 -6.7525 -8.404501 -8.52 -5.0605 
-12.5426 -9.6415 -10.0675 -8.554501 -8.503 -7.89 -9.587 -9.942501 -9.250501 -9.9175 -8.52 
-14.7646 -10.736 -11.9215 -9.694 -8.9285 -10.3955 -10.648 -12.5407 -10.6345 -9.9175 
