-4.759 
n/a 
n/a 
n/a 
n/a 
-4.759 
n/a 
n/a 
n/a 
n/a 
-4.759 
n/a 
n/a 
n/a 
n/a 
-4.759 
n/a 
n/a 
n/a 
n/a 
-2.3615 -4.4025 -4.8445 -2.356 -3.9745 -1.756 -4.113 -1.756 -1.4985 -4.235 -3.793 0 
-7.517 -9.679001 -7.22 -6.0065 -5.1055 -5.418 -5.653501 -3.0405 -5.058001 -8.158501 -3.793 
-13.4101 -11.9157 -11.3137 -6.912 -8.212 -7.507501 -6.783 -6.743 -8.6835 -8.158501 
-15.6468 -16.0094 -12.2192 -10.749 -10.2485 -8.502501 -11.0573 -10.5745 -8.6835 
-19.7405 -16.9149 -16.0562 -12.7855 -11.2435 -12.8412 -14.8888 -10.5745 
-2.3615 -4.4025 -2.186 -3.8755 -1.756 -4.657 -2.356 -3.9745 -1.756 -4.6985 0 
-7.517 -6.578 -5.2415 -5.367 -6.066 -6.0505 -6.0065 -5.1055 -6.3315 -4.6985 
-9.453501 -10.504 -6.2675 -9.067 -7.309 -9.4515 -6.912 -9.4375 -6.3315 
-13.4451 -12.093 -9.6195 -10.5645 -10.9162 -10.0795 -11.7344 -9.4375 
-15.0341 -15.445 -12.1166 -14.1717 -11.5442 -15.0459 -11.7344 
-2.3615 -4.422 -4.052 -1.4985 -3.59 -4.2605 -5.2125 0 
-7.356 -10.01 -4.752 -4.268 -7.7615 -10.455 -5.2125 
-13.6684 -10.3595 -7.6715 -8.474501 -14.1614 -10.455 
-14.0179 -13.9754 -12.648 -15.0986 -14.1614 
-17.6338 -18.9519 -19.2721 -15.0986 
-4.426 -1.7565 -1.4985 -3.0835 -4.7285 -4.1555 -5.5085 -3.319 -1.7565 -4.4025 -4.8445 -1.934 -1.8085 -4.4015 -3.941 -2.3335 -4.3325 -2.356 -3.9745 -1.756 -5.473 -3.618 
-5.47 -2.4195 -3.535 -6.042 -8.4455 -8.068001 -8.041 -4.165 -6.0435 -9.679001 -6.3775 -3.2685 -5.791 -7.91 -6.562 -6.572001 -4.9715 -6.0065 -5.1055 -6.793 -6.473 
-5.9535 -4.6785 -6.335501 -9.523001 -11.7915 -11.262 -8.8215 -7.986001 -10.66 -11.0732 -7.996 -6.321001 -8.4055 -10.2035 -10.2645 -7.038 -8.9915 -6.912 -10.139 -7.3945 
-8.021 -7.476501 -10.0095 -12.9535 -15.4355 -11.6955 -12.4255 -12.9467 -12.0542 -12.6917 -11.2597 -10.142 -10.717 -13.906 -10.542 -11.3802 -9.7885 -12.4359 -10.4035 
-9.983001 -11.3061 -13.55 -16.5975 -15.467 -15.4813 -17.6638 -14.3409 -13.6727 -15.9554 -15.0807 -12.4535 -14.4195 -14.1835 -14.8842 -12.1772 -15.746 -12.7004 
