-4.759 
n/a 
n/a 
n/a 
n/a 
-4.759 
n/a 
n/a 
n/a 
n/a 
-4.759 
n/a 
n/a 
n/a 
n/a 
-4.759 
n/a 
n/a 
n/a 
n/a 
-2.0935 -3.668 0 -3.8085 -3.664 -1.934 -3.6085 -4.278 -2.7765 -5.1905 -1.4985 -3.64 -3.098 -3.2615 -2.543 -3.4795 -2.5195 -2.985 -3.913 -2.8965 -4.278 -3.115 -4.6795 -4.278 -2.4945 -3.3425 -4.5095 -3.669 -4.064 -1.7565 -2.95 -3.669 -3.2615 -1.4985 -3.2945 -3.837 -3.091 -4.0215 -2.5045 -1.8085 -3.705 -3.925 0 -2.645 -3.598 -2.742 -2.489 -3.7855 -1.7695 -3.595 -4.7715 -4.0765 0 -4.1145 -2.4945 -4.092 -1.756 -7.337501 0 -2.925 -3.43 -4.4115 -3.898 0 -2.5045 -1.4985 -3.486 -2.95 0 -3.4295 -4.1145 -2.4945 -4.496 -1.934 -3.898 -2.872 -4.236 -4.9395 -1.7695 -5.243 0 
-3.995 -3.668 -3.8085 -5.2435 -5.424 -4.739 -6.738 -7.777501 -7.0525 -6.1235 -5.3715 -6.9205 -5.4695 -6.072001 -5.0825 -5.3145 -4.751 -6.625 -7.3275 -7.795001 -7.9785 -8.634501 -8.599 -6.842 -4.8005 -8.151501 -8.569 -7.5385 -4.3045 -4.3865 -6.9915 -6.963 -4.032 -4.303 -8.075001 -6.457 -6.3835 -5.9835 -3.3625 -4.910501 -7.627501 -3.925 -2.645 -5.5455 -6.2515 -3.301 -4.789001 -4.793 -4.741 -7.921 -8.522 -4.0765 -4.1145 -7.3835 -5.8205 -5.037 -8.3545 -7.337501 -2.925 -5.456 -7.9755 -6.5925 -3.898 -2.5045 -3.1915 -3.5655 -4.563 -2.95 -3.4295 -7.465 -7.3835 -6.637001 -6.3675 -6.2245 -6.3485 -7.1505 -9.103001 -5.522 -6.4655 -5.243 
-3.995 -8.236 -5.2435 -7.593 -9.002001 -8.646501 -9.956501 -12.5187 -7.584 -9.351501 -8.804501 -9.497001 -8.536 -7.275001 -7.184 -7.927 -8.642 -9.883 -13.0132 -12.2141 -13.7998 -12.687 -11.528 -9.698501 -10.115 -12.8552 -12.9543 -7.7945 -7.8485 -8.588 -10.4765 -7.647 -6.842 -8.799001 -10.0505 -8.607 -7.2565 -6.633 -6.062 -7.860001 -7.627501 -6.368 -5.5455 -7.976 -6.698501 -5.34 -5.3715 -6.5845 -8.8345 -11.9021 -8.522 -8.5045 -7.3835 -11.3593 -6.476 -9.5445 -8.3545 -9.956501 -5.456 -9.457001 -10.553 -6.5925 -6.302 -3.1915 -4.538 -4.577 -4.563 -6.755 -7.465 -10.016 -12.1758 -8.376501 -10.4185 -8.5515 -10.8794 -12.3785 -9.331 -9.894501 -6.4655 
-8.5395 -9.611001 -7.593 -10.3475 -10.718 -12.0868 -14.6893 -13.0502 -11.126 -13.0495 -10.6735 -12.6395 -9.637501 -9.6195 -10.7595 -10.2645 -12.2778 -15.9277 -17.4323 -18.0354 -17.8523 -15.616 -14.3845 -15.6946 -14.8187 -17.2405 -13.2103 -11.8469 -12.297 -12.4142 -11.1605 -9.6085 -12.0736 -10.5035 -12.4603 -9.584001 -7.383 -8.621 -9.0015 -7.860001 -10.5523 -9.566501 -7.976 -8.0705 -9.3575 -5.9595 -7.673501 -11.1782 -13.1396 -11.9021 -13.408 -12.3235 -11.3593 -12.0148 -11.3509 -9.5445 -11.1329 -12.6087 -9.457001 -12.2229 -10.553 -8.822001 -6.9665 -4.538 -4.615 -4.577 -8.186 -11.3623 -10.016 -15.8507 -13.9153 -12.5517 -12.7455 -13.1718 -16.1074 -12.6065 -13.7399 -9.894501 
-9.764001 -12.2885 -10.3475 -10.7705 -14.1583 -16.8196 -15.2208 -16.5922 -14.824 -14.9185 -13.816 -13.741 -12.114 -13.4398 -13.097 -14.4611 -18.3225 -20.3468 -23.2536 -22.0879 -20.7813 -18.4725 -20.3806 -20.3983 -19.204 -17.4965 -17.2627 -16.2954 -16.1232 -13.0982 -13.122 -15.0429 -13.7781 -12.9133 -13.4373 -9.732 -9.427501 -11.6587 -9.0015 -11.067 -13.7508 -12.581 -8.0705 -11.7785 -10.0994 -8.3005 -12.13 -15.4833 -13.1396 -16.7881 -17.227 -16.2993 -12.0148 -16.8897 -11.3509 -12.7675 -13.7851 -16.6097 -12.2229 -12.2229 -12.7825 -9.6445 -7.8665 -4.615 -4.615 -8.201501 -13.1633 -13.9133 -15.8507 -17.5902 -18.0905 -14.8787 -17.3658 -18.3998 -16.3354 -17.0154 -13.7399 
-2.0935 -3.668 0 -3.8085 -3.664 -1.934 -3.6085 -4.278 -3.764 -6.264501 -3.7825 -3.4795 -3.2615 -3.913 -1.7695 -5.1905 -1.7695 -3.64 -4.278 -3.115 -4.6795 -1.756 -3.769 -4.078 -4.064 -1.7565 -2.95 -3.669 -2.925 -4.1305 -4.5095 -3.669 0 -2.4265 -5.9855 -1.4985 -3.925 -5.2125 -2.3345 -3.7875 -4.174 -1.7565 -4.1535 -5.4075 -3.436 -4.1685 -5.213 -1.7695 -5.4075 -1.756 -4.174 -3.7405 -3.5535 -1.7695 -3.7765 -4.7715 -4.0765 -4.278 -2.4945 -4.092 -1.756 -4.5205 -2.872 -5.095 -4.846 0 -3.486 -2.95 -3.4295 -4.278 -2.4945 -4.25 -6.4585 0 -2.872 -5.33 -1.7695 -4.1085 -5.7775 
-3.995 -3.668 -3.8085 -5.2435 -5.424 -4.739 -6.738 -8.506001 -7.476 -5.959001 -5.665 -4.9365 -6.684 -5.9195 -6.092501 -6.8755 -6.232 -8.048 -7.9785 -8.634501 -6.566 -4.496 -8.1295 -7.8985 -4.3045 -4.3865 -6.9915 -6.884501 -7.4545 -8.8655 -8.569 -3.669 -2.4265 -7.311 -6.5505 -4.6825 -9.998001 -7.1625 -5.5375 -7.7465 -5.535 -6.075 -9.703501 -7.945001 -6.364 -10.821 -7.0915 -8.276501 -6.6975 -5.474 -7.426001 -6.522 -5.0625 -5.128 -8.932501 -8.522 -9.717001 -6.842 -5.8205 -5.037 -5.4225 -5.824 -7.791 -7.725 -4.846 -3.486 -4.563 -6.755 -8.768 -6.842 -5.913 -9.951 -6.4585 -2.872 -8.2615 -5.6215 -6.956 -11.008 
-3.995 -8.236 -5.2435 -7.593 -9.002001 -8.646501 -11.544 -12.2412 -9.0935 -7.6745 -6.748 -7.801 -8.529 -10.9733 -8.276501 -11.8238 -11.564 -12.0199 -13.7998 -9.504001 -9.2255 -8.936001 -12.0656 -8.0845 -7.8485 -8.588 -10.7502 -11.904 -12.8023 -13.719 -8.569 -6.076 -7.311 -7.851 -10.4505 -10.7025 -12.2012 -9.165501 -10.159 -10.718 -8.663501 -12.1812 -12.3312 -11.469 -13.9089 -12.6995 -14.6873 -9.394001 -10.396 -8.5305 -10.31 -7.674 -8.049 -9.956 -13.019 -14.6205 -12.281 -11.3156 -6.476 -6.529 -7.6175 -12.02 -9.739 -7.725 -9.5315 -4.563 -8.186 -12.6653 -11.7132 -10.1225 -12.436 -9.951 -8.5635 -8.2615 -8.281 -11.4282 -14.5827 
-8.5395 -9.611001 -7.593 -10.3475 -10.718 -13.6743 -15.2792 -14.0432 -10.5865 -9.2535 -9.7939 -9.6925 -13.8782 -13.1573 -13.5802 -17.1558 -15.5359 -17.8412 -14.6693 -12.5249 -13.7111 -12.9895 -12.2516 -11.9155 -12.297 -12.6879 -15.7697 -17.2518 -17.6558 -13.719 -11.4918 -9.477 -7.851 -11.9954 -16.9645 -12.9057 -14.2042 -13.873 -13.1183 -13.8465 -15.3613 -14.8089 -15.8552 -19.0139 -15.7874 -20.2953 -15.8048 -13.2469 -13.4525 -11.4959 -10.553 -10.5535 -13.2734 -14.1183 -19.1175 -17.1845 -16.7546 -11.9711 -8.343 -9.285501 -13.4119 -13.968 -9.739 -12.9717 -10.8073 -8.186 -14.4663 -15.6105 -14.9937 -17.8239 -12.436 -12.056 -14.1914 -8.281 -14.1983 -19.0549 
-9.764001 -12.2885 -10.3475 -10.7705 -15.7458 -17.4095 -17.0812 -16.0593 -12.4121 -12.569 -11.6854 -15.3683 -16.0622 -18.461 -18.9122 -21.1277 -21.3572 -18.7107 -17.6902 -17.0105 -17.7646 -13.1755 -16.0826 -16.364 -16.3969 -17.7074 -21.1175 -22.1053 -17.6558 -16.6418 -14.8928 -9.503 -11.9954 -18.5094 -19.1677 -14.9087 -18.9117 -16.8323 -16.2468 -20.5443 -17.989 -18.3329 -23.4001 -20.8924 -23.3832 -21.4128 -19.6577 -16.3034 -16.4179 -11.7389 -13.4325 -16.1121 -17.4357 -20.2168 -21.6815 -21.6581 -17.4101 -13.8381 -10.044 -15.2065 -15.3599 -13.968 -14.9751 -14.2475 -14.4303 -14.4663 -17.4115 -18.891 -22.6951 -17.8239 -14.541 -17.6839 -14.2109 -14.1983 -21.825 
-3.668 -1.7695 -3.6085 -4.278 -2.229 -3.8085 -1.7695 -2.9645 -1.756 -4.2065 -1.4985 -3.2945 -3.435 -3.7825 -3.4795 -1.7565 -3.64 -1.7695 -3.693 -3.098 -1.7565 -4.5095 -1.7695 -4.0765 -4.1145 -2.229 -3.383 -4.092 -1.7695 -4.4345 -1.7565 -4.0955 -1.7695 -4.6225 0 
-5.4925 -5.7045 -6.738 -6.414001 -6.398 -5.568501 -3.812 -4.5135 -5.345 -4.732 -4.303 -5.3565 -8.299001 -5.665 -4.599 -5.468 -5.5055 -6.295001 -6.806 -4.3615 -6.4145 -6.823 -6.067501 -8.5045 -6.818501 -5.152 -6.448501 -5.4515 -7.415501 -4.719 -7.095 -6.5945 -7.039501 -4.6225 
-10.1945 -8.831 -8.6835 -11.5068 -8.425501 -7.485001 -5.441 -7.829 -5.915 -8.445 -6.6245 -10.8031 -9.913501 -6.6115 -9.961 -7.1965 -10.5035 -9.834001 -9.1735 -10.382 -8.198 -11.702 -11.4781 -10.586 -9.818001 -8.199 -7.825 -12.4025 -7.8995 -10.361 -9.978001 -12.2621 -7.039501 
-13.321 -10.0635 -14.2311 -13.5343 -10.7918 -10.322 -8.9095 -8.389001 -9.793 -11.2891 -12.6783 -12.4176 -11.2484 -12.3031 -11.9123 -12.4117 -14.5857 -12.6195 -15.3116 -12.1655 -13.4234 -17.1126 -13.5596 -14.1565 -13.4026 -8.8125 -15.1776 -12.8865 -13.6433 -13.461 -15.6456 -12.2621 
-14.5535 -16.0589 -16.2586 -15.9006 -13.6288 -13.7905 -9.153501 -12.66 -12.6589 -17.3429 -14.2928 -13.7525 -16.94 -14.2544 -17.1275 -16.4939 -17.3712 -18.7576 -17.0951 -17.3909 -18.834 -19.1941 -17.1301 -17.7411 -14.0161 -16.5183 -15.6616 -18.6303 -16.7433 -19.1286 -15.6456 
-2.0935 -3.668 0 -3.6085 -7.4445 -4.111 -4.144 -3.7825 -3.4795 -1.7695 -5.1905 -2.985 -3.64 -2.0935 -1.4985 -3.664 -8.326 -4.278 -1.756 -2.8965 -5.4085 -4.111 -4.5095 -4.064 -1.7565 -3.7085 -4.413 0 -3.2615 -5.3215 -2.985 -4.1235 -1.756 -10.5565 -1.4985 -3.2945 -2.742 -3.0465 -3.447 -1.7695 -2.645 -8.325001 -4.0765 -5.4085 -2.4945 -4.092 -1.756 -7.3925 -1.4985 -3.4295 -5.4085 -5.095 -2.264 -1.4985 -4.5105 -4.2555 -3.074 -12.16972 -1.7695 -4.224 -1.4985 -3.77 -4.6485 0 
-3.995 -3.668 -3.6085 -9.342501 -12.2297 -8.4625 -7.6165 -5.665 -5.169 -6.092501 -8.106501 -6.719 -5.559 -2.9725 -5.285501 -13.0034 -13.2948 -6.202001 -3.751 -6.476501 -9.669001 -7.58 -8.422501 -4.3045 -6.791501 -7.0795 -4.413 -3.2615 -7.697001 -7.2375 -5.4825 -5.761001 -13.3211 -12.055 -4.303 -5.944 -4.8155 -5.6095 -3.9795 -4.8565 -10.738 -12.354 -9.428 -7.191 -5.8205 -5.037 -6.726 -6.987 -4.8285 -9.110001 -10.5865 -6.6625 -2.9195 -5.573 -7.8745 -7.531501 -16.24412 -13.93922 -5.104 -5.3515 -5.473001 -7.141 -4.6485 
-3.995 -7.694 -9.342501 -14.1677 -16.5812 -12.3344 -9.738501 -7.1285 -10.575 -8.413001 -12.0791 -8.364 -6.584001 -6.608 -15.3105 -17.9722 -15.2188 -7.918001 -8.777 -12.2978 -13.2482 -12.3698 -8.532001 -8.555 -10.341 -7.0795 -7.681 -7.697001 -9.0755 -8.963501 -7.2945 -18.2043 -14.8196 -14.8595 -6.256001 -7.656 -7.1685 -5.6815 -6.304 -15.5359 -16.2513 -18.3559 -10.7345 -11.214 -6.476 -8.724 -9.51 -11.405 -11.0782 -14.5512 -12.154 -7.466001 -7.459501 -8.8405 -11.4995 -21.06642 -18.01362 -17.27372 -5.7865 -9.4575 -8.4615 -7.141 
-7.836501 -13.7544 -14.1677 -18.5192 -20.4531 -14.4564 -11.3192 -12.8571 -12.8955 -12.4402 -13.7241 -9.4265 -9.7355 -16.97 -20.2793 -19.8962 -16.9348 -9.34 -14.2941 -15.877 -18.038 -12.4793 -13.1409 -12.1855 -10.341 -9.834001 -12.5255 -9.0755 -10.533 -10.5035 -20.1344 -19.7028 -17.6241 -16.8125 -8.018001 -9.646001 -7.191 -7.801001 -16.2148 -19.9422 -22.0608 -19.6624 -14.7575 -11.8695 -11.0995 -10.6065 -13.2446 -18.4043 -16.5194 -16.1187 -12.9575 -12.4338 -11.0456 -12.6025 -25.03442 -22.83592 -21.34812 -17.95622 -10.7495 -13.0396 -8.4615 
-14.0067 -18.5796 -18.5192 -22.3911 -22.5751 -16.0371 -17.0478 -15.1776 -16.9227 -14.0852 -14.7866 -12.6378 -20.2429 -21.9388 -22.2033 -21.6122 -18.3568 -14.9607 -17.8733 -20.6668 -18.1475 -17.0882 -16.7714 -12.1855 -13.0403 -15.0731 -13.904 -10.533 -11.9332 -23.3434 -21.6329 -22.5073 -19.5771 -18.5745 -10.0155 -9.7775 -9.193501 -17.7075 -20.3229 -25.7517 -23.3673 -23.6854 -15.413 -15.4375 -11.155 -14.701 -19.6247 -23.8455 -18.0869 -16.9222 -17.9253 -16.0199 -14.8076 -26.13742 -26.80392 -26.17042 -22.03062 -22.91922 -14.3316 -13.0396 
