-4.759 
n/a 
n/a 
n/a 
n/a 
-4.759 
n/a 
n/a 
n/a 
n/a 
-4.759 
n/a 
n/a 
n/a 
n/a 
-4.759 
n/a 
n/a 
n/a 
n/a 
-3.582 -3.545 -3.676 -5.237 -2.186 -3.915 -3.4605 0 
-4.6905 -7.818 -9.653 -6.942 -6.678 -5.1545 -3.4605 
-8.486501 -14.483 -11.4736 -11.8464 -8.7845 -5.1545 
-15.4441 -16.3036 -16.378 -13.9529 -8.7845 
-17.2647 -21.208 -18.4845 -13.9529 
-3.582 -3.545 -2.186 -1.4985 -3.676 -4.584 -3.873 
-4.6905 -5.372 -3.339 -6.125 -8.672501 -9.219 
-6.569 -6.719501 -8.035 -12.1181 -14.0061 
-8.139501 -11.8109 -14.3451 -17.4517 
-13.4051 -18.121 -19.6787 
-3.582 -3.545 -2.186 -3.4975 -3.757 -3.915 -3.4605 
-4.6905 -5.372 -6.572001 -6.415 -8.18 -5.1545 
-6.569 -10.155 -9.899 -11.33 -9.6595 
-11.7656 -13.482 -14.8712 -12.8095 
-15.0926 -18.4542 -16.3507 
-3.582 -3.545 -2.186 -1.4985 -4.494 -3.4605 -2.0935 -3.4975 -3.757 
-4.6905 -5.372 -3.339 -5.902 -8.272 -5.0435 -5.577001 -6.415 
-6.569 -6.719501 -7.3265 -9.177 -9.06 -8.576 -9.0495 
-8.139501 -11.1024 -9.93 -10.127 -13.3019 -12.3887 
-12.6966 -13.7059 -10.3715 -14.6687 -17.1146 
