-4.759 
n/a 
n/a 
n/a 
n/a 
-4.759 
n/a 
n/a 
n/a 
n/a 
-4.759 
n/a 
n/a 
n/a 
n/a 
-4.759 
n/a 
n/a 
n/a 
n/a 
-3.0365 -2.4945 -3.3715 -3.7865 -1.756 -3.5855 -4.536 -1.934 -5.3885 -2.3335 -3.8185 -1.4985 -5.369 -4.5485 -2.3345 -3.35 -1.7565 -5.3885 0 
-3.688 -4.846 -7.524501 -4.7705 -5.1875 -7.709001 -5.973001 -6.4035 -8.5935 -5.909 -4.662 -6.354501 -10.7665 -5.4845 -5.885 -3.7865 -7.235001 -5.3885 
-4.8765 -9.2235 -8.244 -6.401 -8.3815 -8.5515 -8.587 -8.868501 -12.4098 -6.6715 -8.7735 -12.35 -11.7025 -9.342501 -6.0675 -9.641001 -7.235001 
-9.263 -9.6265 -10.2535 -8.4285 -9.382001 -9.8585 -11.4906 -12.77 -13.1723 -10.7575 -15.0254 -13.286 -15.5605 -9.815001 -12.7298 -9.641001 
-9.651001 -11.7364 -12.281 -9.4235 -11.1064 -13.1683 -15.3921 -13.5325 -17.2583 -17.0094 -15.9614 -17.144 -16.033 -16.4773 -12.7298 
-1.4985 -2.645 -3.7865 -1.756 -3.5855 -3.5865 -2.9645 -1.4985 -4.649 -3.35 -5.369 -2.4945 -4.06 -1.934 -5.3885 0 
-4.4385 -6.263 -4.7705 -5.1875 -6.6505 -7.7705 -3.957 -6.8715 -7.187 -8.401501 -7.911 -5.1305 -4.483 -6.4035 -5.3885 
-9.383 -7.366001 -6.401 -7.3195 -11.5631 -8.521 -9.980501 -8.875 -9.8365 -11.1465 -10.9614 -5.5445 -8.426001 -6.4035 
-10.2595 -8.071001 -7.406 -12.7591 -12.3136 -14.7793 -12.1248 -11.5923 -12.7243 -14.1969 -11.3754 -9.6525 -8.426001 
-11.2627 -10.9808 -13.124 -13.5096 -18.5719 -16.9236 -14.8421 -14.4801 -15.7747 -14.6109 -15.4834 -9.6525 
-1.934 -5.3885 -3.0365 -2.4945 -3.3715 -3.7865 -1.756 -3.5855 -4.536 -2.9705 -4.3535 -1.4985 -5.3885 -3.35 -2.229 -5.369 0 
-6.4035 -8.7215 -3.688 -4.846 -7.524501 -4.7705 -5.1875 -7.709001 -7.1835 -6.331 -5.2825 -7.283501 -8.737 -5.167 -7.628 -5.369 
-9.118 -9.09 -4.8765 -9.2235 -8.244 -6.401 -8.3815 -10.459 -11.0184 -6.8615 -11.4165 -10.6465 -11.0102 -10.155 -7.628 
-9.533 -10.323 -9.263 -9.6265 -10.2535 -8.4285 -11.5687 -14.2939 -11.5489 -13.1673 -14.7795 -12.9197 -15.9982 -10.155 
-10.6895 -14.7095 -9.651001 -11.7364 -12.281 -11.6775 -15.4036 -14.8244 -17.8547 -16.5303 -17.0527 -17.9077 -15.9982 
-3.845 -1.7565 -3.594 -1.756 -3.5855 -4.536 -3.8185 -6.994 -1.7565 -5.965 -3.35 -2.186 -4.06 -1.934 -5.3885 0 
-4.13 -4.791 -4.857 -5.1875 -7.709001 -8.792 -10.674 -8.490001 -7.106 -7.746 -5.587 -4.672 -4.483 -6.4035 -5.3885 
-7.805 -5.739 -6.2115 -8.3815 -12.3404 -15.8769 -12.17 -14.1911 -8.831 -10.0925 -7.2325 -5.13 -8.426001 -6.4035 
-8.746501 -7.282001 -10.533 -13.4501 -19.4253 -17.3729 -17.8711 -15.9161 -11.5581 -11.8324 -7.4525 -9.308001 -8.426001 
-10.3615 -11.5663 -15.6016 -20.535 -20.9213 -23.074 -19.5961 -18.6432 -13.298 -12.0524 -11.9059 -9.308001 
