-4.759 
n/a 
n/a 
n/a 
n/a 
-4.759 
n/a 
n/a 
n/a 
n/a 
-4.759 
n/a 
n/a 
n/a 
n/a 
-4.759 
n/a 
n/a 
n/a 
n/a 
-1.934 -3.488 -3.428 0 -3.986 -4.3195 -4.4325 -1.7565 -1.4985 -3.189 -1.756 -3.6835 -3.09 -6.6155 -3.034 -1.4985 -4.4225 -3.6825 -4.938 -4.4285 -1.934 -1.4985 -4.293 0 
-4.9205 -5.4145 -3.428 -3.986 -7.4705 -7.108 -4.959001 -2.4195 -4.6505 -4.275 -4.803 -5.015 -9.166 -10.0315 -3.947 -5.0975 -5.3855 -7.929501 -8.8575 -6.026 -2.6125 -4.8105 -4.293 
-6.576 -5.4145 -8.530001 -7.4705 -9.637001 -7.2825 -5.107 -5.5535 -5.5325 -5.255 -5.2845 -10.5325 -12.661 -11.0167 -7.738 -5.812 -9.166 -10.523 -9.838 -6.4855 -5.573 -4.8105 
-6.576 -9.874001 -9.863501 -9.637001 -9.670501 -7.418 -7.9575 -6.5795 -7.0205 -5.3095 -11.1602 -14.0275 -13.6462 -14.8077 -8.2895 -9.330001 -11.9803 -11.5035 -10.338 -7.2945 -5.573 
-9.8915 -9.962501 -9.922001 -9.670501 -9.682501 -10.1185 -8.781501 -7.757 -7.095 -11.2596 -14.6552 -15.0127 -17.4372 -15.3592 -10.717 -12.2117 -12.9608 -12.0035 -11.147 -7.2945 
-1.934 -3.488 -3.428 -4.4225 -3.6825 -3.7555 -4.4285 -1.934 -4.21 -4.293 -3.545 -1.756 -3.986 -3.917 -2.5045 -3.6835 -4.5735 -4.618 -4.2245 
-4.9205 -5.4145 -8.3225 -5.3855 -7.485001 -9.0865 -6.026 -5.619 -7.0005 -6.147 -4.9285 -5.9335 -8.160001 -5.6565 -6.0385 -6.81 -8.327001 -9.3865 
-6.576 -10.5035 -9.824501 -9.043 -13.013 -10.3685 -9.669001 -8.591001 -10.335 -7.969501 -8.7375 -10.5975 -10.0285 -10.1945 -9.663501 -11.2293 -13.3517 
-11.8226 -12.0055 -13.5586 -14.7268 -14.295 -14.0863 -12.9094 -12.4449 -12.1575 -10.6875 -13.6239 -12.466 -14.8269 -14.0759 -14.1974 -16.254 
-13.3246 -15.7396 -19.2424 -16.0088 -18.0128 -17.3267 -16.7633 -14.2674 -14.8755 -15.5739 -15.4924 -17.2644 -18.7083 -18.6098 -19.2221 
-1.934 -3.488 -3.428 0 -3.986 -4.3195 -4.4325 -1.7565 -1.4985 -7.882 -4.293 -2.229 -3.189 -1.756 -3.6835 -3.09 -3.774 -3.034 -4.704 0 -3.2615 -1.8085 -4.6915 -1.934 -1.4985 -4.761 0 -6.0835 -1.8085 -4.4285 0 
-4.9205 -5.4145 -3.428 -3.986 -7.4705 -7.108 -4.959001 -2.4195 -9.2755 -10.119 -6.1715 -4.6655 -4.275 -4.803 -5.015 -6.0565 -6.962 -7.1945 -4.704 -3.2615 -4.417 -5.2105 -6.056 -2.6125 -5.809 -4.761 -6.0835 -7.650001 -5.2695 -4.4285 
-6.576 -5.4145 -8.530001 -7.4705 -9.637001 -7.2825 -5.107 -10.298 -10.147 -12.5013 -7.6675 -6.0365 -5.255 -5.2845 -7.160001 -8.952001 -9.477 -7.1945 -7.77 -4.417 -6.693501 -6.7155 -6.8785 -6.4835 -5.809 -9.967001 -7.650001 -9.3935 -5.2695 
-6.576 -9.874001 -9.863501 -9.637001 -9.670501 -7.418 -13.9317 -11.1695 -12.5963 -13.9973 -8.7565 -7.4015 -5.3095 -7.4265 -9.818001 -9.868 -9.477 -9.969501 -8.8765 -6.693501 -7.991 -7.3125 -9.729 -6.4835 -9.9835 -9.994 -9.3935 -9.3935 
-9.8915 -9.962501 -9.922001 -9.670501 -9.682501 -16.3973 -14.8032 -13.6188 -14.0923 -15.0863 -8.791 -7.567 -7.512001 -9.875001 -9.981001 -9.868 -9.993501 -9.9965 -9.9755 -7.991 -8.514 -9.791 -9.729 -9.9835 -9.9965 -10.0015 -9.3935 
-1.934 -3.488 -3.428 0 -4.4225 -3.6825 -3.7555 -4.4285 -1.934 -4.21 -4.293 0 -1.756 -3.986 -4.3195 -1.4985 -4.2245 -1.7565 -4.0215 -1.756 -3.6835 -4.5735 -3.2795 0 
-4.9205 -5.4145 -3.428 -4.4225 -5.3855 -7.485001 -9.0865 -6.026 -5.619 -7.0005 -4.293 -1.756 -5.9335 -7.4705 -5.1515 -5.2345 -5.277 -4.8035 -5.213 -4.803 -6.81 -7.6 -3.2795 
-6.576 -5.4145 -8.3225 -5.3855 -9.043 -13.013 -10.3685 -9.669001 -8.591001 -7.0005 -5.737 -5.9335 -9.393001 -7.996 -7.52 -5.753 -9.951 -5.849 -8.003 -7.4545 -10.7175 -7.6 
-6.576 -10.5035 -9.824501 -9.043 -14.7268 -14.295 -14.0863 -12.9094 -8.591001 -8.375 -8.610001 -9.393001 -10.0555 -10.532 -7.6255 -10.825 -10.9965 -8.873501 -10.016 -11.8262 -10.7175 
-11.8226 -12.0055 -13.5586 -14.7268 -16.0088 -18.0128 -17.3267 -12.9094 -10.233 -9.2065 -12.4777 -10.0555 -12.5915 -10.65 -12.8567 -11.8705 -14.021 -11.5009 -14.4719 -11.8262 
