-4.759 
n/a 
n/a 
n/a 
n/a 
-4.759 
n/a 
n/a 
n/a 
n/a 
-4.759 
n/a 
n/a 
n/a 
n/a 
-4.759 
n/a 
n/a 
n/a 
n/a 
-1.4985 -4.4285 -1.7565 -3.1495 -4.4215 -3.152 -1.4985 -5.585 0 
-4.759 -4.6405 -3.914 -6.575 -6.4195 -4.764 -6.5345 -5.585 
-4.884 -6.274 -7.144001 -7.754 -8.356001 -9.264501 -6.5345 
-6.4445 -9.264001 -8.408001 -9.434501 -12.9839 -9.264501 
-9.387 -9.936001 -10.334 -14.036 -12.9839 
-3.17 -3.277 -2.7415 -5.585 
-8.193001 -5.907001 -10.181 
-10.8522 -13.3327 
-18.2779 
n/a 
-2.3615 -7.831501 -2.186 -3.6135 -1.756 -4.4715 -3.8535 -2.264 -5.585 0 
-10.688 -9.788501 -5.8795 -5.5285 -6.2085 -7.151501 -5.469 -8.1055 -5.585 
-12.645 -13.6016 -6.9835 -9.290501 -9.168501 -8.672501 -11.7277 -8.1055 
-16.4581 -14.7056 -10.4945 -12.4817 -10.4945 -14.97 -11.7277 
-17.5621 -18.2166 -13.6857 -13.8077 -16.792 -14.97 
-3.9225 -3.1495 -4.4215 -3.17 -1.7565 -3.277 -2.4945 -5.585 0 
-5.806 -6.575 -7.677 -4.179 -4.25 -5.237 -8.146 -5.585 
-9.321 -9.660501 -8.0825 -5.4445 -5.3725 -10.6605 -8.146 
-12.6587 -10.0395 -8.8815 -6.1755 -10.757 -10.6605 
-13.0377 -10.9019 -9.7185 -11.721 -10.757 
