-4.759 
n/a 
n/a 
n/a 
n/a 
-4.759 
n/a 
n/a 
n/a 
n/a 
-4.759 
n/a 
n/a 
n/a 
n/a 
-4.759 
n/a 
n/a 
n/a 
n/a 
-3.9225 -12.16972 -3.593 0 -8.5955 -2.186 -4.8275 -2.871 -3.7875 -1.4985 -3.098 0 -10.109 0 
-17.32202 -15.76272 -3.593 -8.5955 -10.115 -6.693501 -8.113501 -6.5865 -5.007 -4.3095 -3.098 -10.109 -10.109 
-20.91502 -15.76272 -13.0449 -10.115 -14.9035 -10.4425 -12.1418 -7.555 -7.763 -4.3095 -13.6004 -10.109 
-20.91502 -25.21462 -14.5644 -14.9035 -18.6525 -14.4708 -13.1103 -10.459 -7.763 -15.3721 -13.6004 
-30.36692 -26.73412 -19.3529 -18.6525 -22.6808 -15.4393 -16.0143 -10.459 -18.786 -15.3721 
-1.934 -1.4985 -3.106 -3.594 -3.17 -2.871 -2.186 -8.5955 -2.4265 -2.8645 -2.461 -3.9035 -4.281 -2.5045 -9.811501 0 
-2.6125 -5.6485 -7.246 -6.895 -6.382 -4.751 -11.9919 -11.4442 -4.1435 -5.996 -6.557 -8.6715 -5.893 -13.2334 -9.811501 
-6.727 -9.492001 -9.904001 -10.9218 -8.776501 -14.7087 -14.8406 -13.1612 -7.267 -8.3855 -10.674 -10.223 -16.9827 -13.2334 
-10.5975 -12.4534 -14.5468 -13.3163 -18.81 -17.5574 -16.5576 -16.2847 -9.427 -12.8383 -12.2255 -21.3127 -16.9827 
-13.5589 -17.0962 -16.9413 -23.3498 -21.6587 -19.2744 -19.6811 -18.4447 -13.9642 -14.3898 -23.3152 -21.3127 
-3.9225 -3.277 0 -8.283501 -4.612 -2.5045 0 -10.109 0 -1.934 -1.4985 -3.254 -1.7565 -5.4545 -3.594 -3.849 -12.16972 0 
-5.4525 -3.277 -8.283501 -13.4173 -6.317 -2.5045 -10.109 -10.109 -1.934 -2.6125 -4.4095 -4.0065 -6.386001 -8.4135 -7.573 -16.17932 -12.16972 
-5.4525 -12.5945 -13.4173 -15.1223 -6.317 -13.5309 -10.109 -12.4632 -2.6125 -5.405 -4.8735 -8.9865 -8.8 -12.9775 -20.09592 -16.17932 
-14.7096 -17.7283 -15.1223 -15.1223 -18.205 -13.5309 -12.4632 -13.1417 -5.405 -5.9115 -9.715001 -11.3709 -13.6156 -25.50042 -20.09592 
-19.8434 -19.4333 -15.1223 -27.0103 -18.205 -15.8851 -13.1417 -15.9342 -5.9115 -10.522 -12.152 -16.1865 -26.13852 -25.50042 
-8.8655 -2.186 -4.1205 -2.5045 0 -10.109 0 -1.934 -1.4985 -3.254 -1.7565 -3.106 -10.488 -3.594 0 
-10.622 -5.007 -5.3175 -2.5045 -10.109 -10.109 -1.934 -2.6125 -4.4095 -4.0065 -5.126 -14.124 -14.5952 -3.594 
-13.443 -6.317 -5.3175 -13.5309 -10.109 -12.4632 -2.6125 -5.405 -4.8735 -7.841001 -16.6904 -18.2312 -14.5952 
-14.753 -6.317 -16.9031 -13.5309 -12.4632 -13.1417 -5.405 -5.9115 -8.846001 -19.7676 -20.7976 -18.2312 
-14.753 -18.2568 -16.9031 -15.8851 -13.1417 -15.9342 -5.9115 -9.960501 -20.8732 -23.8748 -20.7976 
