-4.759 
n/a 
n/a 
n/a 
n/a 
-4.759 
n/a 
n/a 
n/a 
n/a 
-4.759 
n/a 
n/a 
n/a 
n/a 
-4.759 
n/a 
n/a 
n/a 
n/a 
-1.4985 -5.211 -1.7565 -2.3615 -3.892 -4.33 -1.4985 -3.502 -2.8645 -3.1125 -3.4635 -1.7695 -1.4985 -4.742 -4.703 -1.7565 -7.466001 0 
-6.397 -6.630001 -3.523 -5.6425 -7.939001 -4.900001 -4.5955 -6.8175 -3.5345 -6.8885 -4.2045 -2.7955 -5.869 -9.286501 -5.335 -9.38 -7.466001 
-7.150001 -9.237 -6.573501 -9.581 -8.396501 -7.171501 -6.991 -7.8225 -7.418 -6.9775 -4.7965 -7.1435 -11.2791 -10.042 -13.6789 -9.38 
-9.6485 -12.3725 -10.3345 -9.9475 -10.1505 -10.209 -8.097 -11.8414 -7.522 -7.537001 -8.4495 -12.7276 -12.0346 -19.0359 -13.6789 
-12.8058 -16.1335 -10.701 -11.7015 -13.188 -11.315 -12.1527 -11.9454 -8.116 -11.3168 -14.1258 -13.4831 -21.0285 -19.0359 
-7.961 -4.339 -1.7695 -3.502 -3.851 -1.7695 -1.4985 -5.934 -5.0515 
-10.932 -4.8945 -5.535 -8.071501 -4.0015 -2.7955 -6.943501 -7.920001 
-11.4875 -7.547501 -9.638 -8.127001 -4.5775 -8.262 -8.245001 
-14.1405 -12.0537 -9.6625 -8.538 -10.6488 -9.724501 
-18.6467 -12.0782 -10.032 -14.7053 -12.1113 
-2.3615 -6.032 -3.502 -3.7575 -4.0415 -2.742 -3.613 -1.7695 -1.4985 -5.3695 -1.7565 -8.145 -7.749001 0 
-9.6817 -10.151 -5.712 -7.746 -6.7905 -5.773 -5.9595 -2.7955 -6.7655 -7.027 -10.6215 -16.5286 -7.749001 
-13.8007 -12.5158 -10.3863 -9.691501 -10.1765 -8.271501 -7.540501 -8.1145 -7.2945 -16.4608 -19.0051 -16.5286 
-16.1655 -17.1901 -12.3318 -14.8797 -12.675 -9.172501 -13.2677 -8.504001 -17.0139 -24.8444 -19.0051 
-20.8398 -19.1356 -17.52 -17.3782 -13.576 -15.1003 -13.6572 -18.47 -25.3975 -24.8444 
-4.426 -1.7565 -1.4985 -3.6115 -4.7285 -4.1555 -3.147 0 
-5.47 -2.4195 -4.081 -6.5495 -8.4455 -5.77 -3.147 
-5.9535 -5.180501 -6.670501 -9.978001 -9.541501 -5.77 
-8.462501 -7.797 -10.054 -11.0524 -9.541501 
-10.2375 -11.2985 -11.1648 -11.0524 
