-4.759 
n/a 
n/a 
n/a 
n/a 
-4.759 
n/a 
n/a 
n/a 
n/a 
-4.759 
n/a 
n/a 
n/a 
n/a 
-4.759 
n/a 
n/a 
n/a 
n/a 
-9.2915 0 -2.186 -1.8085 -4.109 -3.3825 -3.3035 -1.7565 -6.557 -3.5435 
-9.2915 -2.186 -3.164 -7.037001 -6.012 -5.6775 -5.2345 -7.653501 -8.731501 
-11.7245 -3.164 -8.627501 -9.172001 -8.2675 -7.860001 -11.7909 -9.852501 
-12.7025 -8.627501 -11.0887 -11.5597 -9.370501 -14.9144 -13.9899 
-18.166 -11.0887 -13.4764 -12.6627 -17.3653 -17.1134 
-8.177501 0 -1.934 -6.557 -6.524 -3.47 -3.9235 
-8.177501 -1.934 -7.536 -13.7704 -10.1 -7.412001 
-10.907 -7.536 -14.9972 -17.3464 -14.3792 
-16.509 -14.9972 -18.5732 -21.6256 
-23.9702 -18.5732 -22.8524 
-9.2915 -2.186 -2.664 -5.1845 -5.74 -3.0435 -3.3825 -4.509 0 
-11.7245 -3.8555 -9.6245 -5.7465 -9.0185 -5.029 -7.699 -4.509 
-13.394 -10.5975 -10.2643 -9.0185 -11.894 -10.0675 -7.699 
-20.136 -11.2373 -13.5363 -11.896 -16.9325 -10.0675 
-20.7758 -14.5093 -16.4138 -16.9345 -16.9325 
-8.2515 0 -6.557 -4.109 -3.3825 -3.3035 
-8.2515 -6.557 -9.3225 -6.012 -5.6775 
-11.0145 -9.3225 -9.6475 -8.2675 
-13.78 -9.6475 -13.262 
-14.105 -13.262 
