-4.759 
n/a 
n/a 
n/a 
n/a 
-4.759 
n/a 
n/a 
n/a 
n/a 
-4.759 
n/a 
n/a 
n/a 
n/a 
-4.759 
n/a 
n/a 
n/a 
n/a 
-1.934 -3.634 -3.4795 0 -3.0365 -2.7415 -3.135 -4.094 -4.177 -3.458 -3.4225 -3.676 -1.756 -3.8735 0 
-4.9425 -6.447001 -3.4795 -3.0365 -4.2225 -5.6645 -7.092 -7.495001 -4.8925 -7.212 -7.8135 -5.0365 -5.724 -3.8735 
-6.4995 -6.447001 -6.201 -4.2225 -5.864501 -9.5625 -11.0554 -8.438001 -8.977 -11.9262 -9.42 -7.859 -5.724 
-6.4995 -8.293 -7.132 -5.864501 -9.708501 -13.7881 -11.9984 -12.8041 -13.9232 -13.5327 -12.3059 -7.859 
-8.337501 -9.449 -8.837 -9.708501 -14.0469 -14.7311 -16.3645 -17.7503 -15.5297 -16.4186 -12.3059 
-5.42 -1.4985 -4.53 -3.458 -3.4225 -3.676 -1.756 -3.8735 -2.8645 -4.38 -3.383 -3.4915 0 
-6.6125 -5.6575 -5.73 -7.212 -7.8135 -5.0365 -5.724 -6.143 -5.8615 -8.0315 -4.8075 -3.4915 
-10.564 -6.0115 -10.057 -11.9262 -9.42 -7.859 -7.796 -9.196 -8.701 -8.531 -4.8075 
-10.7755 -10.1845 -15.5836 -13.5327 -12.3059 -10.0035 -10.426 -12.2101 -9.132501 -8.531 
-14.9485 -15.6179 -17.1901 -16.4186 -14.4504 -12.8727 -13.4401 -12.6416 -9.132501 
-4.177 -3.458 -3.8735 -1.756 -3.4225 -3.676 -2.186 -4.38 -1.934 -3.634 -3.4795 0 
-4.8925 -6.666 -5.3865 -5.866 -7.8135 -5.5015 -6.329 -6.1385 -4.9425 -6.447001 -3.4795 
-8.297501 -6.711 -8.605 -9.473001 -9.610001 -10.5865 -7.671 -7.5385 -6.4995 -6.447001 
-8.3345 -9.6815 -13.0006 -11.4117 -14.974 -11.9285 -9.2832 -9.6595 -6.4995 
-11.4562 -14.6911 -14.9393 -16.7757 -16.316 -13.5407 -11.4042 -9.6595 
-3.1015 -3.4795 -3.8735 -1.756 -3.676 -2.8645 -4.656 -4.177 
-6.897 -7.8935 -5.3865 -5.918 -5.929501 -7.6725 -8.593 
-11.6548 -9.8545 -7.996 -7.9375 -11.1827 -11.9245 
-13.6158 -12.6126 -10.757 -13.4031 -15.4347 
-16.3739 -15.3736 -16.2226 -17.6551 
