-4.759 
n/a 
n/a 
n/a 
n/a 
-4.759 
n/a 
n/a 
n/a 
n/a 
-4.759 
n/a 
n/a 
n/a 
n/a 
-4.759 
n/a 
n/a 
n/a 
n/a 
-5.0255 0 -4.5185 -6.501 -4.9225 -2.4945 -4.657 -1.934 -6.557 
-4.1 -4.5185 -7.132501 -10.733 -6.9525 -7.751 -5.156 -7.536 
-9.505 -7.132501 -11.8077 -12.763 -12.527 -8.294001 -11.41 
-12.8713 -11.8077 -13.8377 -18.3375 -13.07 -14.8486 
-17.5465 -13.8377 -19.4122 -18.8805 -19.6246 
-1.934 -6.557 -4.02 -5.0255 0 -3.1385 -2.4945 -4.938 0 -3.5905 -4.46 0 0 
-7.536 -10.468 -8.28 -4.1 -3.1385 -4.588 -7.924 -4.938 -3.5905 -6.462 -4.46 0 
-11.6948 -14.9235 -8.4755 -7.8615 -4.588 -9.4095 -7.924 -10.4765 -6.462 -6.462 -4.46 
-16.1503 -14.9235 -12.526 -9.786 -9.4095 -9.4095 -13.7471 -13.348 -6.462 -6.462 
-16.1503 -18.974 -14.4505 -14.8523 -9.4095 -15.4154 -16.6186 -13.348 -6.462 
-5.0255 0 -1.7565 -6.557 -4.02 -2.4945 -4.5185 -5.2135 0 -3.5905 -4.46 0 
-4.1 -1.7565 -7.653501 -10.468 -6.378 -5.788 -7.204 -5.2135 -3.5905 -6.462 -4.46 
-6.4735 -7.653501 -11.8213 -12.826 -10.218 -9.863001 -7.204 -9.596001 -6.462 -6.462 
-13.5515 -11.8213 -14.1793 -16.666 -14.2488 -9.863001 -10.6735 -12.5335 -6.462 
-17.7193 -14.1793 -18.0193 -20.6968 -14.2488 -13.4301 -13.611 -12.5335 
-5.0255 0 -1.7565 -1.4985 -3.5085 -4.02 -1.7565 -6.557 -3.152 -4.938 -2.229 0 -3.5905 -4.46 0 
-4.1 -1.7565 -2.4195 -4.4755 -5.651 -5.1665 -7.653501 -9.392 -8.497001 -8.4095 -2.229 -3.5905 -6.462 -4.46 
-6.4735 -2.4195 -5.126 -6.240001 -6.5415 -10.4425 -10.5325 -15.1564 -12.2019 -8.4095 -6.1755 -6.462 -6.462 
-7.1025 -5.126 -6.5205 -6.8405 -12.1491 -13.3215 -16.2969 -18.8613 -12.2019 -12.5232 -8.7005 -6.462 
-8.311001 -6.5205 -7.2645 -12.5991 -15.0281 -19.0859 -20.0018 -18.8613 -16.3156 -15.0482 -8.7005 
