-4.759 
n/a 
n/a 
n/a 
n/a 
-4.759 
n/a 
n/a 
n/a 
n/a 
-4.759 
n/a 
n/a 
n/a 
n/a 
-4.759 
n/a 
n/a 
n/a 
n/a 
-3.2615 -4.567 -2.645 -3.8195 -4.609 -2.356 -4.235 -12.16972 -3.8195 
-8.7895 -7.585501 -6.7135 -7.4265 -6.698 -6.6355 -17.40532 -15.98922 
-12.0418 -12.1238 -10.3165 -9.522501 -11.5381 -20.00962 -21.22482 
-16.5801 -15.7268 -12.6057 -14.5038 -24.91222 -23.82912 
-20.1831 -18.016 -17.587 -27.87792 -28.73172 
-3.321 -2.9805 -3.685 -4.567 -1.934 -3.091 -4.235 -2.229 -4.295 -3.3715 -4.3225 0 
-5.175 -7.567 -9.356001 -6.339001 -4.2105 -5.1065 -5.0915 -6.262 -7.7375 -7.005 -4.3225 
-10.411 -13.6306 -11.3496 -7.866001 -6.788001 -5.8285 -8.884001 -9.279 -11.615 -7.005 
-16.6668 -15.6242 -12.8766 -10.434 -6.825 -9.257 -12.0216 -13.5259 -11.615 
-18.6604 -17.1512 -15.4446 -10.4635 -10.1845 -12.4578 -16.2685 -13.5259 
-3.321 -2.9805 -3.9535 -1.7695 -3.685 -2.5045 -1.8085 -4.567 -1.934 -3.0415 -3.3715 -4.3225 -4.296 -2.3345 -3.091 -4.235 0 
-5.175 -5.607 -5.098001 -4.9795 -5.0275 -3.3625 -5.671 -6.339001 -5.3345 -4.5985 -7.005 -7.184501 -4.81 -4.9475 -5.1065 -4.235 
-7.248 -6.528501 -7.889 -5.608 -5.5675 -6.7475 -6.9965 -9.335001 -6.0015 -7.897501 -9.313001 -7.5585 -7.76 -6.477 -5.1065 
-7.928 -9.0325 -9.061501 -6.047 -9.710001 -8.0565 -9.8275 -9.38 -8.863501 -10.757 -9.8195 -9.812 -9.2725 -6.477 
-10.347 -10.259 -9.495001 -9.9375 -11.1128 -11.0649 -9.857 -12.6678 -11.844 -11.2635 -12.0622 -11.5497 -9.2725 
-3.2615 -2.3335 -2.9805 -5.227 -2.5045 -4.567 -1.934 -3.3715 -4.3225 -4.522 -2.3345 -3.091 -4.235 0 
-5.0495 -4.1515 -6.5845 -5.9 -7.2445 -6.339001 -4.622 -7.005 -7.070001 -5.076 -4.9475 -5.1065 -4.235 
-6.606 -7.456 -7.2 -10.1345 -8.529 -8.866501 -7.863501 -10.022 -7.093501 -7.807001 -6.477 -5.1065 
-10.0505 -8.514 -10.717 -10.3815 -11.2869 -10.575 -10.5225 -10.0625 -9.8585 -9.078501 -6.477 
-10.58 -12.2498 -10.964 -13.1394 -12.9954 -13.234 -10.539 -12.8275 -11.312 -9.078501 
