-4.759 
n/a 
n/a 
n/a 
n/a 
-4.759 
n/a 
n/a 
n/a 
n/a 
-4.759 
n/a 
n/a 
n/a 
n/a 
-4.759 
n/a 
n/a 
n/a 
n/a 
-3.0835 -3.188 -3.8275 -5.704 0 -1.756 -3.6115 -3.188 -3.8275 
-5.7815 -4.801 -10.115 -5.704 -1.756 -5.059 -5.7875 -4.801 
-5.963 -12.0725 -10.115 -7.080501 -5.059 -7.489 -5.8365 
-13.1299 -12.0725 -10.5595 -10.9309 -7.489 -8.1695 
-13.1299 -12.517 -15.0107 -13.3609 -8.1695 
-3.0835 -3.188 -3.8275 0 -3.4155 -4.602 -1.756 -3.6115 -3.188 -3.8275 
-5.7815 -4.801 -3.8275 -3.4155 -5.7725 -5.6265 -5.059 -5.7875 -4.801 
-5.963 -4.801 -7.433001 -5.7725 -6.79 -8.742001 -7.489 -5.8365 
-5.963 -7.884 -8.4565 -6.79 -9.535001 -9.335001 -8.1695 
-8.5915 -8.7465 -9.8715 -9.535001 -9.569 -9.338501 
-3.0835 -3.188 -3.8275 -2.7415 -5.409 0 -3.321 -3.6115 -3.188 -3.8275 0 
-5.7815 -4.801 -5.9615 -7.4335 -5.409 -3.321 -7.3625 -5.7875 -4.801 -3.8275 
-5.963 -7.4485 -11.2101 -7.4335 -8.543501 -7.3625 -10.3155 -5.8365 -4.801 
-7.9635 -12.7927 -11.2101 -10.0475 -12.7848 -10.3155 -10.4285 -5.8365 
-13.3735 -12.7927 -13.8241 -14.2888 -15.7378 -10.4285 -10.4285 
-3.0835 -3.188 -3.8275 -2.186 -3.689 -5.218 -1.756 -1.4985 -3.6115 -3.188 -3.8275 0 
-5.7815 -4.801 -5.669 -4.993 -7.0755 -6.5725 -3.0405 -4.081 -5.7875 -4.801 -3.8275 
-5.963 -7.642 -8.853001 -8.002501 -8.1695 -7.988501 -5.3595 -5.93 -5.8365 -4.801 
-8.355 -10.5425 -11.8345 -8.9565 -9.651501 -10.0345 -7.576 -5.9535 -5.8365 
-11.3347 -13.524 -12.7885 -10.355 -11.6975 -12.8376 -7.608 -5.9535 
