-4.759 
n/a 
n/a 
n/a 
n/a 
-4.759 
n/a 
n/a 
n/a 
n/a 
-4.759 
n/a 
n/a 
n/a 
n/a 
-4.759 
n/a 
n/a 
n/a 
n/a 
-5.1845 -3.6885 -2.186 -3.9005 -2.0935 -2.5685 -5.1845 
-7.323501 -5.4995 -6.5725 -6.5135 -3.987 -8.3965 
-9.148001 -9.413501 -8.380501 -8.752001 -9.6625 
-13.2976 -11.3521 -9.754001 -14.5155 
-15.2362 -12.7256 -15.5175 
-2.5685 -4.269 -3.0695 -2.674 -2.985 -4.121 -5.0485 -2.5045 -5.1845 0 -2.4945 -9.758 -1.756 -2.3335 -2.186 -3.9005 -4.703 0 
-5.693501 -5.369 -4.343 -5.042 -6.031 -6.243001 -7.225 -8.208 -5.1845 -2.4945 -13.6807 -11.9952 -4.016 -3.7085 -6.5725 -6.5765 -4.703 
-6.6495 -6.2005 -6.791501 -8.5955 -7.172501 -8.157001 -13.4015 -8.208 -8.622001 -13.6807 -15.9179 -14.2552 -5.168 -8.014 -9.769001 -6.5765 
-7.5045 -8.8785 -10.341 -10.4265 -8.703 -14.6211 -13.4015 -11.8557 -20.0568 -15.9179 -18.1779 -15.4072 -9.5465 -11.4095 -9.769001 
-10.6215 -12.649 -12.2838 -11.957 -15.2557 -14.6211 -17.0492 -23.2905 -22.294 -18.1779 -19.3299 -19.7857 -12.9456 -11.4095 
-1.934 -3.9005 -3.6885 -1.7565 -5.1845 -4.3285 -4.269 -3.074 -3.849 -5.1845 -1.934 -4.7715 0 
-5.9395 -6.8675 -5.258 -6.580501 -9.22 -9.4335 -7.553 -5.417 -8.881001 -7.9875 -7.374 -4.7715 
-8.767501 -8.404 -9.39 -10.304 -14.7082 -12.8043 -9.832001 -10.679 -11.9236 -13.7277 -7.374 
-10.5158 -12.6806 -13.2645 -16.0596 -18.079 -15.0833 -15.117 -13.7216 -17.6638 -13.7277 
-14.7924 -16.5551 -19.0201 -19.4304 -20.358 -20.3683 -18.1596 -19.4618 -17.6638 

n/a 
n/a 
n/a 
n/a 
-4.759 
n/a 
n/a 
n/a 
n/a 
