-4.759 
n/a 
n/a 
n/a 
n/a 
-4.759 
n/a 
n/a 
n/a 
n/a 
-4.759 
n/a 
n/a 
n/a 
n/a 
-4.759 
n/a 
n/a 
n/a 
n/a 
-3.7925 -1.934 -3.502 -7.231 -4.807 -1.756 -12.16972 -2.4945 -3.0365 0 
-5.731501 -4.8155 -12.2316 -12.5232 -6.131001 -14.93432 -14.66422 -4.952001 -3.0365 
-8.972501 -14.6325 -17.5238 -13.8472 -20.03092 -17.42882 -17.12172 -4.952001 
-19.2195 -19.9247 -18.8478 -27.74712 -22.52542 -19.88632 -17.12172 
-24.5117 -21.2487 -32.74772 -30.24162 -24.98292 -19.88632 
-3.818 -3.641 -4.706 -4.852 -3.4155 -4.807 -1.756 -5.987 0 
-7.066 -8.082001 -10.0225 -9.111 -6.269 -6.131001 -7.8455 -5.987 
-9.738501 -13.7737 -14.3351 -10.079 -7.6715 -8.735001 -7.8455 
-15.46 -18.0863 -15.3031 -10.133 -8.7815 -8.735001 
-19.7726 -19.0543 -15.3571 -13.05 -8.7815 
-3.321 -3.641 -8.5895 -3.4155 -4.807 0 -12.16972 -2.186 -3.0365 0 
-7.1645 -13.4101 -12.484 -6.269 -4.807 -12.16972 -14.35572 -4.5415 -3.0365 
-17.7256 -17.3046 -15.3375 -6.269 -17.88132 -14.35572 -16.71122 -4.5415 
-21.6201 -20.1581 -15.3375 -20.22232 -20.06732 -16.71122 -16.71122 
-24.4736 -20.1581 -29.29082 -22.40832 -22.42282 -16.71122 

n/a 
n/a 
n/a 
n/a 
