-4.759 
n/a 
n/a 
n/a 
n/a 
-4.759 
n/a 
n/a 
n/a 
n/a 
-4.759 
n/a 
n/a 
n/a 
n/a 
-4.759 
n/a 
n/a 
n/a 
n/a 
-2.9995 -3.4605 -2.7765 -4.3185 -1.8085 -5.557 -1.7695 -2.9995 -2.8965 -3.4605 0 -3.0415 -1.4985 -5.069 -3.458 -3.8755 -3.609 0 -2.5045 -5.0575 -2.3345 -1.4985 -3.2945 0 -2.882 -4.2125 -2.489 -5.831 
-6.109 -6.1475 -5.8745 -5.34 -6.345 -6.4985 -4.358 -4.1905 -6.202001 -3.4605 -3.0415 -4.5735 -5.7005 -5.575 -6.516 -6.815001 -3.609 -2.5045 -6.868 -6.2865 -3.233 -4.303 -3.2945 -2.882 -6.349501 -6.008 -7.5085 
-8.427 -9.147501 -6.907001 -8.597 -6.86 -8.577001 -5.532 -6.6135 -6.202001 -6.293 -4.5735 -8.261001 -5.968 -8.4715 -9.2775 -6.815001 -5.955 -6.868 -6.9895 -6.748001 -5.4985 -4.303 -5.9465 -6.349501 -6.8015 -9.2865 
-10.564 -10.131 -10.057 -8.8025 -8.8895 -9.776 -7.872 -6.6135 -8.942501 -7.936001 -8.261001 -8.606001 -8.8225 -10.494 -9.2775 -8.727 -10.3345 -6.9895 -7.4055 -8.21 -5.4985 -6.268001 -9.4525 -6.8015 -10.1075 
-10.582 -10.5605 -10.3275 -10.495 -10.0375 -10.184 -7.872 -9.1785 -10.322 -10.5745 -8.606001 -10.543 -10.553 -10.494 -10.4855 -10.586 -10.378 -7.4055 -8.620501 -8.21 -8.321501 -9.624001 -10.1195 -10.1075 
-2.5685 -1.4985 -5.7745 -1.7565 -1.4985 -4.278 -3.837 -1.4985 -3.8085 -1.4985 -3.716 -3.64 0 
-3.7015 -7.2015 -7.594501 -2.4195 -6.1565 -8.548 -4.797 -5.574 -6.2185 -4.745 -7.723 -3.64 
-8.646501 -8.113 -8.226501 -7.375 -10.322 -9.540501 -8.702001 -9.208 -9.790501 -9.5115 -7.723 
-9.8925 -8.427 -13.4288 -11.6983 -11.3145 -13.4455 -12.9154 -12.9564 -14.814 -9.5115 
-10.2909 -13.7007 -17.7521 -12.6908 -15.2195 -17.6589 -16.6638 -17.9799 -14.814 
-2.5195 -2.5685 -3.6885 -4.4105 -1.7565 -4.278 -2.4265 -4.174 -1.4985 -4.5855 -3.64 
-4.7035 -6.596 -8.6285 -7.326 -6.515 -7.223001 -5.370501 -5.181 -5.3935 -9.319 
-9.2725 -12.4726 -12.0108 -12.5645 -8.6195 -9.964001 -6.3395 -9.871501 -11.4342 
-15.4721 -15.8549 -17.2493 -14.669 -11.6697 -11.0688 -11.2826 -16.0658 
-18.8544 -21.0934 -19.3538 -17.7192 -12.7745 -16.0119 -17.4769 
-4.278 -2.5685 -4.2915 -1.7695 -2.5685 -4.2915 -4.5465 -1.756 -3.6845 -3.64 0 
-7.461 -5.9445 -6.3895 -4.2305 -5.9445 -10.27 -5.943 -5.0105 -8.799 -3.64 
-10.5325 -8.309 -8.4915 -7.988501 -12.8536 -11.6665 -9.8485 -10.389 -8.799 
-12.897 -9.691501 -10.1945 -15.3336 -14.2501 -15.572 -15.3198 -10.389 
-14.2795 -10.2405 -18.0046 -16.7301 -18.1556 -21.0433 -15.3198 
