-4.759 
n/a 
n/a 
n/a 
n/a 
-4.759 
n/a 
n/a 
n/a 
n/a 
-4.759 
n/a 
n/a 
n/a 
n/a 
-4.759 
n/a 
n/a 
n/a 
n/a 
-3.254 -1.7565 -5.521 -2.3345 -4.142 
-4.0065 -7.223501 -7.8415 -7.0345 
-9.179001 -9.265 -9.923 
-9.926001 -9.928 
-9.932501 
-3.254 -1.7565 -5.521 -2.3345 -4.142 
-4.0065 -7.223501 -7.8415 -7.0345 
-9.179001 -9.265 -9.923 
-9.926001 -9.928 
-9.932501 
-3.254 -1.7565 -5.521 -2.3345 -4.142 
-4.0065 -7.223501 -7.8415 -7.0345 
-9.179001 -9.265 -9.923 
-9.926001 -9.928 
-9.932501 
-3.254 -1.7565 -5.521 -2.3345 -4.142 
-4.0065 -7.223501 -7.8415 -7.0345 
-9.179001 -9.265 -9.923 
-9.926001 -9.928 
-9.932501 
