-4.759 
n/a 
n/a 
n/a 
n/a 
-4.759 
n/a 
n/a 
n/a 
n/a 
-4.759 
n/a 
n/a 
n/a 
n/a 
-4.759 
n/a 
n/a 
n/a 
n/a 
-3.531 -2.855 0 -3.5905 0 -4.0575 -3.188 -3.8355 -3.307 0 -1.934 -4.0395 -1.4985 -12.16972 -3.8275 -2.3335 -4.2605 -3.676 -1.756 -2.3335 -2.5685 -3.959 -1.934 -8.1105 0 
-5.2325 -2.855 -3.5905 -3.5905 -4.0575 -7.798501 -5.385 -5.581 -3.307 -1.934 -7.821 -6.023 -14.76202 -15.99722 -6.042 -6.1315 -8.6975 -5.0365 -4.016 -4.5535 -5.5195 -5.2625 -11.0509 -8.1105 
-5.2325 -5.481 -3.5905 -8.349501 -7.798501 -10.2589 -5.671 -5.581 -5.094501 -7.821 -10.0925 -19.58672 -18.58952 -18.21172 -10.204 -10.6605 -10.195 -7.2465 -6.0365 -7.378 -6.8655 -15.5426 -11.0509 
-6.0325 -5.481 -8.349501 -12.3939 -10.2589 -10.5449 -5.671 -7.074501 -11.6917 -10.0925 -23.80062 -23.41422 -20.80402 -22.37372 -14.733 -12.158 -12.578 -9.594501 -8.937 -8.5705 -17.6974 -15.5426 
-6.0325 -10.064 -12.3939 -14.8543 -10.5449 -10.5449 -7.1745 -14.6143 -13.9632 -23.80062 -27.62812 -25.62872 -24.96602 -26.90272 -16.2305 -14.541 -14.926 -12.5332 -10.27 -19.8232 -17.6974 
-3.531 -2.855 0 -3.5905 -4.0575 -3.034 -4.1735 -4.3465 -4.28 -2.0935 -4.682 -3.8275 0 -3.676 -1.756 -3.1435 -5.0265 -3.959 -2.356 -3.757 0 -4.042 0 
-5.2325 -2.855 -3.5905 -8.349501 -6.147 -7.866501 -8.7155 -7.249001 -5.7325 -6.910501 -5.86 -3.8275 -3.676 -5.0365 -4.1365 -7.6875 -7.6085 -5.6375 -6.0525 -3.757 -4.042 -4.042 
-5.2325 -5.481 -8.349501 -10.7424 -11.5029 -12.7827 -11.7326 -7.638 -11.3757 -7.7795 -5.86 -7.0755 -5.0365 -6.897 -7.812 -9.867001 -9.599 -10.019 -6.0525 -5.8015 -4.042 
-6.0325 -10.064 -10.7424 -16.0983 -16.4191 -15.7998 -12.1216 -13.5272 -12.2447 -7.7795 -9.396501 -8.5305 -6.897 -9.743501 -10.057 -11.9045 -14.0201 -10.019 -7.579 -5.8015 
-10.6595 -12.4569 -16.0983 -21.0145 -19.4362 -16.1888 -18.0108 -14.3962 -12.2447 -12.2662 -10.5545 -9.9055 -9.743501 -12.6115 -12.1191 -16.3256 -14.0201 -11.5455 -7.579 
-1.4985 -4.273 -2.186 -4.067 -4.84 0 -4.1485 -1.4985 -3.2945 -3.3875 -4.526 -2.985 -4.0285 -2.5045 -3.3235 -2.5045 -3.53 -1.7695 -3.0465 -2.985 -3.9945 -1.934 -3.858 -3.493 0 -2.7835 -1.8085 -3.9945 -3.4405 -2.6165 -3.7925 -4.439 0 -1.8085 -2.688 -2.871 -2.742 -2.489 -3.8755 -1.4985 -3.0835 -2.95 -2.925 -4.0355 0 
-5.1805 -5.6225 -5.135 -6.267 -4.84 -4.1485 -5.42 -4.303 -6.1235 -6.0005 -6.9695 -6.972 -7.0745 -3.7105 -3.8485 -7.1925 -5.14 -3.683 -5.3095 -7.105 -5.854 -5.221 -5.956 -3.493 -2.7835 -4.329 -5.4475 -7.3355 -3.7415 -4.5805 -6.817 -4.439 -1.8085 -3.642 -5.292 -5.4465 -3.301 -5.2845 -5.275 -3.535 -4.3945 -5.224 -6.823501 -4.0355 
-6.3145 -8.631001 -6.9215 -6.267 -7.0595 -5.42 -8.335 -6.358 -7.8485 -8.5415 -9.903501 -9.078501 -8.363001 -3.8545 -8.654 -8.8015 -7.446 -5.7 -9.132501 -8.580001 -8.909 -5.969 -5.956 -5.844501 -4.329 -7.349 -8.5165 -7.4255 -6.304 -6.940001 -6.817 -6.38 -3.642 -5.4595 -7.345 -6.017 -5.9385 -6.748 -6.797 -4.569 -6.4735 -8.2335 -6.823501 
-8.951 -9.338 -6.9215 -8.251 -8.3645 -8.335 -10.467 -7.932 -10.66 -11.7219 -12.2342 -10.1725 -8.659 -8.656 -10.5135 -10.3415 -10.4765 -10.1185 -11.4945 -11.876 -9.439 -5.969 -7.63 -7.261001 -7.349 -9.065001 -8.623 -9.304501 -7.181001 -6.940001 -8.570001 -8.044001 -5.4595 -7.616 -7.686501 -7.9645 -7.6055 -8.5605 -7.9075 -6.4925 -9.267 -8.2335 
-9.509501 -9.338 -8.978001 -9.523001 -11.4517 -10.467 -12.041 -10.7595 -13.8404 -14.0526 -13.3282 -10.617 -10.1215 -10.5135 -12.0535 -13.6698 -14.895 -12.6937 -14.7905 -12.406 -9.439 -7.6365 -8.764 -10.7595 -9.065001 -9.080501 -9.964001 -9.6405 -7.181001 -8.635501 -9.697001 -8.8995 -7.616 -7.9325 -8.4355 -9.5115 -8.899 -8.968 -9.665501 -9.2825 -9.267 
-2.264 -3.531 -2.855 -3.5905 -4.0575 0 -3.188 -4.2785 -3.307 0 -3.034 -1.4985 -5.494 -4.3285 -2.0935 -1.4985 -3.8275 0 -3.676 -3.9485 -2.356 -3.1435 -5.0265 -7.61 -1.4985 -3.757 -4.042 0 
-4.8755 -5.2325 -5.481 -8.349501 -4.0575 -3.188 -7.731501 -6.8945 -3.307 -3.034 -3.947 -7.179501 -11.1415 -5.6165 -2.9725 -4.726 -3.8275 -3.676 -7.538 -4.311 -4.6055 -7.6875 -14.0797 -9.3 -4.5435 -5.8015 -4.042 
-6.175 -6.0325 -10.064 -8.349501 -7.798501 -7.731501 -9.2565 -6.8945 -6.603001 -3.947 -9.948001 -13.294 -12.4295 -6.707 -6.304 -4.726 -7.0755 -7.538 -7.683001 -6.2745 -9.1525 -17.0819 -15.7697 -12.4798 -8.033501 -5.8015 
-6.724 -10.6595 -10.064 -12.3939 -12.6054 -9.2565 -9.2565 -10.361 -7.501501 -9.948001 -16.0625 -14.582 -13.52 -10.757 -6.304 -8.455 -11.5679 -7.683001 -9.252001 -10.053 -18.6385 -18.7719 -18.9495 -15.9698 -8.033501 
-11.6292 -10.6595 -14.1084 -17.2008 -14.1304 -9.2565 -13.1532 -11.2595 -13.7129 -16.0625 -17.3505 -15.6725 -17.57 -10.757 -10.019 -13.3786 -11.7129 -9.252001 -13.1415 -19.539 -20.3285 -21.9517 -22.4395 -15.9698 
