-4.759 
n/a 
n/a 
n/a 
n/a 
-4.759 
n/a 
n/a 
n/a 
n/a 
-4.759 
n/a 
n/a 
n/a 
n/a 
-4.759 
n/a 
n/a 
n/a 
n/a 
-3.893 -2.8645 -1.4985 -4.2785 -1.7565 -5.326 0 
-6.341001 -4.3545 -5.478001 -4.6295 -6.854001 -5.326 
-8.412001 -6.27 -5.6745 -10.717 -6.854001 
-10.564 -6.477 -11.8762 -10.717 
-10.692 -13.1545 -11.8762 
-3.893 0 -2.9705 -2.8645 -1.4985 -4.1155 -1.7695 -3.7445 -5.326 
-3.893 -2.9705 -4.6335 -4.3545 -5.1265 -5.746 -4.556 -9.984001 
-7.512 -4.6335 -5.946001 -7.7475 -6.4665 -8.241 -11.4007 
-8.584001 -5.946001 -9.443501 -8.062 -8.977 -15.6219 
-10.2325 -9.443501 -9.632001 -10.074 -16.6471 
-3.893 0 -2.186 -5.524 -1.7695 -4.35 -1.934 -5.326 
-3.893 -2.186 -6.5845 -7.7035 -5.0545 -6.0965 -6.2525 
-6.4325 -6.5845 -8.710501 -10.1225 -7.357501 -11.2336 
-11.5738 -8.710501 -11.2373 -12.5505 -12.9734 
-13.6998 -11.2373 -13.6653 -18.1664 
-5.326 -3.958 -3.3235 -4.5055 -3.893 
-10.214 -6.953 -8.631001 -9.869501 
-13.209 -12.5807 -14.2764 
-18.8367 -18.2261 
-24.4821 
