-4.759 
n/a 
n/a 
n/a 
n/a 
-4.759 
n/a 
n/a 
n/a 
n/a 
-4.759 
n/a 
n/a 
n/a 
n/a 
-4.759 
n/a 
n/a 
n/a 
n/a 
-2.925 -2.4945 -5.9185 -7.180501 0 -3.999 -7.180501 0 -3.4105 0 -7.9445 -7.6175 -3.4105 0 -7.235 -4.6255 -5.1175 -4.293 -3.4105 0 -12.16972 0 -8.212501 0 -8.248 0 -8.51 0 -7.6985 -1.756 -7.762001 -3.9075 
-3.7675 -9.4995 -13.8976 -7.180501 -3.999 -9.372 -7.180501 -3.4105 -3.4105 -7.9445 -16.3002 -10.841 -3.4105 -7.235 -9.565001 -9.237 -7.6855 -6.247 -3.4105 -12.16972 -12.16972 -8.212501 -8.212501 -8.248 -8.248 -8.51 -8.51 -7.6985 -9.084001 -9.728001 -11.015 
-10.9979 -17.7256 -13.8976 -11.8107 -9.372 -9.372 -9.715501 -3.4105 -12.276 -16.3002 -19.5237 -10.841 -10.468 -9.565001 -14.3355 -12.1768 -8.335 -6.247 -16.50122 -12.16972 -20.38222 -8.212501 -16.9661 -8.248 -17.2878 -8.51 -11.08 -9.084001 -17.6006 -13.0588 
-19.224 -17.7256 -18.5278 -17.1837 -9.372 -9.768001 -9.715501 -12.276 -20.6317 -19.5237 -19.5237 -17.8985 -13.1032 -14.3355 -17.2753 -12.8263 -8.335 -19.82852 -16.50122 -20.38222 -20.38222 -16.9661 -16.9661 -17.2878 -17.2878 -11.08 -12.4655 -17.6006 -20.9314 
-19.224 -22.3558 -23.9008 -17.1837 -9.768001 -9.768001 -18.8226 -20.6317 -23.8552 -19.5237 -26.5812 -20.5337 -17.8737 -17.2753 -17.9248 -12.8263 -22.15692 -19.82852 -24.71372 -20.38222 -29.13582 -16.9661 -26.0059 -17.2878 -19.8578 -12.4655 -20.9821 -20.9314 
-3.325 -8.5035 -3.4105 0 -7.9445 -5.1175 -3.4105 0 -9.071501 -4.6255 -5.395 -3.4105 0 -10.5165 0 -8.974 0 -8.248 0 -12.16972 0 -7.6985 -1.756 -7.762001 -3.9075 0 
-12.9845 -12.2904 -3.4105 -7.9445 -13.8002 -7.6485 -3.4105 -9.071501 -10.634 -10.784 -7.5365 -3.4105 -10.5165 -10.5165 -8.974 -8.974 -8.248 -8.248 -12.16972 -12.16972 -7.6985 -9.084001 -9.728001 -11.015 -3.9075 
-16.7714 -12.2904 -12.276 -13.8002 -16.3312 -7.6485 -13.403 -10.634 -16.7925 -12.9255 -7.5365 -14.848 -10.5165 -19.4905 -8.974 -17.5582 -8.248 -20.94752 -12.16972 -19.86822 -9.084001 -17.6006 -13.0588 -11.015 
-16.7714 -21.1559 -18.1317 -16.3312 -16.3312 -17.8834 -14.9655 -16.7925 -18.934 -12.9255 -19.523 -14.848 -19.4905 -19.4905 -17.5582 -17.5582 -20.94752 -20.94752 -19.86822 -21.25372 -17.6006 -20.9314 -13.0588 
-25.6369 -27.0116 -20.6627 -16.3312 -26.5661 -19.4459 -21.124 -18.934 -18.934 -24.912 -19.523 -23.822 -19.4905 -28.0747 -17.5582 -30.25772 -20.94752 -28.64602 -21.25372 -29.77032 -20.9314 -20.9314 
-2.925 -2.4945 -3.999 -6.668 -8.8275 -8.492001 0 -7.400001 -4.6255 -3.3825 0 -10.24 0 -8.212501 0 -8.248 0 -8.51 0 -12.16972 0 -12.16972 
-3.7675 -6.111 -11.8814 -16.1643 -18.0049 -8.492001 -7.400001 -8.846001 -7.944 -3.3825 -10.24 -10.24 -8.212501 -8.212501 -8.248 -8.248 -8.51 -8.51 -12.16972 -12.16972 -12.16972 
-7.7365 -14.8576 -21.3777 -25.3417 -18.0049 -16.2556 -8.846001 -12.5479 -7.944 -14.7691 -10.24 -18.5447 -8.212501 -16.9661 -8.248 -17.2878 -8.51 -21.49192 -12.16972 -24.33944 
-16.6461 -24.3539 -30.5551 -25.3417 -25.7685 -17.7016 -12.5479 -12.5479 -19.9792 -14.7691 -18.5447 -18.5447 -16.9661 -16.9661 -17.2878 -17.2878 -21.49192 -21.49192 -24.33944 
-26.1424 -33.5313 -30.5551 -33.1053 -27.2145 -21.4035 -12.5479 -24.5831 -19.9792 -23.0738 -18.5447 -27.2983 -16.9661 -26.0059 -17.2878 -30.26972 -21.49192 -33.66164 
-2.3335 -2.186 -6.0515 -7.180501 -3.6205 0 -7.9445 -10.9655 -3.6205 0 -7.235 -8.4715 -12.16972 -12.16972 -3.6205 0 -12.16972 0 -10.546 0 -8.248 0 -12.16972 0 -12.16972 0 -12.16972 -3.1495 -2.4945 
-3.7085 -9.055 -14.1474 -11.4322 -3.6205 -7.9445 -19.6482 -14.586 -3.6205 -7.235 -16.3799 -21.12122 -24.33944 -15.79022 -3.6205 -12.16972 -12.16972 -10.546 -10.546 -8.248 -8.248 -12.16972 -12.16972 -12.16972 -12.16972 -12.16972 -15.31922 -4.459 
-10.9185 -17.4581 -18.3991 -11.4322 -12.6764 -19.6482 -23.2687 -14.586 -11.9669 -16.3799 -29.02962 -33.29094 -27.95994 -15.79022 -16.90162 -12.16972 -22.71572 -10.546 -19.024 -8.248 -20.94752 -12.16972 -24.33944 -12.16972 -24.33944 -15.31922 -16.62872 
-19.3216 -21.7098 -18.3991 -20.4881 -24.3801 -23.2687 -23.2687 -22.9324 -21.1118 -29.02962 -41.19934 -36.91144 -27.95994 -29.07134 -16.90162 -22.71572 -22.71572 -19.024 -19.024 -20.94752 -20.94752 -24.33944 -24.33944 -24.33944 -27.48894 -16.62872 
-23.5733 -21.7098 -27.455 -32.1918 -28.0006 -23.2687 -31.6151 -32.0773 -33.76152 -41.19934 -44.81984 -36.91144 -41.24106 -29.07134 -27.44762 -22.71572 -31.19372 -19.024 -31.72352 -20.94752 -33.11724 -24.33944 -36.50916 -27.48894 -28.79844 
