-4.759 
n/a 
n/a 
n/a 
n/a 
-4.759 
n/a 
n/a 
n/a 
n/a 
-4.759 
n/a 
n/a 
n/a 
n/a 
-4.759 
n/a 
n/a 
n/a 
n/a 
-7.785 -7.423 
-8.135 
n/a 
n/a 
n/a 
-6.0385 -4.0455 0 0 -7.785 -7.423 0 
-8.733001 -4.0455 0 -7.785 -8.135 -7.423 
-8.733001 -4.0455 -7.785 -8.135 -8.135 
-8.733001 -9.496 -8.135 -8.135 
-9.764001 -9.611501 -8.135 
-6.0385 -4.0455 0 -7.785 -7.423 0 -7.785 -7.423 0 
-8.733001 -4.0455 -7.785 -8.135 -7.423 -7.785 -8.135 -7.423 
-8.733001 -9.496 -8.135 -8.135 -10.048 -8.135 -8.135 
-9.764001 -9.611501 -8.135 -10.0505 -10.31 -8.135 
-9.851501 -9.611501 -10.0505 -10.315 -10.31 
-7.423 -10.738 
-18.6368 
n/a 
n/a 
n/a 
