-4.759 
n/a 
n/a 
n/a 
n/a 
-4.759 
n/a 
n/a 
n/a 
n/a 
-4.759 
n/a 
n/a 
n/a 
n/a 
-4.759 
n/a 
n/a 
n/a 
n/a 
-2.264 -3.609 -4.536 -6.6585 -4.1355 -9.134501 -3.8515 -12.16972 -3.5015 -3.152 -4.297 -9.2475 -3.3155 -2.7035 -3.1385 -3.152 -4.493 -1.756 -3.6645 -3.152 -4.874 
-5.256001 -6.646501 -12.2673 -11.5526 -14.6162 -10.9575 -16.94002 -15.67122 -6.917 -8.7205 -14.5249 -12.8534 -7.383501 -5.901 -5.219 -5.593 -5.8585 -5.8025 -7.250501 -6.21 
-7.814 -15.5636 -17.1614 -22.0333 -16.4392 -24.04602 -20.44152 -19.08672 -12.6265 -19.2174 -18.1308 -16.9214 -9.255001 -8.46 -6.315001 -6.381001 -8.6335 -8.271 -9.23 
-16.9601 -20.4577 -27.6421 -23.8563 -29.52772 -27.54752 -23.85702 -24.79622 -23.1234 -22.8233 -22.1988 -18.7929 -10.0965 -9.1675 -6.867001 -8.8695 -9.8015 -9.882501 
-21.8542 -30.9384 -29.4651 -36.94482 -33.02922 -30.96302 -29.56652 -35.29312 -26.7293 -26.8913 -24.0703 -19.6344 -10.457 -9.6975 -9.088501 -9.867001 -10.1845 
-1.934 -4.536 -3.488 0 -7.717 -4.201 -2.5195 -4.685 -1.4985 -3.5015 -12.16972 -4.413 -2.3345 -4.889 -4.8115 -1.934 -4.297 0 -1.934 -3.1495 -2.7035 -3.1385 -3.152 -4.424 -1.756 -9.2325 -3.152 -4.874 0 
-6.6695 -6.993501 -3.488 -7.717 -10.348 -5.3735 -6.79 -6.830001 -4.737 -16.66622 -16.58272 -4.6955 -7.528 -6.759501 -6.611 -6.725 -4.297 -1.934 -4.5395 -6.885 -5.901 -5.219 -8.638 -5.9015 -11.9971 -11.08 -6.21 -4.874 
-9.903501 -6.993501 -13.0268 -10.348 -10.6715 -10.3682 -8.388 -10.185 -18.62072 -21.07922 -16.86522 -8.9905 -8.8935 -7.510001 -10.259 -6.725 -6.330501 -4.5395 -8.260501 -9.247001 -8.46 -9.5175 -9.6975 -17.1576 -13.8446 -14.138 -6.21 
-9.903501 -16.4553 -15.6578 -10.6715 -15.6662 -11.9662 -11.9142 -24.25912 -23.03372 -21.36172 -21.16022 -10.2595 -9.440001 -11.6394 -10.259 -8.998501 -9.215 -8.260501 -10.9687 -10.61 -13.0493 -10.336 -20.9536 -19.0051 -16.9026 -14.138 
-19.6637 -19.0863 -15.9813 -15.6662 -17.2642 -15.4924 -25.98832 -28.67212 -23.31622 -25.65672 -22.42922 -10.806 -13.8986 -11.6394 -12.5325 -12.2468 -13.0746 -10.9687 -12.3317 -15.1993 -13.8678 -21.5921 -22.8011 -22.0631 -16.9026 
-3.488 -2.5645 0 -10.6255 -1.756 -9.534 -3.469 -1.4985 -3.627 -4.323 -4.889 -4.9635 -3.1385 -4.424 -2.7035 -5.228 -3.304 
-5.506001 -2.5645 -10.6255 -12.3815 -12.2986 -13.2106 -5.626 -6.205 -7.1195 -10.8025 -7.245001 -8.247 -6.278501 -7.146501 -8.225 -8.3225 
-5.506001 -13.411 -12.3815 -22.9241 -15.9752 -15.3676 -10.341 -8.7285 -14.0186 -13.1585 -10.9887 -12.1458 -9.953501 -13.4766 -11.6865 
-17.5845 -15.167 -22.9241 -26.6007 -18.1322 -20.0826 -12.8645 -16.0942 -16.3746 -16.9022 -14.8875 -15.8208 -16.2836 -16.9381 
-19.3405 -25.7096 -26.6007 -28.7577 -22.8472 -22.6061 -20.2302 -18.4502 -20.1183 -20.801 -18.5625 -22.1509 -19.7451 
-8.399501 0 -4.0155 -3.1385 -4.424 -1.756 -3.304 -3.1385 -3.152 -4.874 -1.934 -1.8085 -4.297 -4.889 -4.9635 -4.0875 -3.5015 -1.934 -12.16972 -2.9705 -2.186 -4.06 -3.627 -6.014 -2.5195 -5.7465 0 
-8.399501 -4.0155 -6.3475 -6.278501 -5.9015 -5.554501 -6.2575 -5.219 -6.21 -5.694 -3.2685 -5.6255 -8.321501 -7.245001 -7.7905 -5.143 -4.704 -15.11012 -15.14022 -3.89 -4.672 -8.415001 -9.1285 -7.553501 -7.593 -5.7465 
-13.1594 -6.3475 -8.149 -7.2765 -9.197001 -8.2445 -7.7985 -6.9205 -6.877 -6.6225 -7.023 -9.379001 -9.786501 -10.082 -7.8325 -5.692 -18.38092 -18.08062 -16.05972 -6.0725 -8.781 -14.4137 -10.897 -13.0014 -7.593 
-15.4914 -8.149 -8.799 -9.709001 -10.5985 -9.4355 -8.828 -7.5585 -7.603 -8.8025 -10.122 -10.2875 -12.7355 -10.1655 -8.6315 -19.55492 -21.35142 -19.00012 -18.24222 -10.341 -14.9661 -16.1822 -16.3449 -13.0014 
-17.2929 -8.799 -11.4199 -11.2369 -11.7895 -10.2395 -9.346001 -8.300501 -9.759501 -12.7977 -11.0277 -13.3715 -12.819 -10.6475 -22.88002 -22.52542 -22.27092 -21.18262 -22.51072 -16.6997 -16.7346 -21.6301 -16.3449 
