-4.759 
n/a 
n/a 
n/a 
n/a 
-4.759 
n/a 
n/a 
n/a 
n/a 
-4.759 
n/a 
n/a 
n/a 
n/a 
-4.759 
n/a 
n/a 
n/a 
n/a 
-4.9025 -4.989 -4.9335 -4.9755 -4.975 -4.91 -4.971 -4.9945 -5.029 -4.894 
-5.6885 -5.690001 -5.691 -5.69 -5.693501 -5.696 -5.6975 -5.6995 -5.705 
-5.692 -5.6915 -5.692 -5.696 -5.6965 -5.6985 -5.701 -5.7055 
-5.6935 -5.692501 -5.696001 -5.699 -5.698501 -5.702 -5.707 
-5.6945 -5.6965 -5.699 -5.701 -5.7015 -5.708 
-4.9025 0 -4.989 0 -4.9335 0 -4.9755 0 -4.975 0 -4.91 0 -4.971 0 -4.9945 0 -5.029 -4.894 
-4.9025 -4.989 -4.989 -4.9335 -4.9335 -4.9755 -4.9755 -4.975 -4.975 -4.91 -4.91 -4.971 -4.971 -4.9945 -4.9945 -5.029 -5.705 
-5.6885 -4.989 -5.690001 -4.9335 -5.691 -4.9755 -5.69 -4.975 -5.693501 -4.91 -5.696 -4.971 -5.6975 -4.9945 -5.6995 -5.705 
-5.6885 -5.690001 -5.690001 -5.691 -5.691 -5.69 -5.69 -5.693501 -5.693501 -5.696 -5.696 -5.6975 -5.6975 -5.6995 -5.7055 
-5.692 -5.690001 -5.6915 -5.691 -5.692 -5.69 -5.696 -5.693501 -5.6965 -5.696 -5.6985 -5.6975 -5.701 -5.7055 
-49.574 
n/a 
n/a 
n/a 
n/a 
-49.574 
n/a 
n/a 
n/a 
n/a 
