-4.759 
n/a 
n/a 
n/a 
n/a 
-4.759 
n/a 
n/a 
n/a 
n/a 
-4.759 
n/a 
n/a 
n/a 
n/a 
-4.759 
n/a 
n/a 
n/a 
n/a 
-2.5045 -2.3615 -2.95 -5.5785 -1.756 -3.45 -3.0695 -5.037 -2.356 -3.595 -1.934 -1.4985 -4.866 -4.101 -1.7695 -4.595 -3.908 0 
-4.3105 -4.4645 -9.029 -6.8855 -4.834 -4.273 -5.974 -7.1115 -4.882 -4.9735 -2.6125 -5.602 -8.693001 -4.6905 -5.9395 -8.591001 -3.908 
-4.89 -10.007 -10.5435 -10.01 -5.491 -7.0105 -8.417001 -9.178 -6.179 -5.5305 -6.3815 -9.001 -10.254 -7.276501 -9.630501 -8.591001 
-10.5837 -11.7131 -13.668 -10.3275 -8.45 -9.3555 -9.910501 -9.3555 -6.731 -9.006001 -10.66 -10.7348 -12.9216 -11.4831 -9.630501 
-12.2898 -14.8376 -13.9855 -13.2865 -10.5325 -10.5755 -10.0645 -9.820001 -9.858001 -13.0443 -12.3938 -13.4024 -17.1282 -11.4831 
-3.5455 -2.3615 -3.8405 0 -3.345 -1.756 -4.0215 -2.356 -5.5785 -4.101 -1.7695 -4.8785 0 
-5.013 -5.371 -3.8405 -3.345 -5.2935 -5.3795 -6.203 -7.897 -8.8155 -4.6905 -5.8125 -4.8785 
-5.726 -5.371 -6.8915 -5.2935 -6.8865 -7.787 -12.4234 -11.5614 -9.179501 -7.099 -5.8125 
-5.726 -8.5435 -9.5255 -6.8865 -9.053 -14.2762 -16.0878 -11.9254 -10.6105 -7.099 
-8.754001 -11.2107 -11.1651 -9.053 -15.9204 -17.9406 -16.4518 -13.3564 -10.6105 
-2.5045 -2.3335 -3.8405 -6.7125 -1.756 -3.135 -7.3425 -3.0695 -4.319 -2.356 -3.595 -3.152 -9.870501 
-4.744 -5.7085 -11.5554 -7.8795 -4.5755 -9.7095 -10.5535 -6.873 -5.885 -4.882 -6.567 -14.3323 
-7.3405 -13.7136 -12.7224 -10.543 -10.5855 -13.0361 -14.357 -8.254001 -7.66 -7.452001 -17.9315 
-15.5258 -14.8806 -15.3859 -16.553 -13.9121 -16.8396 -15.738 -10.238 -10.3918 -18.9831 
-16.6928 -17.5441 -21.3959 -19.8796 -17.7156 -18.2206 -17.722 -12.9698 -21.9229 
-1.934 -2.3615 -3.8405 -3.3715 -4.269 0 -3.3715 -3.5215 -4.101 -1.7695 -4.595 -2.356 -5.5785 
-3.539 -5.371 -7.2275 -6.6505 -4.269 -3.3715 -5.047 -7.798501 -4.6905 -5.9395 -6.9585 -7.897 
-6.410501 -8.0065 -10.078 -6.6505 -7.93 -5.047 -9.3365 -8.4945 -7.276501 -8.1905 -12.9735 
-9.0465 -10.8708 -10.078 -9.854501 -9.899 -9.3365 -9.835001 -11.2173 -9.516001 -14.4229 
-11.9348 -10.8708 -13.4212 -11.6585 -14.2529 -9.835001 -12.6882 -13.4568 -15.8524 
