-4.759 
n/a 
n/a 
n/a 
n/a 
-4.759 
n/a 
n/a 
n/a 
n/a 
-4.759 
n/a 
n/a 
n/a 
n/a 
-4.759 
n/a 
n/a 
n/a 
n/a 
-8.667 0 -3.3195 -3.1935 -1.7565 -4.762 -3.734 -1.7695 -3.091 -4.0905 0 -3.582 0 -6.1465 0 -4.278 
-8.355 -3.3195 -4.7775 -5.243 -6.443 -6.3855 -6.682 -4.458 -6.545 -4.0905 -3.582 -3.582 -6.1465 -6.1465 -4.278 
-13.0527 -4.7775 -7.0525 -9.7185 -8.1355 -9.1295 -9.326 -8.038501 -6.545 -7.755501 -3.582 -7.788001 -6.1465 -10.985 
-14.8007 -7.0525 -10.3815 -10.0035 -11.1485 -12.0405 -13.0207 -8.038501 -9.3835 -7.755501 -7.788001 -7.788001 -10.985 
-17.2305 -10.3815 -10.415 -13.1733 -14.0595 -15.7352 -13.0207 -10.9958 -9.3835 -9.328501 -7.788001 -13.2077 
-4.98 0 -3.687 0 0 -3.582 0 -6.531 -2.0935 -2.857 -4.0905 0 -12.16972 -10.3305 -3.3195 -3.1935 -3.837 -4.278 0 
-4.98 -3.687 -3.687 0 -3.582 -3.582 -6.531 -9.606501 -4.5085 -6.4745 -4.0905 -12.16972 -22.50022 -13.65 -4.7775 -5.923 -9.0115 -4.278 
-8.355 -3.687 -3.687 -3.582 -3.582 -10.4345 -9.606501 -12.1051 -8.094001 -6.4745 -17.01162 -22.50022 -25.81972 -15.108 -8.479 -12.0065 -9.0115 
-8.355 -3.687 -7.512501 -3.582 -10.4345 -13.7758 -12.1051 -15.6906 -8.094001 -19.70482 -27.34212 -25.81972 -27.27772 -18.8095 -14.8131 -12.0065 
-8.355 -7.512501 -7.512501 -10.4345 -13.7758 -16.2744 -15.6906 -15.6906 -21.45472 -30.03532 -30.66162 -27.27772 -30.97922 -25.1436 -14.8131 
-8.667 0 -3.582 0 -3.704 -4.1455 0 -10.2945 -2.5685 -1.934 -3.3195 -4.202 -1.934 -4.278 
-8.355 -3.582 -3.582 -3.704 -8.580501 -4.1455 -10.2945 -13.0502 -4.606 -5.256001 -7.779 -6.111 -6.2645 
-12.4237 -3.582 -6.21 -8.580501 -8.580501 -15.57 -13.0502 -15.0877 -7.958 -10.1545 -10.3965 -11.0133 
-12.4237 -6.21 -11.6661 -8.580501 -20.3056 -18.3257 -15.0877 -18.4397 -13.9507 -12.9198 -15.2988 
-14.7632 -11.6661 -11.6661 -20.3056 -23.0613 -20.3632 -18.4397 -24.4324 -16.716 -17.8221 
-3.582 0 -8.879001 -4.0905 -1.7565 -10.597 -6.696 -3.3195 -1.7695 -3.335 -4.1145 -6.653 0 
-3.582 -8.879001 -13.2925 -5.3585 -12.8057 -18.4268 -9.9355 -5.492001 -4.5005 -7.5425 -8.133 -6.653 
-13.4422 -13.2925 -14.5605 -17.9583 -20.4555 -21.6663 -12.347 -8.536501 -9.100501 -12.5446 -8.133 
-17.8557 -14.5605 -27.1603 -25.2259 -23.695 -24.0778 -15.3915 -13.3701 -15.522 -12.5446 
-19.1237 -27.1603 -34.4279 -28.4654 -26.1065 -27.1223 -20.2251 -19.7916 -15.522 
