-4.759 
n/a 
n/a 
n/a 
n/a 
-4.759 
n/a 
n/a 
n/a 
n/a 
-4.759 
n/a 
n/a 
n/a 
n/a 
-4.759 
n/a 
n/a 
n/a 
n/a 
-1.934 -2.3615 -3.193 -3.1015 -5.1805 -3.676 0 -2.5045 -4.712 -3.193 0 
-3.539 -5.0835 -6.177 -7.7555 -8.9275 -3.676 -2.5045 -7.6005 -5.7735 -3.193 
-6.2505 -8.121 -9.117001 -11.8455 -8.9275 -6.0715 -7.6005 -8.2305 -5.7735 
-10.172 -11.3282 -13.917 -11.8455 -10.4595 -11.7689 -8.2305 -8.2305 
-13.3792 -16.1282 -13.917 -13.3775 -16.3915 -12.3989 -8.2305 
-4.1455 -3.908 -4.7425 -4.712 -3.193 -2.3345 -3.9885 -2.4285 -4.821 -1.8085 -5.116 -2.4285 -5.3375 -1.756 -3.429 -4.2785 -1.7565 -1.4985 -3.193 -3.4045 -1.756 0 -1.934 -3.135 -3.277 
-7.2065 -8.5515 -7.580501 -5.7735 -5.4175 -6.514501 -6.277 -6.8035 -5.857 -6.129001 -7.1665 -7.648 -6.8115 -4.86 -4.9305 -4.6295 -2.4195 -4.136 -5.843 -5.058001 -1.756 -1.934 -4.4015 -5.790501 
-10.2085 -10.575 -7.705501 -8.052501 -8.6785 -8.963501 -8.407001 -7.4335 -9.252001 -7.533501 -8.661 -9.2275 -9.894 -6.0965 -4.944 -5.2245 -4.451 -6.593 -7.135 -5.058001 -4.0205 -4.4015 -7.055501 
-10.6815 -10.616 -9.243 -10.5225 -10.634 -9.375501 -8.735001 -10.564 -10.443 -8.97 -9.9425 -10.554 -10.5265 -6.103 -5.4805 -8.5055 -7.758501 -7.6825 -7.135 -7.403501 -5.5515 -7.055501 
-10.7045 -10.771 -10.688 -10.7185 -10.695 -9.557501 -10.688 -10.692 -10.688 -10.0155 -10.557 -10.5825 -10.563 -6.762 -8.9925 -9.507 -8.845 -7.6825 -9.615 -8.795 -8.181001 
-3.1015 -1.934 -2.3615 -3.193 -4.3665 -5.0375 -2.5045 -2.985 -4.712 -3.193 
-4.8375 -3.539 -5.0835 -7.7155 -8.591001 -7.9845 -5.065001 -6.5065 -5.7735 
-6.728 -6.2505 -9.259501 -12.3318 -12.0354 -9.925501 -8.995501 -8.4315 
-8.738501 -11.7685 -14.0948 -15.7762 -13.9764 -13.856 -9.474501 
-14.2103 -16.6038 -17.5392 -17.7172 -17.9069 -14.335 
-2.5045 -2.3335 -3.218 0 -3.1015 -3.676 -2.7415 -5.0375 -2.985 -4.712 -3.193 -3.6055 -3.158 0 
-4.744 -5.649 -3.218 -3.1015 -7.282 -6.2495 -7.144501 -6.672 -6.5065 -5.7735 -6.150001 -5.061 -3.158 
-6.9385 -5.649 -6.8625 -7.282 -9.429 -9.536 -8.785001 -9.285001 -8.4315 -9.226501 -7.55 -5.061 
-6.9385 -8.9055 -11.5172 -9.429 -12.8077 -11.5757 -11.5654 -9.8955 -12.1489 -9.722 -7.55 
-10.717 -13.6878 -13.6642 -12.8077 -14.8474 -14.3561 -12.1759 -13.6129 -12.6444 -9.722 
