-4.759 
n/a 
n/a 
n/a 
n/a 
-4.759 
n/a 
n/a 
n/a 
n/a 
-4.759 
n/a 
n/a 
n/a 
n/a 
-4.759 
n/a 
n/a 
n/a 
n/a 
-2.872 -2.925 -2.674 -5.9725 -5.68 
-4.5305 -4.1785 -10.4345 -11.0145 
-5.838 -12.2132 -15.4765 
-14.2079 -17.2552 
-19.2499 
-2.872 -3.0365 -1.4985 -5.4345 -5.5125 -2.186 -4.3155 -2.7455 -3.8725 -2.3345 -3.8725 0 
-4.651 -5.28 -6.488 -10.459 -7.1555 -5.5135 -5.8675 -7.486001 -4.892 -4.9005 -3.8725 
-7.566 -9.882501 -12.0535 -12.102 -10.5975 -7.279 -10.4675 -8.414001 -4.905 -4.9005 
-12.4533 -15.448 -13.6965 -15.544 -12.363 -12.343 -10.688 -8.428 -4.905 
-18.0188 -17.091 -17.1385 -17.3095 -17.427 -12.5635 -10.711 -8.428 
-2.872 0 -2.3335 -3.5015 -4.834 -4.257 -4.846 -4.3905 
-2.872 -2.3335 -5.909 -9.295 -9.703501 -9.1045 -8.3025 
-4.5445 -5.909 -12.1179 -14.3087 -14.6876 -12.6592 
-8.153001 -12.1179 -17.1316 -19.2928 -18.2423 
-15.0309 -17.1316 -22.1157 -22.8475 
-4.795 -2.4945 -4.3905 -2.3345 -1.756 -2.3345 0 
-6.3695 -6.0825 -5.529 -5.084 -4.614 -2.3345 
-9.9585 -6.954 -9.240001 -6.6735 -4.614 
-11.0802 -10.7696 -11.0173 -6.6735 
-14.8958 -12.5469 -11.0173 
