-4.759 
n/a 
n/a 
n/a 
n/a 
-4.759 
n/a 
n/a 
n/a 
n/a 
-4.759 
n/a 
n/a 
n/a 
n/a 
-4.759 
n/a 
n/a 
n/a 
n/a 
-3.0835 -4.867 0 -3.691 -2.229 -4.105 -4.2745 -4.002 
-7.389 -4.867 -3.691 -5.0855 -6.436 -6.291 -7.829 
-7.389 -8.844 -5.0855 -9.103001 -8.211 -10.218 
-11.7976 -9.63 -9.103001 -9.901501 -12.7104 
-12.5836 -14.1045 -9.901501 -14.5299 
-3.535 -3.522 0 -4.051 -4.0925 -1.7565 -3.691 
-5.913 -3.522 -4.051 -5.629 -6.0365 -4.930501 
-5.913 -7.896501 -5.629 -6.836 -8.778001 
-8.654 -8.715501 -6.836 -8.975 
-8.7285 -8.7205 -8.975 
-3.0835 -4.867 0 -3.691 -2.229 -4.105 -4.2745 0 
-7.389 -4.867 -3.691 -5.0855 -6.436 -6.291 -4.2745 
-7.389 -8.844 -5.0855 -9.103001 -8.211 -6.291 
-11.7976 -9.63 -9.103001 -9.901501 -8.211 
-12.5836 -14.1045 -9.901501 -9.901501 
-7.7225 -4.867 0 -3.691 -2.229 -8.894501 -6.274 
-13.3133 -4.867 -3.691 -5.0855 -11.7185 -15.5681 
-13.3133 -8.844 -5.0855 -15.6634 -18.3921 
-17.2903 -9.63 -15.6634 -22.337 
-18.0763 -20.6649 -22.337 
