-4.759 
n/a 
n/a 
n/a 
n/a 
-4.759 
n/a 
n/a 
n/a 
n/a 
-4.759 
n/a 
n/a 
n/a 
n/a 
-4.759 
n/a 
n/a 
n/a 
n/a 
-2.4265 -2.186 -3.2955 -2.5045 -1.8085 -4.079 -4.2635 -1.934 -2.871 -2.4285 -2.645 -3.16 -4.2635 0 
-3.292 -4.348001 -4.6545 -3.3625 -5.3625 -9.3675 -5.905 -4.2805 -4.4275 -4.1105 -5.929501 -5.7865 -4.2635 
-5.5295 -5.574 -5.021 -6.51 -11.3228 -11.2412 -8.045 -5.7875 -4.587 -7.3455 -8.271501 -5.7865 
-6.6815 -5.9525 -8.464001 -12.8363 -13.1965 -13.3812 -9.3745 -5.933001 -7.404 -8.4385 -8.271501 
-6.9665 -9.932001 -15.0343 -14.71 -15.3365 -14.7107 -9.5565 -9.232 -8.51 -8.4385 
-1.4985 -4.3435 -1.7565 -3.16 -3.5495 -4.7635 -2.871 -2.4285 -3.2495 -3.16 -3.5495 
-5.6925 -5.325 -5.1555 -5.0605 -8.51 -7.721001 -4.4275 -4.8145 -6.915 -5.0605 
-5.9175 -7.9285 -7.385 -10.119 -10.451 -9.081 -5.255 -8.8855 -8.979 
-8.4315 -10.6095 -12.9301 -12.3494 -10.4735 -10.119 -9.05 -11.0913 
-11.7015 -16.1546 -15.1605 -12.3719 -12.0711 -14.0388 -11.3348 
-2.4265 -5.412 -4.49 -1.934 -2.645 -3.1575 -2.871 -4.2635 -1.756 -3.7445 -8.070001 0 
-7.844501 -11.068 -4.943 -4.899 -3.72 -4.6035 -8.356501 -5.381001 -5.1455 -9.8405 -8.070001 
-13.7213 -11.521 -8.219001 -5.348001 -4.726501 -9.795501 -9.621 -8.683001 -11.7897 -9.8405 
-14.1743 -14.797 -8.5045 -6.0205 -9.824 -10.7205 -10.1445 -15.562 -11.7897 
-17.4503 -15.0825 -8.622001 -11.7896 -10.721 -11.244 -18.7953 -15.562 
-2.4265 -2.8645 -3.1125 -3.2955 -2.5045 -2.664 -3.9605 -3.5495 -2.0935 -2.871 -2.4285 -2.645 -3.16 -4.2635 0 
-4.1435 -3.5345 -5.0995 -4.6545 -4.074 -5.668 -8.6805 -5.438 -4.604 -4.4275 -4.1105 -5.929501 -5.7865 -4.2635 
-4.755 -5.504 -6.2255 -5.7395 -7.02 -9.5245 -11.0036 -8.14 -5.948 -4.587 -7.3455 -8.271501 -5.7865 
-6.5645 -6.5895 -7.1945 -8.9065 -11.2567 -12.4326 -13.7056 -8.941001 -6.133 -7.404 -8.4385 -8.271501 
-7.5825 -7.437 -10.204 -13.3478 -14.1648 -15.1346 -14.5066 -8.967501 -8.433001 -8.51 -8.4385 
