-4.759 
n/a 
n/a 
n/a 
n/a 
-4.759 
n/a 
n/a 
n/a 
n/a 
-4.759 
n/a 
n/a 
n/a 
n/a 
-4.759 
n/a 
n/a 
n/a 
n/a 
-6.4705 -3.35 0 -3.75 -3.35 -2.4945 -1.4985 -3.2495 -4.641 -3.9605 -3.147 
-8.3725 -3.35 -3.75 -7.2885 -6.47 -3.9315 -4.1915 -7.061 -8.6075 -7.816 
-8.3725 -6.492001 -7.2885 -10.6215 -8.049001 -6.1025 -7.5275 -10.76 -12.901 
-11.7581 -10.025 -10.6215 -12.2005 -9.797501 -10.1675 -11.3047 -15.0535 
-15.2911 -13.5162 -12.2005 -13.949 -13.8625 -13.9447 -15.5982 
-6.885 -3.35 -1.756 -3.75 -3.35 -2.4945 -1.4985 -3.2495 -3.6705 -4.641 0 
-10.533 -5.1005 -5.571 -7.2885 -6.47 -3.9315 -4.1915 -6.6945 -9.984001 -4.641 
-12.2835 -8.6555 -9.1005 -10.6215 -8.049001 -6.1025 -7.791 -13.601 -9.984001 
-15.8385 -10.1265 -12.8383 -12.2005 -9.797501 -8.693501 -14.8073 -13.601 
-17.3095 -13.9645 -14.4173 -13.949 -12.3885 -17.053 -14.8073 
-8.461 -3.35 -1.756 -3.77 -3.35 -2.4945 -1.4985 -3.2495 -4.641 -3.958 -3.147 0 
-11.986 -5.1005 -4.8065 -9.1075 -6.47 -3.9315 -4.1915 -7.061 -8.779501 -7.257 -3.147 
-13.7365 -9.726501 -10.4945 -12.4505 -8.049001 -6.1025 -7.5275 -10.382 -12.3219 -7.257 
-18.3625 -15.9411 -14.0485 -14.0295 -9.797501 -10.1675 -10.9267 -14.9528 -12.3219 
-24.5771 -19.4951 -15.6275 -15.778 -13.8625 -13.5667 -15.4975 -14.9528 
-9.018001 -3.35 -1.756 -4.2775 -3.35 -2.4945 -1.4985 -3.2495 -4.641 -1.934 -2.3615 -3.4425 
-12.5334 -5.1005 -5.581 -7.25 -6.47 -3.9315 -4.1915 -7.061 -5.832 -3.539 -4.9065 
-14.2839 -8.649 -9.2545 -10.071 -8.049001 -6.1025 -7.5275 -7.946 -7.8585 -5.189 
-17.8324 -9.93 -10.6745 -11.65 -9.797501 -10.1675 -8.659 -10.085 -9.134001 
-19.1134 -11.5134 -12.2535 -13.3985 -13.8625 -11.299 -10.442 -11.3605 
