-4.759 
n/a 
n/a 
n/a 
n/a 
-4.759 
n/a 
n/a 
n/a 
n/a 
-4.759 
n/a 
n/a 
n/a 
n/a 
-4.759 
n/a 
n/a 
n/a 
n/a 
-6.801001 0 -6.421 -6.133 -4.4935 -2.229 -4.1205 -4.432 -4.328 
-5.68 -6.421 -6.555 -8.242001 -5.843 -5.7835 -6.354 -4.899 
-10.3545 -6.555 -8.5845 -9.059501 -8.113501 -7.745501 -6.377 
-10.379 -8.5845 -9.2825 -9.734501 -8.418501 -7.7565 
-12.5941 -9.2825 -9.813001 -9.748501 -8.4235 
-1.934 -5.046 -1.4985 -4.4935 -3.757 -2.7415 -12.16972 -7.023 0 
-6.318 -6.7675 -6.364 -7.4165 -6.271 -16.27702 -19.19272 -7.023 
-7.254001 -11.9686 -8.6365 -10.228 -20.20212 -23.30002 -19.19272 
-12.6517 -14.2411 -10.426 -24.15912 -27.22512 -23.30002 
-14.9242 -16.0306 -24.35712 -31.18212 -27.22512 
-3.5195 -3.2815 0 -9.1695 -7.4115 0 -4.1205 -4.4935 -4.432 -4.328 
-5.68 -3.2815 -9.1695 -10.8415 -7.4115 -4.1205 -7.687 -7.8325 -4.899 
-5.68 -13.012 -10.8415 -10.8415 -12.0228 -7.687 -8.441 -7.85 
-16.6339 -14.684 -10.8415 -15.4528 -15.5893 -8.441 -8.445001 
-18.3059 -14.684 -15.4528 -19.0193 -16.3433 -8.445001 
-3.5195 -3.2815 0 -6.421 -6.133 0 -8.6485 -4.328 -1.7565 -4.4935 
-5.68 -3.2815 -6.421 -6.555 -6.133 -7.635 -8.102 -5.0935 -5.805 
-5.68 -9.705001 -6.555 -6.555 -10.568 -7.687 -8.834001 -7.5575 
-10.3545 -9.753 -6.555 -10.684 -10.597 -8.615001 -10.262 
-10.379 -9.753 -10.684 -10.7215 -10.79 -9.7165 
