-4.759 
n/a 
n/a 
n/a 
n/a 
-4.759 
n/a 
n/a 
n/a 
n/a 
-4.759 
n/a 
n/a 
n/a 
n/a 
-4.759 
n/a 
n/a 
n/a 
n/a 
-9.110001 -2.8645 -3.985 -4.87 -1.7695 -3.429 -4.0205 -3.6505 -3.7015 -1.4985 -4.77 0 
-9.512501 -5.932 -10.0745 -7.221001 -4.032 -7.2915 -7.172501 -5.5495 -4.3435 -5.797 -4.77 
-12.5025 -12.1365 -10.3665 -9.294001 -7.633501 -7.914001 -8.037001 -6.2685 -8.085 -5.797 
-18.7574 -12.4285 -12.4395 -13.1139 -8.1365 -8.452001 -8.821 -10.341 -8.085 
-19.0494 -14.5015 -16.2594 -13.6169 -8.677501 -9.166 -12.9969 -10.341 
-4.489 -4.621 -4.417 -4.87 -1.7695 -3.429 -3.818 -3.6505 -2.264 -1.4985 -8.5755 -1.7565 -1.4985 -4.675 0 
-6.757 -9.739 -11.046 -7.221001 -4.032 -6.811 -6.046 -5.296 -2.9195 -11.1678 -10.8856 -2.4195 -5.6385 -4.675 
-12.1522 -16.6406 -13.397 -9.294001 -7.1315 -7.2235 -7.3745 -5.993 -12.9714 -13.4779 -11.5486 -6.575001 -5.6385 
-19.0538 -18.9916 -15.47 -12.6119 -7.5655 -8.486501 -7.74 -16.4861 -15.2815 -14.1409 -15.7041 -6.575001 
-21.4048 -21.0646 -18.7879 -13.0459 -8.73 -9.033 -18.6973 -18.7962 -15.9445 -18.2964 -15.7041 
-5.364 -4.621 -5.3155 -9.6035 -1.7695 -3.429 -4.537 -3.6505 -2.264 -3.45 -4.107 -2.0935 -1.4985 -4.675 0 
-9.925501 -10.389 -15.6672 -11.476 -4.032 -8.427501 -8.146 -5.296 -5.2765 -6.1995 -4.239501 -2.9725 -5.6385 -4.675 
-16.8367 -20.7407 -17.5397 -13.7385 -8.818001 -9.1415 -9.838501 -8.0365 -8.116 -6.3425 -4.794001 -6.6065 -5.6385 
-27.1884 -22.6132 -19.8022 -18.5245 -9.568001 -10.191 -12.793 -10.76 -8.3105 -6.8845 -7.708001 -6.6065 
-29.0609 -24.8757 -24.5882 -19.2745 -10.762 -13.3475 -15.5165 -10.9545 -8.8155 -8.79 -7.708001 
-12.16972 -4.621 -3.985 -4.87 -1.7695 -3.429 -3.383 -4.1865 -3.6505 -3.7015 -3.45 -3.0695 -2.4945 -4.107 -2.0935 -2.3615 -4.77 0 
-16.79072 -9.467501 -10.0745 -7.221001 -4.032 -6.7 -7.055 -7.476501 -5.5495 -6.09 -4.273 -4.2085 -5.164001 -4.239501 -3.854 -7.559 -4.77 
-21.63722 -15.8896 -10.3665 -9.294001 -7.64 -10.0345 -9.9175 -7.9565 -7.456 -6.562 -5.167 -6.335001 -5.1975 -6.130001 -8.93 -7.559 
-28.05932 -16.1816 -12.4395 -13.1204 -10.3955 -10.3595 -10.351 -8.8815 -7.8425 -7.627 -7.444 -6.3655 -7.2 -9.835501 -8.93 
-28.35132 -18.2546 -16.2659 -15.8759 -10.6455 -10.719 -11.276 -9.030001 -9.0835 -9.269001 -7.5335 -8.2355 -11.3263 -9.835501 
