-4.759 
n/a 
n/a 
n/a 
n/a 
-4.759 
n/a 
n/a 
n/a 
n/a 
-4.759 
n/a 
n/a 
n/a 
n/a 
-4.759 
n/a 
n/a 
n/a 
n/a 
-1.934 -1.4985 -3.8275 0 -3.676 -3.074 -9.535001 
-2.6125 -4.726 -3.8275 -3.676 -7.004 -11.08 
-5.815001 -4.726 -7.0755 -7.004 -15.3414 
-5.815001 -8.455 -10.4675 -15.3414 
-9.6215 -12.2782 -18.8049 
-2.3615 -3.8275 -3.4465 -1.7695 -3.676 -2.229 -3.8565 -4.5305 -1.7695 -3.737 -1.7565 -3.972 -8.799001 0 
-5.965 -8.117001 -5.5945 -5.5605 -4.593 -5.473001 -10.1225 -7.2095 -5.321 -5.3145 -5.205 -14.238 -8.799001 
-10.0885 -10.7382 -10.468 -6.135 -6.948 -12.3052 -12.8015 -11.2584 -8.093 -9.6145 -15.9308 -14.238 
-12.8107 -15.6117 -11.0425 -8.1905 -14.6156 -14.9842 -16.8504 -14.0304 -12.724 -20.5997 -15.9308 
-17.6842 -16.1862 -13.098 -16.1175 -17.2946 -19.0331 -19.6224 -18.6614 -23.7092 -20.5997 
-1.4985 -4.667 -1.934 -2.3615 -3.8275 -4.168 -4.7575 -4.042 0 -3.959 -3.65 -1.756 -3.6175 -5.082 -4.157 
-5.8725 -5.2775 -3.539 -5.965 -8.5725 -10.31 -8.566 -4.042 -3.959 -6.413 -5.1515 -5.5265 -5.7985 -8.779 
-7.64 -7.035501 -6.813 -10.4185 -15.0353 -14.1185 -8.566 -7.647501 -6.413 -7.6455 -8.438001 -7.8535 -9.6385 
-9.163 -9.2325 -10.7595 -16.8813 -18.8438 -14.1185 -12.6343 -10.6389 -7.6455 -11.2574 -11.5132 -12.2067 
-11.4488 -13.2822 -17.2223 -20.6898 -18.8438 -18.1868 -15.6257 -11.8714 -11.2574 -14.3326 -15.8664 
-4.672 -1.934 -2.3615 -3.8275 -4.157 -4.371 -1.7565 -3.676 -2.229 -4.042 -1.756 -3.543 -5.2125 -1.756 -3.972 -4.157 
-7.422001 -3.539 -5.965 -8.363 -6.625 -5.3485 -4.4345 -4.593 -5.339 -5.2105 -6.036 -5.2555 -7.0145 -5.2755 -7.434 
-9.080501 -6.813 -10.5325 -11.0546 -7.5905 -8.833501 -5.472 -7.1175 -6.4315 -9.494501 -7.026 -7.045001 -9.6915 -8.8885 
-12.5499 -11.5685 -13.2241 -12.0201 -11.1701 -8.844001 -8.113001 -8.0375 -10.3675 -9.628001 -9.382501 -9.707001 -13.4249 
-17.3054 -14.2601 -14.1896 -15.5997 -11.1806 -10.335 -8.776 -12.3279 -10.4 -12.1413 -12.0941 -13.4442 
