-4.759 
n/a 
n/a 
n/a 
n/a 
-4.759 
n/a 
n/a 
n/a 
n/a 
-4.759 
n/a 
n/a 
n/a 
n/a 
-4.759 
n/a 
n/a 
n/a 
n/a 
-3.9345 -1.7695 -5.0445 -3.4945 -4.887 -2.8845 -7.965501 -2.229 -3.36 -4.248 -2.186 -2.5045 -1.4985 -4.807 -3.518 
-3.94 -6.4395 -6.759501 -5.895 -7.9095 -12.7095 -10.5545 -5.837501 -6.7205 -6.092 -4.660501 -3.1915 -5.8995 -8.947001 
-8.321501 -8.38 -6.7805 -9.053 -19.0103 -14.0917 -13.1825 -9.220501 -8.639501 -8.088 -5.318501 -6.8925 -9.8085 
-8.536 -8.441 -9.5695 -20.3448 -19.9793 -17.0837 -17.2273 -10.7185 -10.543 -8.874001 -9.67 -11.6563 
-8.543 -11.4738 -21.0633 -21.3138 -22.9713 -21.1285 -18.7253 -12.622 -11.329 -13.7671 -14.8812 
-3.9345 -1.7695 -5.0445 -3.4945 -4.887 -2.8845 -3.522 0 -4.248 -1.7565 -3.5165 -2.7415 -1.934 -1.4985 -4.807 -3.8685 0 
-3.94 -6.4395 -6.759501 -5.895 -7.9095 -6.6075 -3.522 -4.248 -4.8235 -5.959001 -6.692 -4.5155 -2.6125 -5.8995 -8.307501 -3.8685 
-8.321501 -8.38 -6.7805 -9.053 -12.4951 -6.6075 -8.150001 -4.8235 -7.2705 -9.013 -8.527 -5.133 -7.2805 -8.9655 -8.307501 
-8.536 -8.441 -9.5695 -13.8296 -12.4951 -11.4549 -8.8955 -7.2705 -9.501 -10.9796 -9.1335 -9.198 -9.584001 -8.9655 
-8.543 -11.4738 -14.5481 -13.8296 -17.3425 -12.2004 -11.5239 -9.501 -11.5838 -11.5861 -13.3825 -11.7065 -9.584001 
-3.724 -2.356 -4.887 -1.934 -3.333 -2.8845 0 -7.9415 -3.0465 -1.934 -4.807 -4.126 -4.248 0 
-6.2325 -7.137 -6.632 -3.9835 -7.015 -2.8845 -7.9415 -11.3532 -4.8825 -7.631001 -9.543 -8.6675 -4.248 
-11.5937 -8.953501 -8.1635 -9.444 -7.015 -10.9075 -11.3532 -13.1892 -11.6969 -13.055 -14.3741 -8.6675 
-13.4102 -10.6004 -14.3596 -9.444 -15.5638 -14.3192 -13.1892 -20.0036 -17.1209 -17.8861 -14.3741 
-15.0571 -16.7965 -14.3596 -18.013 -18.9755 -16.1552 -20.0036 -25.4276 -21.952 -17.8861 
-2.5045 -3.543 -1.4985 -2.9195 -4.5355 -4.662 -1.934 -2.8845 -1.4985 -3.046 -1.7695 -2.9195 -1.934 -3.8655 -2.186 -4.807 -3.5015 
-5.323 -5.62 -4.4535 -7.314 -9.2755 -6.4535 -4.7805 -4.696 -4.5205 -4.575 -5.4535 -5.0645 -4.9135 -5.968 -7.954 -7.793 
-5.8685 -8.896501 -8.779 -12.7614 -12.12 -9.288 -5.85 -7.3965 -7.173 -9.529001 -7.920001 -7.8915 -6.758 -12.3142 -11.7608 
-9.1225 -13.575 -14.707 -15.6059 -14.9545 -10.5645 -9.623001 -10.4185 -13.154 -12.3011 -11.2436 -10.1145 -13.1404 -16.121 
-13.9358 -19.503 -17.5515 -18.4404 -16.231 -14.3375 -12.645 -16.3995 -15.9261 -15.6247 -13.4666 -16.6063 -16.9472 
