-4.759 
n/a 
n/a 
n/a 
n/a 
-4.759 
n/a 
n/a 
n/a 
n/a 
-4.759 
n/a 
n/a 
n/a 
n/a 
-4.759 
n/a 
n/a 
n/a 
n/a 
-3.6705 -2.5045 -6.844 -12.16972 -5.192 -2.356 -6.864 -2.229 -1.756 -4.226 -8.672501 -4.1 0 
-6.0715 -9.832001 -19.95232 -17.36172 -6.552501 -9.6225 -8.205501 -4.366 -5.785 -14.5053 -13.1175 -4.1 
-14.1442 -23.69212 -25.14432 -18.72222 -14.2744 -10.9998 -10.3885 -9.176001 -16.5915 -18.1891 -13.1653 
-28.00432 -28.88412 -26.50482 -26.44412 -15.6517 -13.1828 -15.7457 -20.2139 -20.2753 -18.1891 
-33.19632 -30.24462 -34.22672 -27.82142 -17.8347 -18.54 -26.7836 -23.8977 -20.2753 
-2.872 -1.934 -6.6585 0 -12.16972 -3.613 -9.196501 -1.756 -2.9805 -12.16972 -9.8905 
-4.659 -7.809 -6.6585 -12.16972 -15.78272 -14.1297 -10.688 -4.3555 -16.55262 -22.06022 
-10.7025 -7.809 -19.58682 -15.78272 -26.29942 -15.6212 -13.2875 -18.49282 -26.44312 
-10.7025 -21.19452 -23.19982 -26.29942 -27.79092 -18.2207 -27.42482 -28.38332 
-24.08802 -24.80752 -33.71652 -27.79092 -30.39042 -32.35802 -37.31532 
-1.934 -5.2655 -1.7565 -2.4265 0 -12.16972 -2.5195 -4.743 -5.192 -3.7015 -7.4885 -1.756 -4.226 -2.985 -4.1 0 
-5.303 -5.3035 -4.305 -2.4265 -12.16972 -14.68922 -8.522 -9.8505 -6.574501 -11.117 -8.7505 -5.785 -7.245 -7.1315 -4.1 
-5.307 -7.219 -4.305 -15.79262 -14.68922 -20.69172 -14.0553 -11.4066 -14.4666 -12.379 -13.1657 -8.477501 -11.7123 -7.1315 
-7.221 -7.219 -17.68152 -18.31212 -20.69172 -26.22502 -15.6114 -19.2987 -15.7286 -16.7942 -15.8582 -13.0082 -11.7123 
-7.221 -20.99872 -20.20102 -24.31462 -26.22502 -27.78112 -23.5035 -20.5607 -20.1438 -19.4867 -20.3889 -13.0082 
-3.4765 -3.929 0 -1.934 -6.844 -3.59 0 -1.8085 -3.9725 -4.281 -8.5535 -5.192 -2.356 -6.864 -1.756 -4.226 -2.985 -5.362 -2.5195 -3.0365 0 
-4.589 -3.929 -1.934 -9.1885 -10.4265 -3.59 -1.8085 -5.728 -7.779 -13.1511 -14.4531 -6.552501 -9.6225 -8.699 -5.785 -7.245 -7.562 -7.8985 -5.2895 -3.0365 
-4.589 -5.9385 -9.1885 -12.9534 -10.4265 -5.906 -5.728 -8.345 -16.7191 -19.0507 -15.8136 -14.2744 -11.4933 -13.029 -8.477501 -12.1428 -9.8485 -10.27 -5.2895 
-6.897 -13.822 -12.9534 -12.9534 -12.7425 -9.783001 -8.345 -17.3247 -22.6187 -20.4112 -23.5355 -16.1452 -15.8233 -15.7215 -13.4387 -14.4293 -12.273 -10.27 
-15.0005 -17.5869 -12.9534 -15.2694 -16.6195 -12.4246 -17.3247 -23.2243 -23.9792 -28.1331 -25.4063 -20.4752 -18.5158 -20.6827 -15.7252 -16.8538 -12.273 
