-4.759 
n/a 
n/a 
n/a 
n/a 
-4.759 
n/a 
n/a 
n/a 
n/a 
-4.759 
n/a 
n/a 
n/a 
n/a 
-4.759 
n/a 
n/a 
n/a 
n/a 
-3.0365 -2.186 -1.8085 -3.502 -3.402 -6.76 -3.9565 -3.17 -1.7565 -1.4985 -4.3665 -2.4945 -4.3215 -4.2315 -2.5045 -1.8085 -4.0955 0 
-3.66 -3.164 -5.839001 -8.139 -11.4864 -10.451 -7.552501 -4.179 -2.4195 -5.585 -5.6425 -5.609 -6.886001 -5.5285 -3.3625 -5.3805 -4.0955 
-4.218 -7.1025 -9.1035 -16.593 -15.1774 -14.047 -8.124001 -4.497 -6.532001 -7.0245 -9.5935 -8.762501 -7.012001 -6.65 -6.5035 -5.3805 
-8.621 -9.826 -18.1035 -20.284 -18.7734 -14.6185 -8.4925 -8.394501 -8.712501 -11.2859 -12.974 -8.8885 -8.6905 -9.248 -6.5035 
-11.2609 -19.5634 -21.7945 -23.88 -19.3449 -14.987 -12.4778 -9.43 -13.0705 -14.6664 -13.1 -10.567 -10.733 -9.248 
-4.1225 -4.9115 -3.9565 0 -4.4715 -4.3665 -2.4945 -4.3215 -2.5045 -5.003 
-6.279 -5.363 -3.9565 -4.4715 -8.274501 -5.6425 -5.609 -5.2675 -6.56 
-7.378001 -5.363 -8.604501 -8.274501 -9.47 -9.5935 -6.4755 -9.2255 
-7.378001 -10.733 -12.6785 -9.47 -13.8124 -9.917001 -10.248 
-13.0704 -14.807 -13.874 -13.8124 -14.1359 -13.7705 
-8.381001 -2.871 -3.502 -4.0955 -3.7575 0 -3.17 -4.3665 -2.4945 -4.3215 -2.5045 -5.003 0 
-10.668 -6.9865 -8.044001 -6.7865 -3.7575 -3.17 -5.983 -5.6425 -5.609 -5.2675 -6.56 -5.003 
-15.4897 -11.9745 -11.2088 -6.7865 -7.618 -5.983 -7.019 -9.5935 -6.4755 -9.2255 -6.56 
-20.4777 -15.1393 -11.2088 -11.245 -9.93 -7.019 -11.38 -9.917001 -10.248 -9.2255 
-23.6425 -15.1393 -15.6673 -13.557 -10.966 -11.38 -11.7035 -13.7705 -10.248 
-1.8085 -3.502 -7.7735 -3.468 -1.7695 -4.4305 -1.4985 -3.676 -2.229 -1.7695 -4.2635 0 
-5.839001 -12.7741 -11.7319 -5.279 -5.602 -4.947 -6.125 -4.593 -4.907001 -4.6145 -4.2635 
-15.8707 -16.7325 -13.5429 -9.219001 -6.116 -10.3473 -6.428 -8.501 -7.870501 -4.6145 
-19.8291 -18.5435 -17.4829 -9.554501 -11.6099 -10.6503 -9.476501 -11.8351 -7.870501 
-21.6401 -22.4835 -17.8184 -15.4564 -11.9129 -13.6988 -12.941 -11.8351 
