-4.759 
n/a 
n/a 
n/a 
n/a 
-4.759 
n/a 
n/a 
n/a 
n/a 
-4.759 
n/a 
n/a 
n/a 
n/a 
-4.759 
n/a 
n/a 
n/a 
n/a 
-3.2615 -1.4985 -4.4225 -3.6825 -4.098 -4.4285 -1.934 -3.131 0 -2.9805 -4.6205 -3.5035 -1.7695 -5.1495 -5.11 0 -4.113 -3.6615 0 -4.9315 -5.097 0 -4.7145 -2.0935 -4.1205 -4.744 0 
-4.032 -5.0975 -5.3855 -7.238501 -8.290001 -6.026 -4.8435 -3.131 -2.9805 -6.679501 -9.064 -5.3545 -7.212501 -11.08 -5.11 -4.113 -6.06 -3.6615 -4.9315 -11.3579 -5.097 -4.7145 -6.7495 -6.279 -7.5135 -4.744 
-7.813 -5.812 -9.138 -10.533 -10.127 -8.6695 -4.8435 -6.161 -6.679501 -11.3972 -10.4955 -11.6765 -13.4516 -11.08 -10.674 -6.06 -6.06 -9.116 -11.3579 -11.3579 -10.3415 -6.7495 -9.927501 -9.110001 -7.5135 
-8.856001 -9.2335 -12.5651 -12.37 -12.7705 -8.6695 -6.58 -10.281 -11.3972 -12.8287 -16.8175 -17.9156 -13.4516 -16.644 -12.621 -6.06 -12.2883 -16.012 -11.3579 -16.6024 -12.3765 -9.927501 -12.9085 -9.110001 
-12.5135 -12.666 -14.4021 -15.0135 -12.7705 -10.459 -10.609 -14.9987 -12.8287 -19.1507 -23.0566 -17.9156 -19.0156 -18.591 -12.621 -12.2883 -19.1843 -16.012 -16.6024 -18.6374 -15.5545 -12.9085 -12.9085 
-1.934 -3.131 -2.9805 -4.0385 -4.179 -7.2925 -4.747 
-4.8435 -6.161 -5.479 -8.838501 -9.769001 -10.0315 
-6.58 -8.428 -9.844001 -14.6745 -12.785 
-8.804501 -13.2466 -15.8346 -17.6905 
-13.6563 -19.2372 -18.8506 
-1.934 -3.131 0 -3.2615 -4.4225 -3.6825 -3.9955 -4.4285 0 -2.9805 -4.0385 -4.179 -2.0935 -4.219 -6.8545 0 -3.6605 -4.7425 0 -4.3415 -4.747 -1.756 -4.1205 -4.744 0 -3.301 -3.3435 0 
-4.8435 -3.131 -3.2615 -8.072001 -5.3855 -7.0905 -8.657001 -4.4285 -2.9805 -5.479 -8.838501 -6.1085 -6.009 -10.9075 -6.8545 -3.6605 -4.8735 -4.7425 -4.3415 -6.63 -5.795 -5.401 -7.5135 -4.744 -3.301 -5.826 -3.3435 
-4.8435 -6.4325 -8.072001 -9.721001 -8.455 -10.068 -8.657001 -7.558001 -5.479 -9.844001 -10.1555 -9.504001 -13.3781 -10.9075 -11.3758 -4.8735 -4.8735 -8.074 -6.63 -7.693 -9.719501 -8.616 -7.5135 -8.7945 -5.826 -5.826 
-6.9665 -11.6444 -9.721001 -12.9165 -11.5397 -10.068 -12.0417 -9.58 -9.844001 -11.3156 -13.551 -17.5243 -13.3781 -15.4288 -12.5888 -4.8735 -8.079 -10.5225 -7.693 -12.2819 -13.0257 -8.616 -11.8646 -11.4729 -5.826 
-12.369 -13.2934 -12.9165 -16.0012 -11.5397 -13.5557 -14.0637 -14.0724 -11.3156 -14.7111 -21.5713 -17.5243 -17.8994 -16.6418 -12.5888 -8.079 -10.523 -11.5855 -12.2819 -15.5881 -13.0257 -13.0237 -14.543 -11.4729 
-1.934 -3.131 0 -3.2615 -1.4985 -4.4225 -3.6825 -3.7555 -4.4285 0 -2.9805 -3.8755 -4.179 -2.0935 -4.219 -4.559 0 -4.113 -3.6615 0 -4.9315 -4.747 0 -1.756 -4.5735 -1.7565 -4.7855 -4.257 -4.269 0 
-4.8435 -3.131 -3.2615 -4.032 -5.0975 -5.3855 -7.485001 -9.0865 -4.4285 -2.9805 -6.089001 -8.42 -6.1085 -6.009 -6.7305 -4.559 -4.113 -6.06 -3.6615 -4.9315 -9.651501 -4.747 -1.756 -5.466001 -5.7035 -6.4645 -7.013 -9.1505 -4.269 
-4.8435 -6.4325 -4.032 -7.813 -5.812 -9.043 -13.013 -9.0865 -7.558001 -6.089001 -10.4105 -9.943501 -9.504001 -8.328501 -6.7305 -8.4445 -6.06 -6.06 -9.116 -9.651501 -9.651501 -5.795 -5.466001 -6.3285 -9.3015 -8.7255 -13.0639 -9.1505 
-6.9665 -7.3465 -7.813 -8.856001 -9.208 -14.7268 -13.013 -12.3122 -10.9333 -10.4105 -11.934 -13.4564 -12.4747 -8.328501 -11.2058 -11.3405 -6.06 -12.2883 -14.3056 -9.651501 -10.8089 -10.4505 -6.3285 -9.963501 -11.8141 -14.9506 -13.0639 
-7.967501 -10.76 -8.856001 -12.488 -14.9718 -14.7268 -16.2387 -15.6875 -15.2548 -11.934 -15.4469 -16.4271 -12.4747 -13.0628 -14.1018 -11.3405 -12.2883 -17.4779 -14.3056 -10.8089 -15.4644 -11.313 -9.963501 -12.5625 -18.0392 -14.9506 
