-4.759 
n/a 
n/a 
n/a 
n/a 
-4.759 
n/a 
n/a 
n/a 
n/a 
-4.759 
n/a 
n/a 
n/a 
n/a 
-4.759 
n/a 
n/a 
n/a 
n/a 
-4.393 0 -12.16972 -7.674 0 -6.0115 0 
-4.393 -12.16972 -19.84372 -7.674 -6.0115 -6.0115 
-16.93072 -19.84372 -19.84372 -14.3613 -6.0115 
-24.60472 -19.84372 -26.53102 -14.3613 
-24.60472 -26.53102 -26.53102 
-4.426 -1.7565 -1.4985 -3.0835 -4.7285 -4.1555 -19.70972 -7.674 0 -9.727 0 
-5.47 -2.4195 -3.535 -6.042 -8.4455 -23.85422 -28.90522 -7.674 -9.727 -9.727 
-5.9535 -4.6785 -6.335501 -9.523001 -27.86272 -31.76522 -29.00122 -18.0768 -9.727 
-8.021 -7.476501 -10.0095 -29.02472 -35.53672 -31.76522 -39.40402 -18.0768 
-9.983001 -11.3061 -29.62122 -36.69872 -35.53672 -42.16802 -39.40402 
-4.393 0 -4.565 -4.624 0 -6.0115 0 
-4.393 -4.565 -10.4265 -4.624 -6.0115 -6.0115 
-9.548 -10.4265 -10.4265 -11.4887 -6.0115 
-15.5253 -10.4265 -17.2912 -11.4887 
-15.5253 -17.2912 -17.2912 
-4.393 0 -12.16972 -7.674 0 -9.727 0 
-4.393 -12.16972 -19.84372 -7.674 -9.727 -9.727 
-16.93072 -19.84372 -19.84372 -18.0768 -9.727 
-24.60472 -19.84372 -30.24652 -18.0768 
-24.60472 -30.24652 -30.24652 
