-4.759 
n/a 
n/a 
n/a 
n/a 
-4.759 
n/a 
n/a 
n/a 
n/a 
-4.759 
n/a 
n/a 
n/a 
n/a 
-4.759 
n/a 
n/a 
n/a 
n/a 
-1.4985 -8.3365 -8.164001 -2.3085 -5.9885 -2.4945 -3.557 -2.264 -4.7715 -1.934 -1.4985 -3.4425 -3.9205 -2.5045 0 -9.671 -5.9695 0 0 -1.4985 -5.715 -3.557 -1.934 0 -10.4975 -8.512501 0 -4.677 -1.934 -12.16972 -5.0075 -1.7695 -4.747 -1.4985 -4.58 -1.7565 0 -8.3365 -8.164001 -2.3085 
-10.4855 -9.855 -10.427 -9.283 -7.6925 -5.304 -4.9 -6.9115 -6.381 -2.6125 -4.4545 -6.734 -4.449 -2.5045 -9.671 -15.9769 -5.9695 0 -1.4985 -6.5065 -8.069 -4.4175 -1.934 -10.4975 -19.209 -8.512501 -4.677 -6.2735 -15.11012 -17.17722 -5.113 -6.147501 -6.7415 -5.727 -5.440001 -1.7565 -8.3365 -9.855 -10.427 
-12.004 -12.2248 -17.4015 -11.2502 -9.136001 -6.541 -8.31 -8.09 -6.8425 -4.866 -7.2585 -6.8595 -4.449 -13.0929 -15.9769 -15.9769 -5.9695 -1.4985 -6.5065 -9.217501 -8.594501 -4.4175 -13.4379 -19.209 -19.209 -9.8015 -6.2735 -19.92002 -20.11762 -17.28272 -9.879001 -9.271001 -11.4695 -5.969 -5.440001 -9.0765 -9.855 -12.2248 
-14.3738 -19.1993 -19.3687 -12.6937 -9.923 -9.515501 -9.261001 -8.462501 -8.4605 -7.737501 -7.3095 -6.8595 -14.7682 -19.3988 -15.9769 -15.9769 -8.327 -6.5065 -9.217501 -9.866001 -8.594501 -16.1672 -22.1494 -19.209 -20.498 -11.7592 -19.92002 -24.92752 -20.22312 -22.13872 -12.152 -12.6485 -10.4765 -5.969 -13.4246 -10.7575 -12.2248 
-21.3483 -21.1665 -20.8122 -13.4807 -12.8721 -9.718 -9.731501 -10.4765 -11.3792 -7.785501 -7.3095 -17.4989 -21.0741 -19.3988 -15.9769 -18.3344 -13.7046 -9.217501 -9.866001 -9.866001 -20.5486 -24.8787 -22.1494 -20.498 -22.4557 -25.40572 -24.92752 -25.03302 -25.07912 -24.32172 -15.6459 -12.8739 -10.4675 -14.125 -15.1056 -13.1273 
-2.871 -1.7565 -8.035001 -2.3085 -2.229 -4.3075 -4.1785 -2.186 -5.048 -1.8085 -7.3675 -3.849 0 -12.16972 0 0 -3.571 -4.3075 -4.1785 -1.934 -12.16972 -2.229 -11.0235 -2.229 -4.677 0 -5.0075 -1.7695 -1.4985 -3.8405 -1.7565 -8.035001 -2.3085 -4.747 
-3.5385 -11.046 -10.8215 -4.784 -6.2575 -9.014 -5.811501 -6.540501 -7.0035 -8.698501 -10.078 -3.849 -12.16972 -12.16972 0 -3.571 -7.6435 -9.014 -6.08 -15.11012 -14.39872 -13.8475 -13.8727 -6.556 -4.677 -5.0075 -5.113 -2.7955 -4.7545 -4.563 -11.046 -10.8215 -6.7235 
-13.9358 -13.8325 -13.297 -10.1905 -11.5454 -11.0164 -9.783001 -8.389001 -14.6913 -10.396 -10.078 -16.17932 -12.16972 -12.16972 -3.571 -7.6435 -12.82 -11.2849 -20.03372 -17.33912 -26.01722 -16.6967 -18.1997 -6.556 -8.846001 -5.113 -5.7335 -6.344 -5.365 -15.0137 -13.8325 -14.846 
-16.7223 -16.308 -18.7035 -15.4784 -13.5478 -14.9879 -12.3115 -16.306 -16.3888 -10.396 -22.40832 -16.17932 -12.16972 -15.74072 -7.6435 -12.82 -15.0909 -25.23862 -22.26272 -28.95762 -28.86642 -21.0237 -18.1997 -11.1574 -8.901 -5.7335 -8.735001 -6.9125 -15.8589 -17.8002 -17.857 
-19.1978 -21.7145 -23.9914 -17.4808 -17.5193 -17.5164 -20.2285 -18.0035 -16.3888 -22.72632 -22.40832 -16.17932 -15.74072 -19.81322 -12.82 -15.0909 -29.04462 -27.46762 -33.88122 -31.80682 -33.19342 -21.0237 -22.8011 -11.2124 -9.3065 -8.735001 -9.1085 -17.5388 -18.6454 -21.8247 
-2.664 -5.715 -5.0075 -1.7695 -8.035001 -2.3085 -4.822 -1.7695 -1.8085 -3.5015 -3.849 0 -12.16972 0 -1.756 -3.571 -5.715 -4.4725 -1.934 -8.981501 -4.677 -1.934 -9.841001 -5.0075 -1.7695 -8.035001 0 
-6.9235 -9.59 -5.113 -10.7867 -10.8215 -7.6875 -4.8595 -3.41 -4.642 -6.303 -3.849 -12.16972 -12.16972 -1.756 -5.1285 -8.519501 -10.451 -5.511001 -11.9219 -14.0261 -6.2735 -12.7814 -14.9201 -5.113 -10.7867 -8.035001 
-11.4623 -9.711 -14.547 -13.5732 -16.2005 -7.7145 -5.6285 -6.1175 -6.456 -6.303 -16.17932 -12.16972 -13.92572 -5.1285 -9.943001 -13.4965 -10.6235 -16.3815 -16.9665 -15.6226 -17.5913 -17.8605 -15.0256 -14.547 -10.7867 
-11.5833 -19.504 -17.3335 -18.9522 -16.2275 -8.662001 -8.568501 -7.398001 -6.456 -18.75212 -16.17932 -13.92572 -17.29822 -9.943001 -14.92 -13.669 -21.8762 -21.4261 -18.563 -26.9404 -22.6704 -17.966 -24.4596 -14.547 
-21.3763 -22.2905 -22.7125 -18.9792 -17.175 -11.878 -10.0955 -7.398001 -18.94612 -18.75212 -17.93532 -17.29822 -22.11272 -14.92 -15.0925 -24.9217 -26.9208 -23.0226 -29.8808 -32.0195 -22.7759 -27.4 -24.4596 
-1.8085 -4.3075 -6.303 -3.335 -2.7455 -12.16972 0 -1.8085 -3.535 -4.235 -2.5045 -8.3205 0 -1.8085 -4.3075 -6.303 -2.5045 -12.16972 -4.677 -3.074 -3.837 -2.7455 -8.3365 -2.3085 
-5.7805 -8.929001 -9.188001 -6.151501 -15.87382 -12.16972 -1.8085 -4.294 -6.3765 -6.2185 -10.1305 -8.3205 -1.8085 -5.7805 -8.929001 -8.544001 -15.36922 -16.84672 -7.805 -5.8735 -6.567 -10.841 -9.351 
-11.1836 -11.9738 -12.2475 -19.80122 -15.87382 -13.97822 -4.294 -6.5915 -8.4495 -14.4639 -10.1305 -11.0145 -5.7805 -11.1836 -11.3298 -21.75972 -20.04622 -19.97472 -10.647 -9.4685 -15.3219 -11.8555 
-14.2284 -15.0333 -25.89722 -19.80122 -17.68232 -16.46372 -6.5915 -8.551001 -17.2893 -14.4639 -12.8245 -14.9865 -11.1836 -13.5844 -24.54552 -26.43672 -23.17422 -22.81672 -14.242 -18.374 -16.3364 
-17.2879 -28.68302 -25.89722 -21.60972 -20.16782 -18.76122 -8.551001 -17.436 -17.2893 -17.1579 -16.7965 -20.3896 -13.5844 -26.80012 -29.22252 -29.56472 -26.01622 -26.41172 -23.1475 -19.3885 
