-4.759 
n/a 
n/a 
n/a 
n/a 
-4.759 
n/a 
n/a 
n/a 
n/a 
-4.759 
n/a 
n/a 
n/a 
n/a 
-4.759 
n/a 
n/a 
n/a 
n/a 
-12.16972 -5.0075 -1.7695 -3.8245 -5.164 0 -3.681 
-17.17722 -5.113 -6.049 -6.658 -5.164 -3.681 
-17.28272 -9.325001 -8.2685 -6.658 -8.8485 
-21.49472 -10.6225 -8.2685 -10.3885 
-22.79222 -10.6225 -12.1944 
-7.0695 -1.756 -3.681 -8.7705 -10.7715 
-8.396501 -5.4975 -13.7055 -19.8716 
-12.3054 -16.0416 -24.8066 
-22.8495 -27.1427 
-33.9506 
-4.1485 -4.346 0 -3.8975 -3.776 -3.9355 -3.4985 -1.7565 -12.16972 0 
-9.852501 -4.346 -3.8975 -7.8365 -6.912001 -8.3325 -4.622 -14.87542 -12.16972 
-9.852501 -9.5425 -7.8365 -11.5259 -11.986 -9.394001 -18.41092 -14.87542 
-15.0774 -13.5935 -11.5259 -16.5999 -13.0475 -23.37612 -18.41092 
-19.1284 -17.2829 -16.5999 -17.6614 -27.02962 -23.37612 
-3.818 -4.3955 -1.756 -3.681 -3.5005 -1.7695 -12.16972 
-8.073 -5.759501 -5.4975 -6.5915 -6.54 -14.92142 
-9.517 -9.948001 -8.7145 -9.175 -20.08532 
-13.7119 -13.165 -9.491 -23.02272 
-16.9289 -13.9415 -24.67072 
