-4.759 
n/a 
n/a 
n/a 
n/a 
-4.759 
n/a 
n/a 
n/a 
n/a 
-4.759 
n/a 
n/a 
n/a 
n/a 
-4.759 
n/a 
n/a 
n/a 
n/a 
-2.645 -3.1575 -2.871 -5.1845 -4.1395 -3.152 -3.918 -1.7695 -5.922 -5.92 -4.1395 0 
-3.72 -4.6035 -8.660001 -9.258501 -6.5745 -6.462501 -6.328 -6.354001 -10.019 -9.0185 -4.1395 
-4.726501 -9.980501 -12.881 -11.7773 -10.3745 -8.115001 -11.5671 -10.259 -13.2527 -9.0185 
-9.9805 -15.0971 -15.3998 -15.5773 -12.027 -13.5759 -15.4721 -13.4927 -13.2527 
-15.0967 -17.6159 -19.1998 -17.2298 -17.4879 -17.4809 -18.7058 -13.4927 
-4.5735 -4.1395 -2.4945 -3.2955 -2.0935 -5.218 -5.92 -6.0665 -1.934 -5.1845 0 
-8.4005 -5.9615 -4.6305 -4.307 -6.469 -10.634 -10.2645 -8.030001 -6.564 -5.1845 
-10.485 -7.7415 -5.574501 -9.0845 -12.303 -14.9785 -12.228 -13.1576 -6.564 
-12.265 -8.5585 -10.3675 -15.0883 -16.6475 -16.942 -17.3556 -13.1576 
-13.082 -13.5659 -16.3713 -19.4328 -18.611 -22.0696 -17.3556 
-1.7695 -5.922 -12.16972 -3.9355 -1.934 -5.1845 0 -12.16972 -3.9355 -2.4945 -3.2955 -1.934 -5.1845 
-6.354001 -18.86892 -16.10522 -5.415 -6.564 -5.1845 -12.16972 -16.10522 -5.6745 -4.6305 -4.2285 -6.564 
-19.53192 -22.80442 -17.58472 -9.5 -6.564 -18.64862 -16.10522 -17.84422 -7.123 -5.474 -9.333 
-23.46742 -24.28392 -21.66972 -9.5 -20.64032 -22.58412 -17.84422 -19.29272 -7.739 -10.597 
-24.94692 -28.36892 -21.66972 -23.63112 -24.57582 -24.32312 -19.29272 -19.90872 -13.3062 
-10.8475 -4.1395 -2.4945 -3.2955 -1.7695 -5.922 -1.7565 -5.92 -3.8255 -1.934 -5.1845 -3.6885 
-15.4214 -5.9615 -4.6305 -3.9425 -6.354001 -9.0255 -7.259501 -10.5661 -5.695 -6.564 -7.323501 
-17.2434 -7.7415 -5.1225 -8.7345 -9.631001 -14.7385 -12.4172 -12.4356 -11.453 -8.119 
-19.0234 -8.293501 -10.4345 -12.2119 -15.4178 -19.8962 -14.2867 -18.1936 -13.008 
-19.5754 -14.1823 -13.9119 -17.9987 -20.5755 -21.7657 -20.0447 -19.7486 
