-4.759 
n/a 
n/a 
n/a 
n/a 
-4.759 
n/a 
n/a 
n/a 
n/a 
-4.759 
n/a 
n/a 
n/a 
n/a 
-4.759 
n/a 
n/a 
n/a 
n/a 
-1.4985 -5.1385 -6.947001 -6.097 -3.5285 -2.5195 -5.708 -8.856 -4.335 -1.934 -5.011 -3.1435 -5.198 -9.444501 -3.599 -3.5015 -1.934 -12.16972 -6.5825 0 
-6.323501 -10.115 -8.881001 -9.748501 -6.0455 -7.736 -15.4004 -14.081 -5.95 -6.3535 -8.6435 -9.616 -15.6067 -13.1713 -8.256001 -4.704 -15.11012 -18.75222 -6.5825 
-11.83 -12.663 -12.7145 -12.3081 -10.513 -17.6824 -20.6254 -15.696 -9.969501 -8.918501 -15.3612 -19.9785 -19.3335 -17.8283 -9.7815 -18.38092 -21.69262 -18.75222 
-14.378 -16.4965 -15.2741 -16.7756 -21.4558 -22.9074 -22.2404 -19.7155 -12.5345 -15.8226 -25.7237 -23.7053 -23.9905 -19.3538 -23.56382 -24.96342 -21.69262 
-18.2115 -19.0561 -19.7416 -27.7184 -26.6808 -24.5224 -26.2599 -22.2805 -19.4386 -26.1851 -29.4505 -28.3623 -25.516 -33.13612 -30.14632 -24.96342 
-4.7525 -5.5065 -3.115 -3.599 -4.6855 -5.4365 -1.756 -4.4665 -2.5195 -4.335 -1.7695 -6.947001 -6.097 0 -6.947001 -6.097 0 -3.115 -4.5175 -2.264 -5.011 0 -12.16972 -3.5015 -12.16972 -4.5175 -5.198 -2.356 -4.6335 0 
-11.2438 -8.8175 -6.9385 -7.2015 -10.564 -7.149 -5.9985 -6.247 -7.062 -5.5565 -9.389 -8.881001 -6.097 -6.947001 -8.881001 -6.097 -3.115 -7.8335 -6.6385 -8.625501 -5.011 -12.16972 -15.67122 -16.66622 -16.68722 -8.311001 -6.934501 -6.8385 -4.6335 
-14.5548 -12.8754 -10.476 -13.5694 -12.2765 -10.159 -8.134501 -11.3557 -7.6125 -14.0288 -10.734 -8.881001 -13.8908 -8.881001 -8.881001 -9.2935 -7.8335 -10.485 -13.8308 -8.625501 -17.88912 -15.67122 -28.83594 -21.18372 -20.48072 -10.468 -11.9138 -6.8385 
-18.6127 -16.4129 -16.8439 -15.2819 -15.2865 -12.3982 -13.447 -11.9062 -16.993 -15.3738 -10.734 -16.8568 -15.8248 -8.881001 -12.2595 -13.9676 -10.485 -17.6773 -13.8308 -21.78442 -21.39062 -28.83594 -33.35344 -24.97722 -22.63772 -15.4473 -11.9138 
-22.1502 -22.7808 -18.5564 -18.2919 -17.5257 -17.7107 -13.9975 -21.2867 -18.338 -15.3738 -18.7098 -18.7908 -15.8248 -12.2595 -16.9336 -16.6191 -17.6773 -17.6773 -26.98972 -25.28592 -34.55534 -33.35344 -37.14694 -27.13422 -27.61702 -15.4473 
-3.8275 -5.1385 -2.5195 -5.708 -7.066 -3.599 -4.0465 -4.335 -5.198 -1.4985 -9.0985 -1.934 -12.16972 -4.541 
-7.6 -7.185 -7.736 -13.6104 -11.552 -6.229 -8.4065 -8.5225 -6.178501 -11.6908 -11.2531 -15.11012 -16.71072 
-9.644501 -10.733 -15.8924 -18.0964 -14.182 -11.4204 -12.8748 -9.885 -16.7316 -13.8454 -24.42922 -19.65112 
-13.2149 -18.8894 -20.3784 -20.7264 -19.3734 -15.8887 -14.2373 -20.4381 -18.8862 -27.02152 -28.97022 
-21.3713 -23.3754 -23.0084 -25.9178 -23.8417 -17.2512 -24.7904 -22.5927 -32.06232 -31.56252 
-5.708 -5.5065 -2.7415 -1.4985 -3.599 -5.1405 -2.9705 -2.7415 -4.024 -2.5195 -1.4985 -11.282 -6.097 -2.664 -3.599 -5.1405 -2.9705 -5.198 -1.4985 -12.16972 -1.934 -1.4985 -3.158 -5.011 -4.541 0 
-8.007 -8.352 -4.063 -4.6155 -7.099 -7.6695 -4.512 -5.275001 -5.733 -3.1695 -13.1652 -14.1852 -9.276 -5.509501 -7.099 -7.6695 -7.778501 -6.178501 -14.76202 -14.10372 -2.6125 -4.178 -7.829 -10.66 -4.541 
-10.1265 -9.171 -7.7325 -9.745001 -9.343 -8.7185 -7.1495 -6.992001 -6.213 -15.2521 -15.6716 -17.5462 -12.2071 -10.0065 -9.343 -12.8851 -8.2705 -19.80282 -16.69602 -14.78222 -5.265 -8.259501 -13.8348 -10.66 
-10.9455 -12.8973 -13.22 -12.2164 -10.1865 -11.5778 -8.536501 -7.561501 -18.1762 -17.4907 -19.0326 -20.4773 -16.7041 -12.4529 -14.5776 -13.3771 -22.00122 -21.73682 -17.37452 -17.43472 -8.823501 -14.6059 -13.8348 
-14.6718 -18.3848 -15.6914 -13.0599 -13.0458 -12.9648 -9.286501 -19.0193 -20.2758 -20.8517 -21.9637 -24.9743 -19.1505 -17.6875 -15.0696 -27.10782 -23.93522 -22.41532 -20.02702 -20.99322 -15.3239 -14.6059 
