-4.759 
n/a 
n/a 
n/a 
n/a 
-4.759 
n/a 
n/a 
n/a 
n/a 
-4.759 
n/a 
n/a 
n/a 
n/a 
-4.759 
n/a 
n/a 
n/a 
n/a 
-1.4985 -3.09 -2.3335 -2.4945 -2.6165 -4.2755 -2.3345 -3.4295 -3.559 0 -3.237 -3.72 0 -4.221 -4.053 -4.2605 0 -3.8965 -3.441 0 -3.5435 -4.4605 -1.8085 -4.703 -3.9825 
-4.877501 -5.088 -3.947 -3.8065 -6.117001 -5.0745 -6.181 -5.7445 -3.559 -3.237 -5.065001 -3.72 -4.221 -5.264 -9.0755 -4.2605 -3.8965 -6.9195 -3.441 -3.5435 -7.541 -5.447001 -5.545 -6.0655 
-6.279 -5.889 -5.0555 -6.961 -7.320001 -8.581501 -8.453501 -5.7445 -7.509001 -5.065001 -5.065001 -7.587 -5.264 -9.485001 -9.0755 -8.6975 -6.9195 -6.9195 -7 -7.541 -7.897 -6.791 -6.205 
-7.125 -6.866 -7.961 -8.158001 -11.2724 -10.6465 -8.453501 -9.623501 -9.5845 -5.065001 -9.385 -8.561501 -9.485001 -9.485001 -13.6503 -11.8805 -6.9195 -10.7595 -11.8841 -7.897 -9.3195 -6.8275 
-8.927 -8.933001 -8.7165 -12.203 -13.3374 -10.6465 -13.0383 -11.9506 -9.5845 -9.385 -9.444 -13.3759 -9.485001 -14.3618 -16.8333 -11.8805 -10.7595 -15.6436 -12.2401 -9.3195 -9.3435 
-3.5435 -3.6675 -2.664 -3.699 -3.355 -1.934 -1.4985 -3.09 -2.9705 -3.581 -5.651501 -2.489 -3.7855 -2.3345 -3.4295 -3.8355 0 -4.7775 -1.4985 -4.221 -4.053 -3.793 0 -4.7775 -1.4985 -3.793 0 
-7.713 -5.601501 -4.654 -5.462 -4.8475 -2.6125 -4.877501 -5.649 -7.814501 -8.243 -6.549001 -4.789001 -5.0075 -6.181 -6.714 -3.8355 -4.7775 -5.4715 -5.844501 -5.264 -8.329 -3.793 -4.7775 -5.4715 -4.582 -3.793 
-9.282001 -5.873001 -5.638 -6.505 -5.376 -6.489 -7.144501 -11.326 -11.0365 -11.0075 -10.739 -6.1095 -9.359501 -9.703 -6.714 -8.585001 -5.4715 -9.472501 -7.078 -8.4615 -8.329 -7.681001 -5.4715 -6.426 -4.582 
-9.633 -6.941 -6.584 -6.946001 -8.843 -8.711 -13.3087 -14.8084 -12.8179 -12.11 -11.8385 -10.7595 -12.8999 -9.703 -12.3743 -8.8645 -9.472501 -11.33 -10.597 -8.4615 -12.8108 -8.384501 -6.426 -6.426 
-10.946 -7.019001 -7.0215 -10.563 -11.3216 -15.2758 -16.7911 -16.3294 -15.3079 -12.62 -15.4401 -14.2999 -12.8999 -15.5425 -12.6538 -13.8557 -11.33 -14.849 -10.597 -13.3681 -13.5143 -8.755501 -6.426 
-2.4265 -4.6185 -3.644 -3.1575 -3.2825 -3.559 -2.9705 -3.2825 -3.559 -4.9045 -3.8435 0 -5.7025 -3.237 -3.7895 0 -3.737 -3.8225 -3.895 -2.0935 -2.5685 0 -5.7025 -3.793 -3.45 -3.772 -2.4945 -4.683 -3.851 -1.7695 -3.5435 0 
-5.8905 -8.495001 -4.568501 -7.3135 -7.067 -6.1545 -6.605 -7.067 -9.309001 -8.453 -3.8435 -5.7025 -7.9315 -5.3455 -3.7895 -3.737 -7.6575 -6.1555 -5.5895 -3.987 -2.5685 -5.7025 -9.508 -7.6245 -6.368 -5.468 -6.303 -8.081 -4.0015 -5.561501 -3.5435 
-9.389 -9.289001 -7.914501 -11.5352 -10.5635 -10.204 -11.4781 -13.6088 -12.9735 -8.453 -9.943001 -7.9315 -9.5135 -5.3455 -7.504001 -7.6575 -10.6323 -7.067 -7.5345 -3.987 -8.9725 -9.508 -13.4637 -10.159 -7.5635 -8.320001 -9.222501 -8.097501 -7.384 -5.561501 
-10.26 -12.7814 -12.424 -15.0317 -14.613 -15.1881 -18.0199 -17.2733 -12.9735 -15.0633 -12.4046 -9.5135 -9.5135 -9.3035 -12.1947 -10.6323 -11.5438 -9.071501 -7.5345 -9.844501 -12.8378 -13.4637 -15.9982 -11.4789 -10.6613 -11.7049 -9.227501 -11.6856 -7.384 
-13.8716 -17.2909 -15.9205 -19.0812 -19.5971 -21.7299 -21.6844 -17.2733 -19.5838 -17.5249 -13.9866 -9.5135 -13.6805 -14.3356 -15.1695 -11.5438 -13.5483 -9.071501 -13.55 -13.7734 -16.7935 -15.9982 -17.3181 -14.5767 -14.0462 -11.7099 -13.048 -11.6856 
-2.925 -2.4945 -4.2755 -3.3715 -4.8025 -2.0935 -4.9225 0 
-3.7675 -5.392 -7.318501 -6.357 -6.3415 -7.373001 -4.9225 
-6.906001 -8.5235 -8.9615 -7.5835 -12.0776 -7.373001 
-9.722501 -10.3657 -10.035 -13.553 -12.0776 
-11.6593 -11.4392 -16.1275 -13.553 
