-4.759 
n/a 
n/a 
n/a 
n/a 
-4.759 
n/a 
n/a 
n/a 
n/a 
-4.759 
n/a 
n/a 
n/a 
n/a 
-4.759 
n/a 
n/a 
n/a 
n/a 
-4.232 -5.4085 -3.908 -5.119 -4.9755 -3.991 0 -3.2775 -2.5045 -5.388 -2.3335 -4.243 -4.2635 -1.756 -5.569 -5.8215 -1.756 -4.0595 -4.9085 -2.3335 -3.335 -4.114 -2.3335 -2.674 -3.1125 -3.4905 -1.934 -3.345 -3.7765 0 
-9.5935 -9.389 -7.539001 -8.208501 -7.391 -3.991 -3.2775 -3.678 -8.0935 -7.065501 -6.17 -6.6395 -5.2875 -7.0415 -8.715 -6.796 -5.909 -8.0485 -6.7835 -5.6145 -7.767501 -5.889501 -4.382 -3.6315 -4.9055 -5.506001 -4.618 -7.6575 -3.7765 
-10.5055 -10.5655 -9.935501 -9.696001 -7.391 -6.152 -3.678 -8.852501 -9.5235 -9.508 -8.710001 -6.7475 -10.4035 -9.948 -9.504001 -10.5535 -10.0285 -10.259 -10.0675 -9.552 -9.5565 -7.313001 -4.9495 -5.6705 -6.923 -7.957001 -9.1975 -7.6575 
-10.5815 -10.5945 -10.5575 -9.696001 -8.785 -6.166 -8.852501 -10.2235 -10.555 -10.5445 -9.663501 -10.553 -10.5555 -10.423 -10.5545 -10.5815 -10.473 -10.573 -10.6655 -10.649 -10.317 -8.061001 -6.9185 -7.2885 -9.349501 -10.564 -9.1975 
-10.6105 -10.613 -10.5575 -10.437 -8.793 -10.4675 -10.2235 -10.5725 -10.5835 -10.583 -10.5555 -10.5705 -10.583 -10.5705 -10.583 -10.5995 -10.584 -10.6875 -10.688 -10.684 -10.5975 -9.716001 -8.427501 -9.614 -10.5645 -10.564 
-3.6135 -4.1145 -2.229 -4.3655 -1.7695 -4.224 -3.135 -5.593 0 -4.2635 -1.7695 -3.4025 0 -3.6055 -3.7765 -4.116 -1.7695 -3.335 -3.83 -4.1785 -1.756 -4.267 -4.079 0 
-8.557501 -6.818501 -6.6385 -7.3325 -5.104 -6.8635 -7.7 -5.593 -4.2635 -7.1385 -5.5935 -3.4025 -3.6055 -7.785 -7.677501 -5.911 -4.5005 -8.0565 -6.259501 -5.8805 -5.7465 -9.938001 -4.079 
-10.7575 -10.6215 -9.5625 -11.1206 -7.5065 -12.3387 -7.7 -10.7545 -7.1385 -11.5233 -5.5935 -7.5205 -7.785 -12.4792 -10.4345 -8.51 -8.926001 -10.041 -7.8025 -10.7278 -12.0807 -9.938001 
-14.5605 -14.0829 -13.3984 -13.5231 -12.9523 -12.3387 -13.5949 -13.6295 -11.5233 -11.5233 -10.0745 -12.4316 -12.4792 -15.2362 -13.0335 -13.1993 -11.3811 -11.6876 -13.1576 -17.062 -12.0807 
-18.0219 -17.9188 -15.8009 -18.9689 -12.9523 -18.2336 -16.4699 -18.0143 -11.5233 -16.0043 -14.9856 -17.1258 -15.2362 -17.8352 -17.7228 -15.6544 -13.0277 -17.0427 -19.4918 -17.062 
-3.6885 -5.0225 -4.6055 -3.956 -1.934 -1.4985 -4.2635 -6.1795 -1.4985 -2.688 -3.7075 -1.934 -3.135 -3.7425 -3.1385 -5.564 -1.7565 -4.0595 -4.267 -1.934 -6.7925 0 
-9.816501 -9.370001 -9.587 -5.3455 -2.6125 -7.0635 -11.729 -8.017 -3.702 -5.96 -4.937 -4.4015 -7.05 -7.403501 -9.883 -7.778501 -5.726501 -10.0925 -6.7145 -8.967501 -6.7925 
-14.164 -14.5349 -11.2549 -6.028 -8.2075 -15.1406 -13.5665 -10.504 -6.669001 -7.678 -8.089001 -8.531001 -11.2712 -14.5484 -12.1999 -11.9885 -12.8615 -12.6454 -14.1708 -8.967501 
-19.3289 -16.2028 -11.9374 -12.2874 -16.7036 -16.9781 -16.0535 -13.471 -8.455001 -10.609 -12.5227 -12.9866 -18.4161 -16.8653 -16.4099 -19.1235 -15.4144 -20.1017 -14.1708 
-20.9968 -16.8853 -18.1968 -20.7835 -18.5411 -19.4651 -19.0205 -15.257 -11.499 -15.0427 -16.9783 -20.1315 -20.733 -21.0753 -23.5449 -21.6764 -22.8707 -20.1017 
-3.6135 -5.4085 -2.674 -5.3075 -3.6205 -3.991 -3.115 -5.2755 -1.7695 -4.8525 -5.5325 -4.856 -2.5045 -3.074 -9.6215 -2.3335 -2.742 -3.335 -1.4985 -4.114 -3.4625 -3.4905 -1.7695 -3.6055 -3.7765 
-9.478001 -7.801001 -6.833 -10.2485 -7.6385 -6.756001 -8.6385 -6.953001 -5.178 -9.397501 -7.8135 -6.997001 -6.3095 -13.6959 -10.4505 -4.204 -5.183001 -4.7575 -5.1095 -7.288501 -5.942 -3.808 -5.259501 -7.785 
-11.9073 -12.4572 -12.133 -14.3527 -11.1351 -12.3071 -10.7838 -10.9341 -9.6365 -11.8767 -10.4595 -10.254 -17.4166 -14.5249 -13.817 -6.517 -6.144001 -8.119 -8.0515 -9.057501 -6.295 -7.555 -9.804501 
-16.5635 -17.7572 -16.2372 -17.8493 -16.6862 -14.4524 -14.7649 -15.3926 -12.1573 -14.5227 -13.7165 -21.3611 -18.2456 -17.8914 -16.13 -7.515 -9.986001 -10.6595 -9.9529 -9.633501 -9.156 -12.5074 
-21.8635 -21.8614 -19.7338 -23.4004 -18.8315 -18.4335 -19.2234 -17.9134 -14.8033 -17.7797 -24.8236 -22.1901 -21.6121 -20.2044 -17.128 -11.596 -12.5265 -12.5609 -10.5289 -12.6195 -14.4074 
