-4.759 
n/a 
n/a 
n/a 
n/a 
-4.759 
n/a 
n/a 
n/a 
n/a 
-4.759 
n/a 
n/a 
n/a 
n/a 
-4.759 
n/a 
n/a 
n/a 
n/a 
-9.184 0 -12.16972 -4.297 -4.4685 -2.186 -1.4985 -3.994 -2.229 -4.1735 -4.297 -4.4685 
-9.184 -12.16972 -16.46672 -6.630501 -6.3425 -3.339 -5.717 -5.9595 -4.7675 -8.07 -6.630501 
-21.88992 -16.46672 -18.80022 -8.1645 -7.7945 -8.107 -8.2185 -7.208 -8.5375 -9.7885 
-26.18692 -18.80022 -20.33422 -9.589001 -12.8683 -9.197001 -9.064501 -10.5125 -10.3345 
-28.52042 -20.33422 -21.75872 -14.7334 -13.9583 -9.7815 -12.444 -12.3095 
-1.4985 -8.255 -4.297 -4.2215 -1.934 -5.3885 -2.186 -1.4985 -4.4665 -2.871 -1.934 -3.994 
-9.7845 -9.6735 -7.0655 -5.563001 -6.4035 -7.7415 -3.339 -4.729 -6.8655 -4.8125 -5.238 
-10.5065 -10.0565 -8.618501 -10.757 -8.5155 -8.509001 -5.893 -6.960501 -8.144501 -8.252501 
-10.8895 -11.6095 -13.7759 -12.869 -9.576 -11.5036 -8.009501 -8.173 -10.085 
-12.4425 -16.7669 -15.8879 -13.9295 -12.5706 -13.6201 -8.8885 -10.0955 
-3.994 -2.229 -4.4665 -4.297 -4.2215 -2.186 -5.3885 -8.5325 -4.297 -5.8505 -1.934 -8.255 -5.3885 0 
-5.9595 -5.278501 -8.460001 -7.0655 -6.507 -8.587501 -9.7405 -9.469501 -7.655001 -7.4885 -9.6745 -9.254 -5.3885 
-7.298 -8.729501 -11.9803 -8.819501 -13.2959 -13.3595 -9.763 -9.744 -9.037001 -15.4156 -10.6115 -9.254 
-11.6166 -12.5846 -13.7343 -15.9208 -18.0679 -13.382 -9.837501 -11.294 -17.0291 -16.3526 -10.6115 
-15.4717 -14.3386 -20.8356 -20.6928 -18.0904 -13.4565 -11.4277 -19.2861 -17.9661 -16.3526 
-1.4985 -5.3885 -8.5325 -4.297 -5.8505 -2.186 -1.4985 -4.1735 -4.297 -4.0465 -1.934 -3.994 0 
-7.283501 -9.7405 -9.469501 -7.655001 -7.354 -3.339 -4.445 -8.07 -6.179 -5.613 -5.238 -3.994 
-10.142 -9.763 -9.744 -9.199501 -8.762 -5.392 -8.495001 -9.6425 -7.542001 -9.186501 -5.238 
-10.149 -9.837501 -11.4565 -10.477 -10.928 -9.328 -9.852501 -9.8695 -10.523 -9.186501 
-10.2615 -11.5902 -12.734 -12.643 -14.864 -10.287 -9.924001 -10.559 -10.523 
