-4.759 
n/a 
n/a 
n/a 
n/a 
-4.759 
n/a 
n/a 
n/a 
n/a 
-4.759 
n/a 
n/a 
n/a 
n/a 
-4.759 
n/a 
n/a 
n/a 
n/a 
-1.934 -1.4985 -3.188 0 -1.4985 -4.4145 -5.1495 -3.9075 -2.186 -24.33944 -6.2865 -2.3335 -2.186 -3.958 -3.458 -3.5455 -1.7695 -3.502 -2.3335 -2.186 -3.307 -1.7565 -1.4985 -3.9195 -1.7565 -1.4985 -3.59 0 
-2.6125 -3.619 -3.188 -1.4985 -4.8425 -8.0155 -7.324 -5.9785 -27.73584 -30.62594 -9.6595 -3.7085 -5.228 -6.962501 -6.665501 -5.7145 -5.535 -7.0145 -3.7085 -7.210501 -4.8035 -2.4195 -4.631001 -4.7565 -2.4195 -4.268 -3.59 
-4.377 -3.619 -5.0075 -4.8425 -8.121 -9.156 -8.854501 -32.04534 -34.02234 -33.99894 -11.0267 -6.561 -8.282001 -9.923 -10.3415 -6.5255 -9.024501 -8.110001 -8.998 -8.2045 -5.2765 -5.627 -4.871 -5.251 -5.009 -4.268 
-4.377 -5.255 -8.38 -8.121 -9.366501 -11.0831 -35.26414 -38.33184 -37.39534 -35.36614 -13.8792 -9.9945 -11.6517 -13.5366 -11.1525 -9.097501 -9.742001 -13.5637 -9.948501 -9.080001 -8.357 -7.033501 -5.3165 -7.5015 -5.009 
-5.797 -8.559501 -11.9337 -9.366501 -12.034 -37.49274 -41.55064 -41.70484 -38.76254 -38.21864 -17.3127 -13.6198 -15.2653 -14.3476 -13.7245 -9.785001 -15.3429 -14.5142 -10.4555 -12.2801 -9.47 -7.501 -7.6255 -7.5015 
-1.4985 -4.4145 -5.1495 -3.9075 -1.934 -1.4985 -3.188 0 -1.4985 -4.4655 -4.364 -3.9075 -4.79 -2.5195 -3.5455 -1.7695 -3.502 -3.3255 -1.4985 -3.9195 -1.7565 -1.4985 -3.59 
-4.8425 -8.0155 -7.324 -5.7005 -2.6125 -3.619 -3.188 -1.4985 -5.617001 -4.9905 -6.3155 -6.610001 -5.863 -5.71 -5.7145 -5.535 -6.878 -3.8945 -4.631001 -4.7565 -2.4195 -4.268 
-8.121 -9.156 -7.680501 -6.354001 -4.377 -3.619 -5.0075 -5.617001 -8.3365 -9.038501 -9.076 -8.055 -8.602 -6.685 -6.5255 -8.288 -7.2735 -6.615001 -4.871 -5.251 -5.009 
-9.366501 -9.465501 -8.043 -7.7935 -4.377 -5.255 -9.0205 -8.3365 -9.225 -12.2648 -10.4195 -9.6745 -8.705501 -6.7505 -8.298 -8.5105 -9.281 -6.890501 -5.3165 -7.5015 
-9.482 -9.929001 -8.25 -7.7935 -5.797 -9.0565 -12.304 -9.225 -12.6039 -13.6083 -12.1134 -9.754001 -8.713 -8.618 -8.514501 -10.074 -9.285501 -7.251 -7.6255 
-3.188 -2.229 -4.4145 -3.949 -3.9075 -23.29772 -3.9075 0 -5.0835 -1.934 -3.5455 -3.502 -2.186 -3.9195 -1.7565 -1.4985 -3.59 -1.756 -4.1705 -2.3345 -2.3615 -3.3755 0 
-4.279 -5.9795 -8.9735 -9.156 -28.22902 -27.20522 -3.9075 -5.0835 -6.920501 -4.8495 -5.649 -6.412 -6.931001 -4.7565 -2.4195 -4.268 -5.017 -5.908 -6.621 -4.499 -4.8525 -3.3755 
-7.150001 -11.1679 -14.3695 -33.54492 -32.13652 -27.20522 -10.485 -6.920501 -10.674 -7.415 -7.5055 -11.4328 -8.345501 -5.251 -5.009 -5.4655 -10.075 -8.5205 -9.3255 -7.4375 -4.8525 
-14.0172 -16.5639 -38.75842 -37.45242 -32.13652 -33.78272 -12.322 -10.674 -13.2395 -9.9821 -13.6659 -12.8473 -8.9385 -7.5015 -6.204 -10.3035 -12.8573 -11.3858 -12.349 -7.4375 
-19.4132 -40.95282 -42.66592 -37.45242 -38.71402 -35.61972 -16.0755 -13.2395 -15.8066 -16.1425 -15.0804 -13.4403 -11.3444 -8.237 -11.1704 -13.184 -15.7226 -14.4093 -12.349 

n/a 
n/a 
n/a 
n/a 
