-4.759 
n/a 
n/a 
n/a 
n/a 
-4.759 
n/a 
n/a 
n/a 
n/a 
-4.759 
n/a 
n/a 
n/a 
n/a 
-4.759 
n/a 
n/a 
n/a 
n/a 
-2.8965 -4.938 -4.2915 -2.4945 0 -5.117 0 -5.0895 0 -4.7445 0 -5.7175 0 -1.756 -1.4985 -4.2915 -3.0695 -2.674 -1.8085 -3.639 -4.177 -2.356 -3.277 -3.2775 -2.5045 0 -4.5495 -5.7175 0 -6.0505 0 -3.45 -3.0695 -2.674 -3.639 -4.177 -2.356 -3.6085 -2.4945 -5.658 0 -6.2705 0 -4.065 -3.3725 -3.6885 0 -1.756 -4.5495 -3.3725 -3.6885 0 
-7.4475 -7.9925 -6.186 -2.4945 -5.117 -5.117 -5.0895 -5.0895 -4.7445 -4.7445 -5.7175 -5.7175 -1.756 -3.0405 -6.151 -7.724 -4.343 -3.63 -5.2325 -6.318 -4.944 -4.76 -6.419001 -3.678 -2.5045 -4.5495 -7.0235 -5.7175 -6.0505 -6.0505 -3.45 -4.273 -4.343 -6.7095 -6.318 -4.944 -5.975 -6.704 -8.540001 -5.658 -6.2705 -6.2705 -4.065 -6.947001 -5.6855 -3.6885 -1.756 -6.1215 -8.171 -5.6855 -3.6885 
-9.446 -9.33 -6.186 -8.3725 -5.117 -8.2635 -5.0895 -7.956501 -4.7445 -6.9315 -5.7175 -7.445 -3.0405 -7.7435 -9.9455 -9.196501 -5.682 -6.858 -6.6515 -6.6615 -6.862 -7.6505 -6.73 -3.678 -7.3 -7.0235 -7.0235 -12.8296 -6.0505 -9.863001 -4.273 -5.23 -7.826001 -8.687 -6.6615 -9.179 -9.318001 -10.7175 -8.540001 -12.8899 -6.2705 -9.8345 -6.947001 -7.0215 -5.6855 -5.041 -6.1215 -9.324 -8.294001 -5.6855 
-10.661 -9.33 -12.7134 -8.3725 -8.2635 -8.2635 -7.956501 -7.956501 -6.9315 -6.9315 -7.445 -8.783 -7.7435 -11.8526 -11.418 -10.329 -8.450001 -7.5885 -6.924 -8.6125 -9.7325 -7.857 -6.73 -8.236501 -9.679001 -7.0235 -14.7282 -12.8296 -9.863001 -10.8256 -5.23 -8.754001 -10.3345 -8.7695 -11.0859 -12.631 -13.4159 -10.7175 -16.0729 -12.8899 -9.8345 -13.3167 -7.0215 -7.0215 -7.072001 -9.1695 -9.324 -9.473001 -8.294001 
-10.661 -16.1084 -12.7134 -11.6956 -8.2635 -10.139 -7.956501 -9.3795 -6.9315 -8.509001 -8.783 -13.6078 -11.8526 -13.3251 -12.5505 -13.097 -9.116501 -7.7635 -8.804501 -11.5752 -10.162 -7.857 -11.5041 -10.513 -9.679001 -14.7282 -14.7282 -16.6421 -10.8256 -11.7826 -8.754001 -11.3753 -10.453 -13.5065 -14.5379 -16.7289 -13.4159 -18.2504 -16.0729 -16.4539 -13.3167 -13.3912 -7.0215 -8.426001 -10.172 -10.0965 -9.473001 -9.473001 
-2.8965 -4.193 -8.1095 -2.4945 0 -9.5565 0 -12.16972 0 -8.5165 0 -8.147 0 -11.128 -9.407001 -4.5495 -8.147 0 -12.16972 0 -10.306 -12.16972 -2.186 -4.6785 -1.7695 -3.6085 0 -6.2705 0 -4.065 -3.6505 -3.6885 0 -4.5495 -3.6505 -3.6885 0 
-7.788 -13.5449 -10.298 -2.4945 -9.5565 -9.5565 -12.16972 -12.16972 -8.5165 -8.5165 -8.147 -8.147 -11.128 -20.535 -14.0907 -13.8609 -8.147 -12.16972 -12.16972 -10.306 -22.47572 -14.35572 -6.06 -6.179 -5.7045 -3.6085 -6.2705 -6.2705 -4.065 -8.4345 -7.682 -3.6885 -4.5495 -8.9895 -7.682 -3.6885 
-17.3351 -15.7334 -10.298 -13.4792 -9.5565 -21.90002 -12.16972 -20.68622 -8.5165 -17.0659 -8.147 -19.621 -20.535 -25.2187 -23.4021 -13.8609 -20.66272 -12.16972 -22.47572 -22.47572 -24.66172 -18.22972 -9.6005 -10.064 -5.7045 -9.328501 -6.2705 -9.8345 -8.4345 -12.824 -7.682 -8 -8.9895 -13.4206 -7.682 
-19.5236 -15.7334 -21.6073 -13.4792 -21.90002 -21.90002 -20.68622 -20.68622 -17.0659 -17.0659 -19.621 -29.028 -25.2187 -34.5301 -23.4021 -26.37662 -20.66272 -22.47572 -34.64544 -24.66172 -28.53572 -21.77022 -13.4901 -10.064 -11.9863 -9.328501 -9.8345 -14.8042 -12.824 -12.824 -12.3787 -13.117 -13.4206 -13.4206 
-19.5236 -27.0427 -21.6073 -25.82272 -21.90002 -30.41652 -20.68622 -29.23562 -17.0659 -28.5399 -29.028 -33.7117 -34.5301 -34.5301 -35.91782 -26.37662 -30.96872 -34.64544 -36.83144 -28.53572 -32.07622 -25.65982 -13.4901 -16.3458 -11.9863 -12.9763 -14.8042 -19.1937 -12.824 -17.5207 -17.4957 -17.5481 -13.4206 
-2.8965 -12.16972 -3.6885 0 -5.117 0 -5.5835 -2.229 0 -4.7445 -3.581 -5.5455 -1.756 -3.1435 -2.674 -4.2025 -4.177 -8.2205 -7.853 0 -6.0505 0 -3.6085 -4.2285 -4.177 -7.223001 0 -4.6285 -2.3085 0 -4.065 -3.952 -3.6885 0 -4.5495 -3.3755 -3.6885 -3.843 0 
-16.21142 -15.85822 -3.6885 -5.117 -5.117 -5.5835 -8.2985 -2.229 -4.7445 -9.693001 -9.533501 -7.083 -4.1365 -7.982 -7.547501 -8.915001 -13.6273 -16.4875 -7.853 -6.0505 -6.0505 -3.6085 -8.848001 -7.7665 -12.6298 -7.223001 -4.6285 -7.487 -2.3085 -4.065 -8.751 -8.6875 -3.6885 -4.5495 -8.137 -7.737 -7.285 -3.843 
-19.89992 -15.85822 -8.594501 -5.117 -11.117 -8.2985 -8.2985 -6.7485 -9.693001 -15.9387 -11.4502 -10.2035 -9.083 -12.9301 -12.6464 -18.3719 -21.8943 -16.4875 -14.3049 -6.0505 -10.4945 -8.848001 -12.6448 -16.6963 -12.6298 -12.3841 -7.487 -7.487 -7.6455 -8.751 -13.7397 -8.6875 -8 -8.137 -12.6611 -11.9039 -7.285 
-19.89992 -20.76422 -8.594501 -11.117 -13.832 -8.2985 -13.0348 -12.34 -15.9387 -17.8554 -14.5707 -15.15 -14.1145 -18.029 -22.1033 -26.6389 -21.8943 -22.9394 -14.3049 -10.4945 -15.734 -12.6448 -21.5746 -16.6963 -17.7909 -15.2426 -7.487 -13.1232 -12.6675 -13.7397 -13.7397 -13.4328 -12.2645 -12.6611 -16.828 -11.9039 
-24.80592 -20.76422 -15.3289 -13.832 -13.832 -13.0348 -18.6263 -18.5857 -17.8554 -20.9759 -19.5172 -20.1815 -19.2134 -27.4859 -30.3703 -26.6389 -28.3462 -22.9394 -18.7489 -15.734 -19.5308 -21.5746 -21.5746 -21.8574 -20.6494 -15.2426 -13.1232 -18.1452 -17.6562 -13.7397 -18.485 -17.6973 -16.7886 -16.828 -16.828 
-2.8965 -6.191 -4.2915 -2.4945 0 -5.117 0 -5.0895 0 -4.7445 0 -6.112 0 -1.756 -2.985 -2.8965 -3.4635 -4.5495 -6.112 0 -6.0505 0 -1.756 -3.6085 -3.4635 -4.01 -5.658 0 -6.7245 0 -4.065 -3.3725 -3.6885 0 -4.5495 -3.3725 -3.6885 0 
-8.7495 -11.117 -6.186 -2.4945 -5.117 -5.117 -5.0895 -5.0895 -4.7445 -4.7445 -6.112 -6.112 -1.756 -4.2025 -6.190001 -5.458 -9.041 -11.8259 -6.112 -6.0505 -6.0505 -1.756 -5.505 -7.4185 -9.567 -10.1385 -5.658 -6.7245 -6.7245 -4.065 -6.947001 -5.6855 -3.6885 -4.5495 -8.171 -5.6855 -3.6885 
-13.8601 -13.0115 -6.186 -8.3725 -5.117 -8.2635 -5.0895 -7.956501 -4.7445 -12.2995 -6.112 -7.4145 -4.2025 -7.415 -9.737 -11.5989 -16.4318 -11.8259 -13.1801 -6.0505 -7.727 -5.505 -9.057 -14.2326 -15.7413 -10.1385 -13.3439 -6.7245 -11.5821 -6.947001 -7.0215 -5.6855 -8 -8.171 -8.294001 -5.6855 
-15.7546 -13.0115 -12.7134 -8.3725 -8.2635 -8.2635 -7.956501 -7.956501 -12.2995 -12.2995 -7.4145 -10.4425 -7.415 -10.3155 -15.8779 -18.9897 -16.4318 -18.894 -13.1801 -7.727 -11.8792 -9.057 -16.1585 -20.4069 -15.7413 -18.0106 -13.3439 -11.5821 -14.4641 -7.0215 -7.0215 -9.679001 -9.702001 -8.294001 -8.294001 
-15.7546 -19.5389 -12.7134 -11.6956 -8.2635 -10.139 -7.956501 -16.3657 -12.2995 -13.602 -10.4425 -13.655 -10.3155 -16.4564 -23.2687 -18.9897 -23.4999 -18.894 -14.8566 -11.8792 -15.4312 -16.1585 -22.3328 -20.4069 -23.6134 -18.0106 -18.2015 -14.4641 -14.5386 -7.0215 -10.3045 -9.763 -9.7075 -8.294001 
