-4.759 
n/a 
n/a 
n/a 
n/a 
-4.759 
n/a 
n/a 
n/a 
n/a 
-4.759 
n/a 
n/a 
n/a 
n/a 
-4.759 
n/a 
n/a 
n/a 
n/a 
-3.2495 -3.499 -2.5195 -3.345 -2.0935 -1.4985 -4.285 -3.545 -2.846 -3.499 -2.5195 -3.345 -3.1715 0 -4.3105 -3.9515 -3.892 0 -3.5455 -3.892 -2.4945 -1.7695 -2.489 -3.917 0 
-6.0695 -5.7205 -5.099 -6.0295 -2.9725 -4.774 -6.5315 -6.646 -6.7145 -5.7205 -5.099 -5.613501 -3.1715 -4.3105 -6.0435 -6.1575 -3.892 -3.5455 -6.956 -6.212501 -4.6835 -3.1405 -5.42 -3.917 
-7.555 -7.3085 -8.641001 -6.868001 -6.583 -6.723001 -9.2735 -10.2285 -8.655001 -7.3085 -7.0815 -5.613501 -7.631001 -6.0435 -8.757 -6.1575 -6.3245 -6.956 -9.588 -8.337 -5.0085 -6.2305 -5.42 
-8.1035 -11.3745 -9.4855 -9.495501 -8.568001 -9.303 -13.7656 -12.3148 -9.364 -8.6495 -7.0815 -10.177 -7.77 -8.757 -8.757 -9.4905 -8.1425 -9.588 -11.7125 -8.615001 -7.651 -6.2305 
-12.3461 -12.219 -12.1424 -12.0607 -11.382 -14.1095 -15.8519 -13.0238 -11.5044 -8.6495 -11.9144 -10.7255 -12.0017 -8.757 -12.469 -11.3973 -11.6409 -11.7125 -11.9905 -11.5319 -7.651 
-4.285 -4.304 -2.8645 -2.846 -3.499 0 -4.3105 -3.9515 0 -3.5455 -4.1095 -2.4945 -4.794 -3.222 -3.2495 -3.468 
-7.8695 -6.671 -6.546 -6.7145 -3.499 -4.3105 -6.0435 -3.9515 -3.5455 -7.219 -6.831 -5.9735 -6.2995 -5.334 -6.2 
-10.7575 -10.3955 -8.487 -6.7145 -8.161501 -6.0435 -6.0435 -8.308001 -7.219 -9.6975 -9.790001 -7.1855 -7.0175 -8.155001 
-14.482 -12.3365 -8.487 -11.7712 -9.953501 -6.0435 -12.6476 -12.1893 -9.6975 -12.7951 -11.3024 -7.89 -10.103 
-16.423 -12.3365 -13.8515 -13.5632 -9.953501 -12.6476 -16.5289 -14.6678 -12.7951 -14.3075 -12.0069 -11.2955 
-2.0935 -4.285 -4.579 -3.345 -3.1715 -4.7275 -2.846 -12.16972 -2.356 -4.3105 -3.9515 -3.1715 -1.756 -4.142 -4.5655 -2.742 -3.5045 -2.341 -4.5345 -3.345 0 
-6.4635 -10.127 -8.036 -5.613501 -8.589001 -8.879001 -15.64192 -14.52572 -6.6105 -6.0435 -7.66 -4.562 -5.544 -5.6765 -7.409 -6.177 -6.518001 -7.2715 -7.591001 -3.345 
-12.8301 -13.8948 -8.946501 -10.335 -12.9607 -21.80632 -17.99792 -18.78022 -9.614 -11.9996 -9.139 -8.0765 -7.6115 -8.547001 -11.1444 -8.945001 -10.5035 -8.949 -7.591001 
-16.5979 -14.8053 -14.0664 -14.7067 -25.88802 -24.16232 -22.25242 -21.78372 -14.9911 -13.4786 -12.8541 -8.753 -10.19 -12.3974 -13.9124 -13.1135 -12.181 -8.949 
-17.5084 -19.9252 -18.4381 -27.63402 -28.24402 -28.41682 -25.25592 -27.16082 -16.4701 -17.1937 -13.5306 -11.7627 -14.0404 -15.1654 -18.0809 -14.791 -12.181 
-3.345 -3.1715 -4.9295 -2.846 -3.499 -1.756 -4.3105 -3.9515 -3.892 0 -4.142 -3.892 -2.186 -4.621 -2.3345 -3.2495 -3.499 0 
-5.613501 -7.9265 -8.6695 -6.7145 -4.9 -6.2255 -6.0435 -6.1575 -3.892 -4.142 -6.371 -5.6735 -5.5835 -5.109 -5.238 -6.0695 -3.499 
-9.264 -11.9461 -12.8852 -8.2115 -9.7465 -8.021501 -8.757 -6.1575 -6.9545 -6.371 -8.356501 -8.293501 -5.878 -7.2225 -7.107 -6.0695 
-13.7686 -16.1618 -14.3822 -13.2604 -11.6163 -11.3302 -8.757 -9.5105 -7.800001 -8.356501 -11.1453 -8.4755 -7.691 -8.854501 -7.107 
-17.9843 -17.6588 -19.4311 -15.1302 -14.925 -11.3302 -12.489 -11.1152 -10.6139 -11.1453 -11.3273 -10.298 -9.3675 -8.854501 
