-4.759 
n/a 
n/a 
n/a 
n/a 
-4.759 
n/a 
n/a 
n/a 
n/a 
-4.759 
n/a 
n/a 
n/a 
n/a 
-4.759 
n/a 
n/a 
n/a 
n/a 
-5.6045 -1.756 -5.0395 -4.2635 -2.4945 -9.609501 -3.147 0 -2.4285 -11.067 0 
-6.735001 -6.808 -6.981 -5.8635 -13.5322 -12.9019 -3.147 -2.4285 -10.458 -7.337 
-7.404 -8.153501 -8.4805 -17.7456 -16.8246 -12.9019 -5.3325 -9.445001 -9.445001 
-8.686501 -9.4265 -20.6662 -21.038 -16.8246 -15.0874 -12.348 -8.017 
-9.8395 -21.7682 -23.9586 -21.038 -19.0101 -22.1554 -12.4005 
-5.6045 -1.756 -5.0395 -4.899 -3.2495 -3.319 -3.147 -5.156 -1.7565 -11.067 -1.756 -5.156 -3.2615 -3.1495 
-6.735001 -6.808 -11.2367 -9.0795 -7.117 -6.7475 -8.796 -8.884001 -9.514501 -9.629001 -7.9945 -8.6855 -6.233 
-7.404 -13.4088 -15.4172 -13.1574 -11.1753 -12.9075 -13.2822 -17.2404 -11.999 -14.129 -11.8916 -12.03 
-14.6242 -17.5893 -19.4951 -17.2157 -17.3353 -17.3937 -20.2246 -18.8279 -14.1415 -15.6612 -15.2361 
-18.8047 -21.6672 -23.5534 -23.3757 -21.8215 -24.3656 -22.5456 -20.1309 -16.4979 -17.1839 
-5.6045 -1.756 -5.0395 -3.2495 -4.211 -14.429 -5.156 
-6.735001 -6.808 -9.89 -8.684501 -17.1346 -16.5295 
-7.404 -10.757 -15.5264 -20.7192 -19.7271 
-11.9724 -16.3934 -27.5611 -25.7572 
-17.6088 -28.4281 -32.5991 
-3.2495 -2.3335 -2.186 -5.6045 -1.756 -5.0395 -2.4945 -5.156 -3.147 0 -2.4285 -11.067 -2.186 -5.156 -4.8805 -2.0935 -2.3615 
-6.2155 -3.7085 -8.216001 -6.735001 -6.808 -8.3405 -8.823501 -8.709001 -3.147 -2.4285 -10.458 -10.124 -7.3695 -10.4855 -5.3345 -3.854 
-7.6335 -9.8105 -9.384501 -7.404 -8.857 -15.0373 -12.9225 -8.709001 -5.3325 -9.445001 -12.4765 -14.703 -13.517 -11.2373 -7.920501 
-13.9663 -11.2216 -9.8435 -9.617001 -15.689 -19.1363 -12.9225 -11.4361 -12.348 -11.3575 -14.621 -18.155 -14.2688 -13.8233 
-15.3774 -11.6806 -12.4139 -16.5132 -19.788 -19.1363 -15.6496 -18.5041 -14.91 -12.8605 -19.008 -17.0938 -16.8548 
