-4.759 
n/a 
n/a 
n/a 
n/a 
-4.759 
n/a 
n/a 
n/a 
n/a 
-4.759 
n/a 
n/a 
n/a 
n/a 
-4.759 
n/a 
n/a 
n/a 
n/a 
-3.594 -5.5605 -2.4945 -4.077 -1.934 -3.4865 -3.6215 -3.5445 -3.1435 -4.4785 -3.1495 -2.915 -2.4945 -4.692 -4.972 0 
-10.4265 -7.1245 -5.416 -4.43 -5.6945 -7.682001 -6.632 -5.693501 -6.5845 -7.446001 -6.805 -5.622 -6.316501 -7.9405 -4.972 
-11.9905 -10.6036 -5.615 -8.0015 -9.969501 -9.410001 -9.088501 -7.647 -9.2845 -11.3855 -8.108001 -9.522501 -9.080001 -7.9405 
-15.4696 -10.8026 -9.173 -12.7495 -12.0255 -12.2661 -11.1204 -10.1145 -13.3288 -12.6885 -12.2525 -12.483 -9.080001 
-15.6686 -14.3606 -13.8742 -14.8055 -14.8816 -14.298 -13.5879 -14.2694 -14.6318 -16.833 -15.213 -12.483 
-4.571 -2.229 -1.8085 -3.776 -3.6215 -4.207 -2.356 -3.5795 -1.7565 -3.456 0 
-7.635 -3.813 -4.59 -6.97 -9.3935 -6.455501 -6.961 -7.125 -5.067 -3.456 
-10.3885 -7.500501 -7.0565 -13.3658 -11.9648 -11.4623 -9.533501 -10.9145 -5.067 
-14.076 -10.1764 -13.8463 -15.9371 -16.9716 -14.0348 -13.8612 -10.9145 
-16.7519 -16.9662 -16.4176 -20.9439 -19.5441 -18.3625 -13.8612 
-3.594 -3.768 -2.186 -1.4985 -3.89 -2.3335 -4.174 -4.4525 -2.0935 -1.4985 -4.127 -3.6215 -3.098 0 
-5.2065 -6.05 -3.339 -5.176001 -5.018 -5.43 -8.389 -6.077001 -2.9725 -4.905 -8.483001 -7.3005 -3.098 
-7.2175 -7.3155 -6.544 -5.9875 -7.601 -9.468 -10.451 -6.6315 -5.9995 -8.921 -12.2656 -7.3005 
-8.359501 -11.1163 -7.1845 -8.3625 -11.9962 -11.5024 -11.0055 -10.0829 -10.0545 -12.9456 -12.2656 
-12.5189 -11.7568 -9.139 -13.0817 -14.0306 -12.0569 -14.4569 -14.1379 -14.1765 -12.9456 
-8.1295 -1.934 -4.015 -2.742 -5.1765 -2.264 -4.015 -3.6215 0 
-10.784 -4.6075 -7.0035 -6.527 -5.521 -6.2165 -7.509501 -3.6215 
-13.4575 -7.0205 -10.411 -6.637 -8.1435 -10.5308 -7.509501 
-15.8705 -10.4185 -10.622 -10.054 -13.105 -10.5308 
-19.2685 -10.622 -14.039 -15.0155 -13.105 
