-4.759 
n/a 
n/a 
n/a 
n/a 
-4.759 
n/a 
n/a 
n/a 
n/a 
-4.759 
n/a 
n/a 
n/a 
n/a 
-4.759 
n/a 
n/a 
n/a 
n/a 
-2.925 -4.331 -1.7695 -4.115 -1.4985 -4.0395 -1.7565 -1.8085 -4.794 -3.5435 -2.3335 -3.1425 -1.7695 -4.081 -4.241 -1.756 -4.3025 -1.4985 -3.764 -1.7565 -1.4985 -3.1385 0 
-6.033 -4.925 -4.7185 -4.8635 -4.6255 -4.757 -3.2595 -5.938001 -6.595 -5.8015 -4.3795 -6.5365 -4.517 -6.618001 -5.1595 -5.6075 -5.32 -4.874001 -4.6855 -2.4195 -4.2575 -3.1385 
-6.417 -7.4525 -5.5065 -7.602 -4.998 -5.7475 -7.195 -7.1495 -8.2895 -7.444 -8.2545 -9.342501 -6.943 -7.3205 -9.3555 -6.698501 -6.478001 -4.9405 -5.238 -5.013 -4.2575 
-8.922 -8.1055 -8.0885 -7.918 -5.8865 -9.076 -8.1025 -8.6625 -9.381001 -11.3956 -10.647 -11.8839 -7.613 -12.0601 -9.6875 -7.9735 -6.495501 -5.498 -6.891 -5.013 
-9.5435 -9.51 -8.433001 -8.805 -9.120501 -9.683001 -9.572001 -9.569501 -13.4764 -13.7881 -13.1884 -12.5539 -12.4536 -12.3921 -11.5745 -7.9845 -7.045001 -7.099 -6.891 
-2.925 -4.0555 -1.7695 -4.2675 -1.4985 -4.339 -1.7565 -3.4225 -3.5435 -2.9705 -2.7765 -4.6675 -1.4985 -3.8035 -4.878 -2.3345 -1.4985 -5.1845 -3.1385 -1.756 -2.9705 -4.938 -2.985 -3.8585 0 
-5.4845 -4.7475 -4.8665 -5.025001 -4.9215 -4.919 -5.6355 -8.1395 -6.098001 -4.677 -6.124001 -5.326 -5.0335 -6.522 -5.715 -3.233 -6.5205 -7.4095 -4.6325 -4.972 -6.5775 -6.5565 -6.399 -3.8585 
-6.1675 -7.8375 -5.5985 -7.928 -5.0945 -9.364501 -9.579 -10.533 -8.124001 -8.160501 -6.828001 -6.5135 -6.9635 -6.609 -6.416 -7.917 -7.6315 -8.628 -7.811 -8.528 -9.212 -8.3415 -6.399 
-9.126 -8.4235 -8.379001 -8.071001 -9.5915 -13.2568 -11.9813 -12.559 -10.66 -8.6695 -7.968 -8.7075 -7.043 -7.2995 -9.740001 -9.355 -8.754001 -12.0641 -11.46 -10.8981 -10.4435 -8.3415 
-9.722 -10.7175 -8.517 -12.7062 -13.437 -15.6591 -14.0073 -15.095 -11.169 -9.783001 -10.3735 -8.783 -7.693501 -10.142 -10.1785 -10.5645 -12.2461 -15.7131 -13.8301 -12.1296 -10.4435 
-5.1395 -1.756 -6.85 -3.152 -3.9595 -4.887 -1.7695 -7.1815 -5.762 -1.7695 -4.4025 -1.4985 -4.0085 -1.934 -2.985 -2.911 -2.0935 -1.4985 -5.328 
-6.7095 -8.5175 -9.533501 -5.4355 -7.4375 -6.457 -9.192 -8.796 -7.783 -4.7295 -5.4385 -4.866 -5.849 -4.111 -6.043 -4.1005 -2.9725 -6.528501 
-9.011001 -9.8675 -11.941 -8.491 -9.311001 -14.4187 -9.894501 -10.411 -10.718 -5.679 -7.826 -6.535501 -7.789001 -6.742 -6.698 -5.508501 -7.758 
-9.916 -12.3588 -14.9965 -10.019 -17.3611 -15.1212 -10.692 -13.346 -11.6675 -8.0835 -8.272 -8.071 -9.4665 -6.941 -7.593 -9.856001 
-12.4341 -15.4143 -16.5245 -18.0691 -18.0636 -15.9187 -13.627 -14.2955 -14.072 -8.535501 -9.1545 -9.779 -9.6615 -7.8805 -12.2805 
-2.925 -4.4015 -1.7695 -3.5185 -1.8085 -4.2645 -1.7695 -5.392 -2.9705 -2.7765 -4.9565 -4.081 -1.4985 -3.763 -1.7695 -5.1845 -3.1385 0 
-6.006001 -4.6435 -4.134 -4.072 -7.784 -6.2745 -6.051001 -8.24 -4.677 -8.774 -9.8345 -5.125 -5.63 -5.04 -7.4505 -7.4095 -3.1385 
-6.168 -6.673501 -4.595 -10.6605 -9.46 -10.061 -8.870001 -10.0417 -10.281 -13.9206 -10.9547 -9.342501 -6.7475 -11.6956 -9.466001 -7.4095 
-7.9985 -6.975501 -11.2943 -12.3365 -13.5217 -13.141 -10.8289 -15.6457 -15.4276 -15.0408 -15.1722 -9.7115 -13.7855 -13.7111 -9.466001 
-8.306001 -13.9352 -12.9703 -16.3982 -16.6017 -15.0999 -16.4329 -20.7923 -16.5478 -19.2583 -15.5412 -16.8791 -15.801 -13.7111 
