-4.759 
n/a 
n/a 
n/a 
n/a 
-4.759 
n/a 
n/a 
n/a 
n/a 
-4.759 
n/a 
n/a 
n/a 
n/a 
-4.759 
n/a 
n/a 
n/a 
n/a 
-2.5045 -1.4985 -4.193 -2.3615 -3.5015 -2.7415 -1.8085 -3.535 -4.235 -3.849 -2.5045 -7.8125 -8.867001 0 
-3.1915 -4.594501 -6.473001 -5.2225 -5.962 -3.891 -4.294 -6.3765 -7.0295 -6.305 -10.8845 -17.2765 -8.867001 
-5.0525 -7.071501 -9.887001 -6.743 -7.16 -6.2205 -6.5915 -7.9415 -10.3745 -14.7886 -20.3485 -17.2765 
-7.724 -9.977501 -10.5895 -7.88 -9.14 -8.351501 -7.97 -11.3663 -18.8581 -24.2526 -20.3485 
-10.7812 -10.626 -11.7265 -10.264 -10.4945 -9.7875 -11.4014 -19.8499 -28.3221 -24.2526 
-2.3615 -3.892 -2.7415 -1.8085 -3.535 -4.235 -3.9205 -2.5045 -10.37 0 
-5.6425 -6.3605 -3.891 -4.294 -6.3765 -7.9655 -4.449 -13.7919 -10.37 
-7.4305 -7.887001 -6.2205 -6.5915 -9.193501 -8.205 -15.4672 -13.7919 
-8.6925 -10.361 -8.351501 -9.257501 -9.387 -19.2086 -15.4672 
-11.4185 -12.492 -11.0855 -9.446 -20.4152 -19.2086 
-2.3615 -3.5015 -2.7415 -2.5045 -1.8085 -3.535 -4.235 -4.281 -9.689501 -1.934 -1.4985 -4.193 0 
-5.2225 -5.962 -5.397 -3.3625 -4.294 -6.3765 -7.797 -14.2871 -11.9907 -2.6125 -4.594501 -4.193 
-6.743 -8.298 -6.56 -6.055 -6.5915 -8.7575 -17.8519 -16.5883 -12.6692 -5.558001 -4.594501 
-9.330501 -9.68 -9.287001 -8.549001 -8.805 -18.8024 -20.1531 -17.2668 -15.6147 -5.558001 
-10.8047 -12.394 -11.9966 -10.9583 -18.8441 -21.1036 -20.8316 -20.2123 -15.6147 
-2.3615 -3.892 -2.7415 -3.819 -1.8085 -3.535 -4.235 -3.849 -9.689501 0 
-5.6425 -6.3605 -5.5775 -4.9805 -4.294 -6.3765 -7.0295 -13.6991 -9.689501 
-7.4305 -8.577001 -6.245501 -7.829 -6.5915 -7.9415 -16.903 -13.6991 
-9.2375 -9.357 -8.249001 -9.3135 -7.97 -17.8948 -16.903 
-9.981 -11.4541 -9.561501 -10.6884 -17.9299 -17.8948 
