-4.759 
n/a 
n/a 
n/a 
n/a 
-4.759 
n/a 
n/a 
n/a 
n/a 
-4.759 
n/a 
n/a 
n/a 
n/a 
-4.759 
n/a 
n/a 
n/a 
n/a 
-2.925 -3.2955 -2.645 -4.186 -5.515 -1.756 -3.2955 -2.645 -6.3115 -1.7695 -3.5185 -4.907 -5.0725 0 
-5.588 -6.1735 -5.351501 -8.522501 -6.522 -5.0135 -6.1735 -9.031501 -8.149 -4.134 -7.7235 -7.5365 -5.0725 
-8.358001 -9.0805 -9.1315 -9.2515 -10.2865 -7.7985 -10.733 -10.4355 -9.778 -8.035001 -9.1735 -7.5365 
-10.427 -10.718 -9.840501 -10.758 -10.767 -10.757 -12.137 -10.772 -10.7605 -9.3725 -9.1735 
-10.7635 -10.7835 -10.7615 -10.78 -10.787 -12.161 -12.4735 -10.794 -10.7825 -9.3725 
-1.4985 -4.0385 -4.567 -1.7565 -4.6795 -3.594 0 -1.4985 -5.2915 -2.8645 -3.7905 -2.664 -3.4975 -4.4525 
-5.3165 -6.072001 -6.077001 -6.296 -5.801 -3.594 -1.4985 -6.7875 -7.7395 -4.816 -4.8645 -5.1135 -8.096001 
-7.011 -8.360001 -10.0575 -7.0185 -5.801 -5.552 -6.7875 -9.856501 -9.722 -6.022 -7.444 -8.763 
-9.0865 -12.7205 -10.6935 -7.0185 -7.688 -10.4265 -9.856501 -11.8658 -10.637 -8.153 -10.2695 
-13.5498 -13.3565 -10.6935 -8.573001 -10.7495 -13.4955 -11.8658 -12.7808 -12.768 -10.45 
-4.6795 -3.594 -5.569 -7.134 -2.186 -2.664 -3.4975 
-5.801 -9.132501 -13.816 -9.168 -3.8555 -5.1135 
-9.503 -17.7955 -15.85 -10.5235 -6.1105 
-18.3212 -19.8295 -17.2055 -13.1291 
-20.3552 -21.185 -19.8111 
-5.2915 0 -1.4985 -6.101501 -4.6795 -3.452 -5.569 0 -2.8645 -3.7905 -2.664 -3.4975 -4.4 
-5.2915 -1.4985 -6.428 -9.562501 -5.383 -7.588 -5.569 -2.8645 -4.816 -4.8645 -5.1135 -6.995501 
-6.712 -6.428 -9.712 -9.8585 -7.5925 -7.588 -8.3915 -4.816 -6.022 -7.444 -7.2655 
-10.119 -9.712 -9.876 -10.156 -7.5925 -9.832001 -9.714001 -6.022 -8.153 -8.6875 
-10.17 -9.876 -10.1605 -10.156 -9.8315 -10.154 -10.137 -8.153 -8.8645 
