-4.759 
n/a 
n/a 
n/a 
n/a 
-4.759 
n/a 
n/a 
n/a 
n/a 
-4.759 
n/a 
n/a 
n/a 
n/a 
-4.759 
n/a 
n/a 
n/a 
n/a 
-3.5905 -4.161 -3.251 -4.954 -3.6885 -10.5165 0 
-6.918 -7.5235 -7.138 -8.586 -15.252 -10.5165 
-9.785 -11.6549 -9.986501 -20.6353 -15.252 
-14.1506 -14.5034 -22.1418 -20.6353 
-16.9991 -26.6587 -22.1418 
-3.5905 -4.161 -2.4945 -3.6675 -3.8175 -3.9825 
-6.918 -6.052 -7.614501 -7.323 -5.9455 
-8.7205 -10.76 -11.5486 -8.085 
-13.6227 -14.6941 -12.3106 
-17.5568 -15.4561 
-1.934 -6.4185 -3.4795 0 -4.161 -2.4945 -4.232 -1.934 -3.4905 -2.3335 -2.186 -2.4265 -5.818 -1.8085 -3.6135 -4.0375 0 
-7.367 -6.943 -3.4795 -4.161 -6.052 -6.283 -6.3915 -5.33 -6.2035 -3.7085 -4.2875 -6.9145 -6.460001 -4.4545 -7.715 -4.0375 
-7.751 -6.943 -8.4705 -6.052 -10.2085 -7.537 -7.294001 -7.6755 -6.972 -6.008501 -9.863001 -7.595 -9.358001 -8.305 -7.715 
-7.751 -10.5325 -9.1035 -10.2085 -11.5455 -8.224 -9.5635 -8.543 -9.301001 -10.2325 -10.5465 -10.403 -13.5763 -8.305 
-11.4945 -11.1655 -13.5754 -11.5455 -12.2325 -10.6039 -10.6298 -10.6215 -13.8624 -10.9596 -13.3545 -14.6213 -13.5763 
-4.426 -1.7565 -1.4985 -3.6115 -4.7285 -4.1555 -3.147 -3.5905 -4.161 -2.4945 -1.934 -4.3125 -3.4905 -3.2775 -2.3335 -2.925 -5.5385 -1.8085 -4.3125 -4.229 0 
-5.47 -2.4195 -4.081 -6.5495 -8.4455 -5.77 -7.4165 -6.918 -6.052 -4.2645 -6.5015 -7.341 -7.283 -4.922 -4.0295 -6.9485 -6.4285 -4.6875 -7.9665 -4.229 
-5.9535 -5.180501 -6.670501 -9.978001 -9.541501 -10.0785 -10.749 -8.7205 -7.843 -8.241 -9.3255 -11.6913 -7.886001 -6.4735 -7.9115 -7.888 -9.102 -9.1127 -7.9665 
-8.462501 -7.797 -10.054 -11.0524 -13.85 -13.411 -12.5515 -10.575 -12.2871 -11.7436 -13.7676 -12.2943 -9.346001 -9.861 -8.917001 -10.1185 -13.9724 -9.1127 
-10.2375 -11.2985 -11.1648 -15.3609 -17.1825 -15.2135 -14.406 -15.0191 -15.7897 -16.1857 -14.3706 -13.7543 -12.8977 -10.737 -11.2253 -15.2159 -13.9724 
