-4.759 
n/a 
n/a 
n/a 
n/a 
-4.759 
n/a 
n/a 
n/a 
n/a 
-4.759 
n/a 
n/a 
n/a 
n/a 
-4.759 
n/a 
n/a 
n/a 
n/a 
-2.7835 -2.4265 -2.6165 -3.1125 -3.43 -4.541 -2.4265 -2.742 -3.301 0 -6.0165 0 
-4.1745 -5.244 -4.595 -4.9425 -8.165 -7.111001 -4.095 -7.469501 -3.301 -5.315001 -5.315001 
-7.551001 -6.5695 -6.5035 -8.8535 -10.078 -8.1085 -8.6405 -7.469501 -9.016001 -5.315001 
-9.922501 -9.2795 -10.304 -10.7335 -11.0755 -13.0072 -8.6405 -14.5962 -9.016001 
-12.3643 -13.1728 -12.184 -11.731 -15.9742 -13.0072 -16.2172 -14.5962 
-3.4765 -2.7835 -2.3335 -2.186 -2.6165 -3.8535 -4.478 0 -2.4265 -2.186 -1.4985 -3.2825 0 0 -6.0165 0 0 
-4.429 -4.873 -3.7085 -3.5105 -5.685 -6.634 -4.478 -2.4265 -3.292 -3.339 -3.712 -3.2825 0 -5.315001 -5.315001 0 
-6.290501 -5.686501 -4.873 -6.5055 -7.6825 -6.634 -6.5065 -3.292 -4.5995 -4.8425 -3.712 -3.2825 -5.315001 -5.315001 -5.315001 
-7.3865 -6.656001 -7.9345 -8.3035 -7.6825 -7.834001 -7.223001 -4.5995 -6.21 -4.8425 -3.712 -9.300501 -5.315001 -5.315001 
-8.129001 -8.390501 -10.1105 -8.3035 -8.8385 -8.6765 -8.660501 -6.21 -6.21 -4.8425 -9.5555 -9.300501 -5.315001 
-3.4765 -2.7835 -2.4265 -3.8535 -5.217 0 -3.321 -2.4265 -2.186 -1.4985 -3.2825 
-4.429 -4.1745 -5.799 -8.364 -5.217 -3.321 -4.872 -3.292 -3.339 -3.712 
-5.3385 -8.884501 -10.5235 -8.364 -8.653501 -4.872 -5.6395 -4.5995 -4.8425 
-10.4105 -13.984 -10.5235 -12.2659 -9.811001 -5.6395 -7.1475 -6.21 
-15.51 -13.984 -14.4254 -13.4234 -10.351 -7.1475 -8.886001 
-2.3335 -3.866 -2.3615 -2.186 -3.4865 
-6.8175 -6.073 -3.5005 -6.2065 
-8.948501 -7.034 -7.596 
-9.6435 -11.5083 
-14.164 
