-4.759 
n/a 
n/a 
n/a 
n/a 
-4.759 
n/a 
n/a 
n/a 
n/a 
-4.759 
n/a 
n/a 
n/a 
n/a 
-4.759 
n/a 
n/a 
n/a 
n/a 
-6.729 -2.229 -5.2965 -5.2875 0 -3.325 -12.16972 -2.229 0 -4.628 -6.7145 -3.9725 -5.0075 -1.7695 -6.2805 -3.8745 -6.7165 0 -12.16972 -9.384001 -3.152 -3.45 -3.1385 -4.9915 -2.356 -7.4885 -1.7695 -3.937 -2.3335 -3.772 0 
-9.728001 -7.1465 -6.763 -5.2875 -3.325 -16.65072 -14.39872 -2.229 -4.628 -8.598001 -9.8125 -9.194 -5.113 -8.238 -10.903 -12.0994 -6.7165 -12.16972 -21.55372 -12.6602 -6.167 -5.45 -8.4445 -6.4065 -10.035 -9.9235 -5.673501 -5.574 -7.043 -3.772 
-14.7007 -8.9245 -6.763 -8.452001 -16.65072 -18.87972 -14.39872 -7.5915 -8.598001 -10.354 -15.462 -9.325001 -11.9983 -13.1681 -19.1279 -12.0994 -19.47942 -21.55372 -24.82992 -15.6752 -8.2145 -11.454 -9.998 -14.5033 -12.47 -13.8275 -7.389501 -10.7959 -7.043 
-16.4787 -8.9245 -10.238 -22.02692 -18.87972 -18.87972 -19.76122 -10.76 -10.354 -16.1933 -15.593 -16.5267 -16.9284 -21.393 -19.1279 -24.86232 -28.86342 -24.82992 -27.84492 -17.7227 -14.2641 -13.0075 -18.0948 -16.9383 -16.374 -15.5435 -12.7506 -10.7959 
-16.4787 -12.5055 -23.87632 -24.25592 -18.87972 -24.24222 -22.92972 -12.516 -16.1933 -16.3243 -22.7947 -21.4568 -25.1533 -21.393 -31.89082 -34.24632 -32.13962 -27.84492 -29.89242 -23.7723 -15.8176 -21.1043 -20.5298 -20.8423 -18.09 -20.9046 -12.7506 
-3.8005 -2.229 -5.2965 -9.912001 0 -4.628 -6.7145 -4.0965 -3.402 -2.264 -3.759 -1.7565 -6.2805 -3.8745 -2.9705 -3.152 -3.325 -9.342 0 -5.262 -2.229 -7.193 -9.384001 -3.152 -3.9015 -1.7565 -7.4885 -1.934 -3.1495 -4.6175 0 
-5.0465 -7.1465 -16.0369 -9.912001 -4.628 -8.598001 -10.1345 -7.5 -3.793 -6.946 -4.5295 -6.900001 -10.903 -6.945001 -5.007 -6.104 -13.823 -9.342 -5.262 -6.843 -10.1995 -10.985 -12.6602 -7.4785 -5.877501 -9.320001 -9.125 -4.5395 -6.6095 -4.6175 
-8.887 -18.6529 -16.0369 -14.5918 -8.598001 -10.1425 -13.538 -8.291 -8.3485 -7.605 -10.338 -11.9825 -13.9735 -8.359501 -7.742001 -17.2318 -13.823 -14.9932 -6.843 -15.6073 -14.1195 -14.2612 -16.9867 -8.922001 -14.1032 -10.6475 -12.0001 -7.442501 -6.6095 
-21.2024 -18.6529 -20.7167 -18.5618 -10.1425 -13.546 -14.329 -13.1101 -8.896 -13.9081 -15.4205 -15.053 -15.388 -10.138 -19.0406 -17.2318 -19.4742 -16.5742 -15.6073 -19.5273 -17.3957 -18.5877 -18.4302 -17.3049 -15.4307 -13.5226 -14.9031 -7.442501 
-21.2024 -23.3327 -24.6867 -20.1063 -13.546 -14.337 -19.1481 -13.6576 -15.2865 -18.9906 -18.491 -16.4675 -17.1665 -21.3402 -19.0406 -22.883 -21.0552 -25.3385 -19.5273 -22.8035 -21.7222 -20.0312 -26.8131 -18.6324 -18.3058 -16.4256 -14.9031 
-4.365 -4.996 -1.4985 -4.9335 -3.115 -5.2965 -5.2875 0 -12.16972 0 -4.936 -5.213 -4.6995 -1.934 -4.628 -4.5245 -4.448 -3.5435 0 -12.16972 -1.756 -7.193 -9.384001 
-10.032 -5.823 -7.9965 -8.6905 -8.696001 -6.763 -5.2875 -12.16972 -12.16972 -4.936 -10.7025 -10.6095 -6.3735 -5.9605 -10.159 -9.3195 -9.959001 -3.5435 -12.16972 -13.92572 -8.6985 -10.985 
-10.7235 -12.7842 -11.5915 -14.4821 -10.419 -6.763 -18.38262 -12.16972 -17.10572 -10.7025 -16.099 -12.2835 -10.9008 -12.5183 -14.954 -14.8709 -9.959001 -17.14022 -13.92572 -20.86822 -12.9029 
-17.6847 -16.3792 -17.3831 -16.2051 -10.419 -20.55332 -18.38262 -17.10572 -22.87222 -16.099 -17.773 -16.8108 -17.4586 -17.3133 -20.5054 -14.8709 -23.55572 -18.89622 -20.86822 -25.07262 
-21.2797 -22.1708 -19.1061 -16.2051 -24.20932 -20.55332 -23.31862 -22.87222 -28.26872 -17.773 -22.3003 -23.3686 -22.2536 -22.8647 -20.5054 -28.46762 -25.31172 -25.83872 -25.07262 
-5.2965 -5.2875 0 -5.693 0 -7.193 -9.384001 -2.925 -3.152 -3.918 -2.356 -4.6805 -1.7565 -6.864 0 
-6.763 -5.2875 -5.693 -5.693 -7.193 -10.985 -12.4332 -4.203 -6.462501 -6.205501 -7.231 -5.617 -8.661 -6.864 
-6.763 -10.802 -5.693 -13.932 -10.985 -14.0342 -13.7112 -7.055501 -8.345 -10.6465 -8.157001 -10.7335 -8.661 
-12.9727 -10.802 -13.932 -17.724 -14.0342 -15.3122 -16.5637 -9.3675 -12.9352 -11.5725 -13.8713 -10.7335 
-12.9727 -19.041 -17.724 -20.7732 -15.3122 -18.1647 -18.8757 -14.0267 -13.8612 -17.2868 -13.8713 
