-4.759 
n/a 
n/a 
n/a 
n/a 
-4.759 
n/a 
n/a 
n/a 
n/a 
-4.759 
n/a 
n/a 
n/a 
n/a 
-4.759 
n/a 
n/a 
n/a 
n/a 
-1.4985 -11.0235 -1.7565 -4.791 -2.186 -3.9205 -2.5045 -10.5895 -3.213 
-13.6158 -12.78 -6.093 -8.773001 -4.9645 -4.449 -14.0114 -13.9553 
-15.3723 -17.1165 -10.6118 -11.8361 -5.539 -15.6867 -17.3772 
-19.7088 -21.6353 -13.6749 -12.4106 -17.2615 -19.0525 
-24.2276 -24.6984 -14.2494 -24.1331 -20.6273 
-8.943501 -2.674 -3.4155 -3.729 -4.205 
-10.1595 -5.752 -7.359 -7.1785 
-14.0507 -10.2695 -11.3505 
-18.5682 -14.261 
-22.5597 
-2.3615 -2.186 -3.5905 -9.6365 -3.729 -3.9195 -7.0405 0 
-3.5005 -6.009 -14.0122 -13.4917 -5.707 -10.3345 -7.0405 
-7.0585 -17.2103 -17.8674 -15.4697 -12.7124 -10.3345 
-18.6576 -21.0655 -19.8454 -22.4751 -12.7124 
-22.5128 -23.0435 -26.8508 -22.4751 
-2.3615 -2.186 -12.16972 -4.205 -2.9705 -2.186 -4.205 -4.703 
-3.5005 -15.56612 -16.37472 -6.718501 -3.89 -7.318001 -8.882501 
-17.47942 -19.77112 -18.88822 -7.4975 -9.2635 -12.6237 
-21.68442 -22.28462 -19.66722 -13.1398 -14.9608 
-24.19792 -23.06362 -25.30952 -18.8371 
