-4.759 
n/a 
n/a 
n/a 
n/a 
-4.759 
n/a 
n/a 
n/a 
n/a 
-4.759 
n/a 
n/a 
n/a 
n/a 
-4.759 
n/a 
n/a 
n/a 
n/a 
-2.9805 -5.189 -3.3715 -3.645 -3.6215 -1.4985 -3.188 -1.756 -2.3335 -3.5895 -2.7415 -4.5905 -1.7695 -1.4985 -3.564 -3.1335 
-7.681 -8.29 -6.363 -6.8155 -4.094 -3.619 -4.863 -4.016 -5.7035 -5.9755 -6.708 -5.113 -2.7955 -4.7165 -5.803 
-9.822001 -11.5053 -9.142 -7.0465 -4.561 -5.0875 -6.621 -7.3935 -7.255 -8.756001 -7.771 -5.582 -6.1025 -7.184 
-13.1091 -14.2843 -9.296 -7.3595 -5.8415 -6.8325 -10.361 -8.686 -10.078 -9.1075 -8.147501 -8.455501 -8.495001 
-15.8881 -14.4383 -9.710501 -8.6455 -7.8595 -10.4845 -11.6535 -11.5262 -10.7555 -9.317 -11.2918 -11.13 
-2.9805 -4.6225 -3.3715 -3.837 -1.934 -3.188 -3.518 -2.5685 -3.959 -1.756 -4.523 -1.7695 -3.564 -3.1335 -4.285 0 
-6.9465 -7.818001 -6.949 -5.709 -5.387 -7.135 -6.301001 -5.5195 -5.173 -5.7675 -5.5405 -5.494 -5.803 -6.021 -4.285 
-9.234 -10.564 -8.222 -9.582001 -9.4665 -9.972501 -9.401501 -6.9055 -8.887 -6.679501 -10.5992 -7.732501 -8.5185 -6.021 
-11.9696 -11.837 -12.3634 -13.8323 -12.5166 -13.1202 -10.9411 -11.1143 -9.7075 -11.8674 -12.8377 -10.367 -8.5185 
-13.2426 -15.9784 -16.6137 -16.8824 -15.6643 -14.6598 -15.1499 -11.9348 -14.8954 -14.1059 -15.4722 -10.367 
-2.9805 -3.8535 -2.645 -3.1335 -1.7695 -1.4985 -3.8475 -1.756 -2.9805 -3.43 -3.3195 -3.324 -1.934 -3.948 -3.5015 -2.0935 -3.758 0 
-6.844501 -6.1165 -6.473001 -4.809 -2.7955 -5.09 -5.133 -4.3555 -5.2875 -7.131001 -6.3805 -4.971 -5.024 -8.413 -4.7905 -6.692501 -3.758 
-9.290001 -9.7685 -8.149 -5.61 -6.418 -6.486501 -7.778501 -6.565001 -8.7705 -10.8152 -7.9785 -8.354 -8.787001 -10.7495 -9.793501 -6.692501 
-13.053 -10.166 -8.781 -7.9465 -7.570001 -8.9645 -10.126 -10.078 -12.7333 -12.4132 -11.6321 -12.408 -11.5035 -15.7525 -9.793501 
-13.4505 -10.5135 -11.2593 -8.808001 -9.804501 -11.4568 -13.639 -14.09 -14.3313 -16.0668 -15.6861 -15.1245 -16.5065 -15.7525 
-1.934 -3.188 -4.0005 -12.16972 -1.7695 -4.35 -1.756 -4.3465 -1.4985 -3.579 -3.0785 -1.7695 -3.3715 -3.564 -3.09 
-5.387 -4.969501 -17.35362 -13.93922 -5.0545 -5.766 -5.466001 -5.372001 -4.601 -6.343 -4.903 -5.0445 -6.6225 -5.1685 
-7.338 -19.14262 -19.12312 -17.22422 -7.0535 -9.731001 -6.53 -8.568501 -7.8385 -7.439001 -8.064 -7.571001 -8.441 
-21.75652 -20.91212 -22.40812 -19.22322 -11.7387 -10.939 -10.074 -12.4336 -9.419001 -10.228 -10.9063 -9.927501 
-23.52602 -24.19712 -24.40712 -23.90842 -12.9467 -14.483 -13.9841 -14.0141 -12.307 -13.0703 -13.2628 
