-4.759 
n/a 
n/a 
n/a 
n/a 
-4.759 
n/a 
n/a 
n/a 
n/a 
-4.759 
n/a 
n/a 
n/a 
n/a 
-4.759 
n/a 
n/a 
n/a 
n/a 
-1.934 -1.4985 -3.158 -5.0345 -3.506 -3.279 0 -7.9715 -5.333 -3.693 -10.939 -10.536 -3.251 -4.493 -9.542001 -5.765 -12.16972 -3.9465 -6.841001 -1.934 -9.3175 0 
-2.6125 -4.178 -7.8225 -8.210501 -5.51 -3.279 -7.9715 -13.8743 -9.067 -15.979 -21.475 -13.787 -6.5305 -14.361 -12.9555 -18.85632 -16.11622 -10.3545 -9.467501 -10.419 -9.3175 
-5.265 -8.312 -11.2827 -9.6545 -5.51 -11.8163 -13.8743 -17.6083 -21.5528 -26.515 -24.726 -17.0665 -16.6155 -19.0771 -26.61622 -22.80282 -22.52422 -12.981 -17.9779 -10.419 
-8.7465 -12.0392 -12.7267 -9.6545 -14.9827 -17.7191 -17.6083 -30.0941 -32.0888 -29.766 -28.0055 -27.1515 -21.3316 -32.38122 -30.56272 -29.21082 -25.15072 -21.4914 -17.9779 
-12.5851 -13.4832 -12.7267 -19.3636 -20.8855 -21.4531 -30.0941 -40.6301 -35.3398 -33.0455 -38.0905 -31.8676 -34.63572 -36.32772 -36.97072 -31.83732 -33.66112 -21.4914 
-1.934 -5.0345 -3.506 -3.279 -6.7245 -4.87 -3.693 -12.16972 -7.8485 -4.2635 -4.5055 -12.16972 -7.035501 -12.16972 -1.934 -9.3175 0 
-6.337 -8.210501 -5.51 -10.2135 -12.4773 -9.728001 -17.20972 -20.01822 -12.767 -8.587 -17.74262 -19.20522 -19.89562 -14.10372 -10.419 -9.3175 
-10.6735 -9.6545 -13.3799 -16.4755 -17.3353 -23.45472 -25.05822 -24.93672 -17.0905 -22.58712 -24.77812 -32.06534 -21.82962 -22.58872 -10.419 
-12.1175 -17.7608 -19.6419 -21.3335 -31.06202 -31.30322 -29.97672 -29.26022 -31.09062 -29.62262 -37.63824 -33.99934 -30.31462 -22.58872 
-20.2238 -24.0228 -24.4999 -35.06022 -38.91052 -36.22172 -34.30022 -43.26034 -38.12612 -42.48274 -39.57224 -42.48434 -30.31462 
-2.264 -4.9455 -3.506 -5.466 -1.8085 -5.7455 -4.87 -3.693 -4.281 -12.16972 -6.996 -4.2635 -4.19 -6.6745 -3.9465 -5.658 -1.4985 -4.311 -5.73 -4.5055 -1.7565 -5.364 -4.621 0 
-6.741501 -6.921 -9.943001 -7.754 -7.336 -10.001 -9.728001 -7.1055 -16.76732 -19.16572 -9.7605 -6.248 -10.4035 -11.8632 -8.5425 -7.272501 -4.9505 -8.256001 -8.595001 -5.324 -7.4175 -9.925501 -4.621 
-8.029501 -13.2744 -12.5362 -13.8697 -12.3155 -14.9348 -13.3505 -19.97042 -23.76332 -21.93022 -12.2756 -13.4577 -15.5922 -16.4592 -10.9136 -10.6095 -9.056001 -10.2035 -9.383 -12.3872 -12.3438 -9.925501 
-14.6239 -15.8676 -18.6519 -18.8492 -17.2493 -18.5573 -26.21542 -26.96642 -26.52782 -24.44532 -19.4853 -18.6464 -20.1882 -18.8303 -14.2506 -14.715 -10.451 -11.1497 -17.235 -17.3135 -12.3438 
-17.2171 -21.9833 -23.6314 -23.783 -20.8718 -31.42222 -33.21142 -29.73092 -29.04292 -31.65502 -24.674 -23.2424 -22.5593 -22.1673 -18.3561 -16.11 -11.5742 -19.0017 -22.1613 -17.3135 
-2.264 -3.506 -3.279 0 -5.0345 -1.8085 -5.7455 -5.333 -3.693 -12.16972 -6.996 -4.2635 -4.19 -1.4985 -3.683 -5.73 -1.7565 -12.16972 -4.621 -4.5055 -12.16972 -7.5245 -10.536 -2.5045 -12.16972 0 
-4.855 -5.51 -3.279 -5.0345 -7.2955 -7.336 -8.285 -9.067 -17.20972 -19.16572 -9.7605 -6.248 -5.9825 -4.9055 -7.960001 -6.704501 -14.87542 -16.79072 -9.439501 -17.74262 -19.69422 -18.5125 -13.3369 -15.36922 -12.16972 
-6.464 -5.51 -7.6415 -7.2955 -10.3415 -10.3605 -12.5686 -22.78352 -24.20572 -21.93022 -12.2756 -8 -9.836 -8.386001 -8.811001 -20.47442 -19.49642 -21.60922 -22.96982 -25.26712 -30.68222 -21.3134 -26.20162 -15.36922 
-6.464 -8.404501 -9.5655 -10.3415 -13.8026 -14.6441 -26.28512 -29.77952 -26.97022 -24.44532 -14.0276 -12.0941 -13.4163 -9.1005 -22.91512 -25.09542 -24.31492 -35.13954 -30.49432 -36.25512 -33.48312 -34.17812 -26.20162 
-8.708 -9.869501 -10.5875 -13.8026 -18.0862 -28.36062 -33.28112 -32.54402 -29.48532 -26.19732 -18.1217 -15.6744 -14.1308 -23.33362 -27.53612 -29.91392 -37.84524 -42.66404 -41.48232 -39.05602 -46.34784 -34.17812 
