-4.759 
n/a 
n/a 
n/a 
n/a 
-4.759 
n/a 
n/a 
n/a 
n/a 
-4.759 
n/a 
n/a 
n/a 
n/a 
-4.759 
n/a 
n/a 
n/a 
n/a 
-5.5365 -3.741 -2.186 -4.761 -2.0935 -3.691 -3.098 -2.0935 -3.098 0 
-8.5 -5.911 -7.736 -7.24 -5.940001 -6.282001 -4.8475 -6.16 -3.098 
-10.2645 -11.8258 -10.2755 -11.8695 -8.0565 -8.005 -8.0455 -6.16 
-16.1793 -14.3653 -15.2526 -13.986 -8.2045 -12.099 -8.0455 
-18.7188 -19.3424 -17.3691 -14.134 -13.7851 -12.099 
-12.16972 -3.741 -2.7415 -4.455 -1.7695 -3.691 -2.5045 -5.2285 
-15.91072 -6.388 -7.495501 -6.886001 -5.5435 -6.273 -7.4545 
-18.55772 -10.3815 -9.7405 -10.4265 -7.505 -11.8846 
-22.55122 -12.9075 -13.5586 -12.388 -13.3356 
-25.07722 -16.7256 -15.5201 -18.2186 
-2.0935 -1.4985 -3.098 -5.087 0 -4.467 -2.186 -1.4985 -4.455 -1.934 -3.691 
-2.9725 -4.3095 -7.807 -5.087 -4.467 -7.011 -3.339 -5.262 -6.558001 -4.8225 
-6.1945 -8.782001 -7.807 -9.762001 -7.011 -8.1215 -6.959 -7.001 -9.486501 
-9.7045 -8.782001 -12.4078 -12.306 -8.1215 -10.185 -9.296 -9.708501 
-9.7045 -13.7074 -14.9518 -13.4165 -10.185 -12.8298 -12.1567 
-3.691 -4.455 -5.5365 -3.741 -2.5045 -3.098 -3.518 
-7.5965 -7.734501 -8.5 -6.402 -7.254001 -6.961 
-10.7495 -8.769501 -10.6215 -11.4529 -10.621 
-11.7845 -10.7335 -15.6724 -14.8199 
-13.7485 -15.7844 -19.0394 
