-4.759 
n/a 
n/a 
n/a 
n/a 
-4.759 
n/a 
n/a 
n/a 
n/a 
-4.759 
n/a 
n/a 
n/a 
n/a 
-4.759 
n/a 
n/a 
n/a 
n/a 
-2.872 -4.263 -5.1255 -3.0695 -2.7765 -3.429 -3.456 -1.7565 -4.1455 -2.7765 -5.267 -9.944 -5.258 
-7.284501 -9.0695 -6.6745 -4.7695 -4.863501 -4.9975 -4.7445 -5.6925 -6.2955 -7.113501 -16.2206 -15.2844 
-12.4102 -10.164 -8.797001 -6.7925 -6.4265 -5.1605 -8.133 -8.437 -11.2889 -18.3729 -21.561 
-13.5047 -12.4049 -11.1254 -7.9305 -6.435501 -8.915 -11.0391 -13.7126 -22.5483 -23.7133 
-15.7456 -14.7333 -12.2634 -7.941 -10.6014 -11.9423 -16.3147 -24.972 -27.8887 
-2.872 -4.263 -4.832 -2.7765 -5.267 -3.3715 -4.284 -2.229 0 -2.4265 -2.925 -2.4945 -4.6145 -1.7695 -4.102 
-7.284501 -8.657 -7.888 -7.113501 -8.5485 -9.025001 -5.606 -2.229 -2.4265 -5.385 -3.7675 -5.622 -6.4715 -4.775 
-11.9977 -12.0702 -9.9505 -10.0885 -14.5204 -9.998501 -5.606 -5.1355 -5.385 -6.423 -6.6155 -7.4615 -8.721001 
-15.4109 -14.1327 -13.0511 -16.0604 -15.4939 -9.998501 -9.177501 -7.71 -6.423 -9.536 -8.478001 -9.745001 
-17.4734 -17.2333 -19.023 -17.0339 -15.4939 -13.57 -12.0908 -8.7185 -9.536 -11.4383 -10.8457 
-2.872 -1.4985 -4.263 -7.640501 -2.229 -2.742 -4.3455 -3.091 -3.3975 -2.9805 -2.742 -5.267 -4.1495 -6.4585 0 
-4.035 -5.314 -12.8077 -10.1905 -5.4545 -6.049 -6.691 -5.146 -6.236501 -4.7635 -6.906 -8.3535 -11.4068 -6.4585 
-7.701 -14.5795 -15.3577 -13.8858 -8.662001 -8.217501 -8.736 -6.768 -7.822001 -8.031 -9.844 -15.7632 -11.4068 
-17.1569 -17.1295 -19.053 -17.0933 -10.259 -10.6215 -10.164 -8.257 -11.5993 -10.674 -17.3519 -15.7632 
-19.7069 -20.8248 -22.2605 -18.6903 -13.6654 -12.4443 -11.653 -12.1707 -14.2423 -18.1819 -17.3519 
-2.872 0 -4.263 -5.1255 0 -3.0695 -2.674 -4.1235 -1.7695 -2.341 -4.284 -1.756 -3.332 -3.3975 0 -2.9805 -4.3285 -3.6115 -4.371 
-2.872 -4.263 -9.0695 -5.1255 -3.0695 -4.343 -7.251 -4.2495 -4.7495 -7.723001 -5.261001 -4.7095 -5.415 -3.3975 -2.9805 -6.4465 -8.6 -6.8075 
-7.284501 -9.0695 -9.0695 -6.6745 -4.343 -8.926001 -7.335 -8.859501 -10.111 -9.420501 -7.003001 -6.1225 -5.415 -6.236501 -6.4465 -11.5546 -12.067 
-12.4102 -9.0695 -10.164 -7.7965 -8.926001 -9.312501 -12.2188 -14.2888 -12.0259 -11.1297 -8.272 -6.1225 -8.094501 -9.631001 -11.5546 -15.0216 
-12.4102 -10.164 -11.4044 -12.6489 -9.312501 -14.2847 -17.6481 -16.2037 -13.7351 -12.3987 -8.272 -8.6185 -11.5492 -14.8929 -15.0216 
