-4.759 
n/a 
n/a 
n/a 
n/a 
-4.759 
n/a 
n/a 
n/a 
n/a 
-4.759 
n/a 
n/a 
n/a 
n/a 
-4.759 
n/a 
n/a 
n/a 
n/a 
-1.934 -3.0105 0 -2.743 -5.181 -3.251 -2.871 -4.944 -3.5015 -4.1585 -3.135 -2.9325 
-4.827 -3.0105 -2.743 -6.565001 -8.841001 -5.517 -8.294001 -8.3675 -8.398001 -7.1445 -6.7005 
-4.827 -5.118 -6.565001 -11.3736 -11.2476 -11.3236 -12.0485 -13.9634 -11.6604 -10.7495 
-7.884 -9.814501 -11.3736 -13.7802 -17.0542 -15.0781 -17.6444 -17.2258 -15.2654 
-12.6941 -14.9071 -13.7802 -19.5868 -20.8087 -20.674 -20.9068 -20.8308 
-12.16972 -12.16972 -12.16972 -12.16972 
-24.33944 -24.33944 -24.33944 
-36.50916 -36.50916 
-48.67888 
n/a 
-1.934 -3.0105 -7.6355 -4.222 -1.8085 -4.3325 -4.299 -2.356 -4.1735 -1.7695 -4.0395 -1.756 -3.2015 -4.1735 -2.229 -5.0045 -3.3825 -3.983 0 
-4.827 -10.9575 -13.0863 -5.479 -5.561 -7.0995 -6.369 -6.6815 -6.6485 -5.327 -6.0845 -4.5895 -7.8485 -6.268 -7.078001 -5.926001 -7.57 -3.983 
-13.1668 -16.4083 -14.3433 -9.908501 -7.414001 -8.589001 -10.476 -8.8035 -9.48 -7.3065 -8.443501 -9.296 -9.920501 -7.9545 -7.823501 -9.081501 -7.57 
-18.6176 -17.6653 -18.7728 -11.7615 -8.695001 -12.823 -12.598 -12.2346 -10.7345 -9.688001 -13.7232 -10.587 -11.607 -8.101 -10.877 -9.081501 
-19.8746 -22.0948 -20.6258 -13.0425 -12.922 -14.945 -16.0291 -13.4891 -14.053 -14.9657 -15.0142 -12.2735 -11.7535 -11.5011 -10.877 
-1.934 -3.0105 -3.158 -1.934 -4.2615 -1.4985 -3.983 -1.7565 -4.764 -1.756 -3.74 -1.7695 -3.6785 -2.688 -2.743 -5.181 0 
-4.827 -6.226 -4.7985 -6.817 -5.128 -4.867001 -5.555501 -7.263501 -5.9855 -5.0545 -4.2995 -4.268 -6.856 -6.2535 -6.565001 -5.181 
-8.028501 -7.25 -10.1945 -8.4715 -7.2155 -5.994 -11.7765 -7.877501 -10.119 -5.437 -7.015 -7.8915 -10.8525 -7.627001 -6.565001 
-9.767 -14.2184 -11.9838 -10.6584 -8.1675 -12.4806 -12.3905 -12.026 -10.1535 -8.257501 -10.703 -12.175 -12.226 -7.627001 
-15.9922 -16.0077 -14.1707 -11.6104 -14.8923 -13.0946 -16.539 -12.0605 -13.1482 -12.0783 -14.9865 -13.5485 -12.226 
