-4.759 
n/a 
n/a 
n/a 
n/a 
-4.759 
n/a 
n/a 
n/a 
n/a 
-4.759 
n/a 
n/a 
n/a 
n/a 
-4.759 
n/a 
n/a 
n/a 
n/a 
-4.5065 -2.186 -2.871 -1.7565 -1.4985 -3.59 -1.934 -3.502 -3.75 -3.994 
-6.813001 -4.247 -3.5385 -2.4195 -4.268 -5.272 -4.8155 -5.0795 -5.276 
-8.4175 -4.411 -3.7675 -5.009 -5.6655 -7.3105 -6.192 -5.751 
-8.459001 -4.5655 -6.2585 -6.403501 -8.7895 -8.527 -6.617001 
-8.559001 -7.067 -9.781 -9.624001 -10.459 -8.608001 
-4.5065 -2.186 -1.4985 -3.59 -2.9705 -2.8645 -1.934 -4.749 -3.994 0 
-6.813001 -3.339 -4.268 -6.172 -4.6335 -5.5305 -5.849 -5.4505 -3.994 
-7.949501 -6.561 -6.6505 -7.165 -7.278501 -10.328 -6.1715 -5.4505 
-9.709001 -8.335 -7.8 -9.700001 -12.5664 -10.5635 -6.1715 
-11.5512 -9.335501 -10.286 -14.9923 -12.8019 -10.5635 
-4.5065 -2.186 -1.8085 -3.59 -1.934 -3.502 -3.994 
-6.813001 -3.164 -4.973001 -5.272 -4.8155 -5.394 
-7.665 -6.4275 -6.641 -7.3105 -6.254001 
-8.919001 -7.4065 -8.317 -8.3595 
-9.5895 -8.462001 -8.831501 
-4.5065 -2.186 -1.4985 -3.59 -1.934 -3.502 -3.75 -3.994 
-6.813001 -3.339 -4.268 -5.272 -4.8155 -5.0795 -5.276 
-7.949501 -6.561 -5.6655 -7.3105 -6.192 -5.751 
-9.709001 -8.303 -8.7895 -8.527 -6.617001 
-11.5192 -10.292 -10.459 -8.608001 
