-4.759 
n/a 
n/a 
n/a 
n/a 
-4.759 
n/a 
n/a 
n/a 
n/a 
-4.759 
n/a 
n/a 
n/a 
n/a 
-4.759 
n/a 
n/a 
n/a 
n/a 
-4.251 -2.5685 -4.9225 -2.4945 -3.8245 -1.934 -4.972 0 -2.872 -3.814 -3.2495 -3.277 -5.891 -3.6885 -2.186 -2.645 -1.756 -2.645 0 
-7.0035 -6.688 -6.9525 -5.751 -4.7245 -6.6415 -4.972 -2.872 -7.468501 -5.493 -4.6515 -9.744 -9.2045 -4.8395 -4.528 -4.776 -3.898 -2.645 
-11.3406 -8.4215 -9.3655 -6.158 -8.8645 -6.6415 -7.3695 -7.468501 -9.9055 -5.826 -11.5251 -13.0575 -10.3755 -7.1215 -6.8525 -5.009 -3.898 
-13.0741 -11.1365 -9.7565 -10.292 -8.8645 -8.796 -12.0878 -9.9055 -10.7637 -12.649 -14.8386 -14.2285 -12.6575 -9.4865 -6.956 -5.009 
-15.7891 -11.5275 -13.9227 -10.292 -11.2348 -13.6819 -14.5248 -10.7637 -17.5867 -15.9625 -16.0096 -16.5105 -15.0225 -9.521501 -6.956 
-4.251 -2.5685 -3.319 -1.7565 -3.1385 -3.511 -1.934 -3.486 -6.2475 -3.1015 -1.8085 -3.4795 -5.2015 -1.7695 -3.584 
-7.0035 -6.443501 -4.165 -4.388 -5.979 -4.582 -5.8505 -7.318501 -7.7995 -5.0505 -6.392 -9.369 -6.625 -4.382 
-10.66 -6.8035 -6.8725 -7.409501 -6.5055 -8.608 -9.620501 -9.0495 -9.6085 -6.6635 -12.5573 -11.1603 -9.723001 
-10.7555 -9.271501 -9.413501 -7.862 -10.564 -12.9774 -11.691 -11.076 -10.826 -13.1558 -14.3486 -14.2583 
-13.2235 -11.9485 -9.609501 -12.0711 -14.9334 -15.0839 -13.8116 -12.0896 -17.8257 -14.9471 -17.4466 
-4.251 -2.5685 -3.319 -1.7565 -4.9225 -4.267 -1.7565 -4.9225 0 -3.228 -3.2495 -4.96 0 
-7.0035 -6.443501 -4.165 -6.4125 -9.494 -6.9535 -6.4125 -4.9225 -3.228 -5.2515 -7.619 -4.96 
-10.66 -6.8035 -9.579 -11.4036 -12.4723 -12.2719 -6.4125 -8.691501 -5.2515 -10.044 -7.619 
-10.7555 -10.7575 -14.7135 -14.3819 -17.7907 -12.2719 -9.312 -11.086 -10.044 -10.044 
-14.7095 -15.892 -17.6918 -19.7003 -17.7907 -15.1714 -12.7431 -15.8785 -10.044 
-4.7715 -2.5685 -3.1385 -4.657 -3.894 0 -2.872 -4.72 -3.6885 -3.458 -3.2495 -3.711 -5.299 -5.9855 0 
-6.7055 -5.4325 -6.756001 -6.8315 -3.894 -2.872 -8.328001 -8.191 -7.056 -5.1565 -5.6835 -9.293 -12.5525 -5.9855 
-9.4915 -9.351 -8.856501 -6.8315 -6.05 -8.328001 -11.9052 -10.5975 -8.476501 -7.324 -10.4585 -16.8153 -12.5525 
-13.5762 -11.4735 -8.856501 -8.792 -11.778 -11.9052 -14.3117 -12.018 -10.9224 -12.4404 -17.9808 -16.8153 
-15.6987 -11.4735 -10.9772 -14.5994 -15.3552 -14.3117 -15.7322 -14.4639 -16.0388 -19.9627 -17.9808 
