-4.759 
n/a 
n/a 
n/a 
n/a 
-4.759 
n/a 
n/a 
n/a 
n/a 
-4.759 
n/a 
n/a 
n/a 
n/a 
-4.759 
n/a 
n/a 
n/a 
n/a 
-4.138 -2.5045 -1.4985 -2.95 -5.831 -3.6955 -2.9905 -1.934 -1.4985 -4.0325 -1.7565 -10.128 
-6.9075 -3.1915 -3.9285 -9.375 -9.332001 -5.013 -4.5445 -2.6125 -4.933001 -5.3175 -12.8337 
-7.6615 -4.5155 -10.4505 -13.013 -9.724001 -6.345 -5.048 -6.071 -5.612 -17.1303 
-9.0885 -11.2865 -14.0885 -13.405 -11.2164 -6.919 -9.073501 -6.5755 -17.7008 
-16.0965 -14.9245 -14.4805 -14.8974 -11.7904 -11.5261 -9.199 -18.9413 
-4.4715 -2.5045 -2.3615 -2.95 -1.4985 -5.831 -4.066 -2.9905 -3.3255 -1.4985 -4.1455 -4.916 0 -2.4265 -4.066 -2.8705 -2.356 -3.9665 -3.851 -1.7695 -7.278 0 
-6.816 -4.3105 -4.4645 -4.514 -6.965 -8.852 -5.3895 -5.9875 -3.8945 -5.503 -7.763 -4.916 -2.4265 -4.728 -7.2695 -7.647501 -6.632501 -7.423501 -4.0015 -9.337501 -7.278 
-8.990001 -4.89 -5.6065 -9.882501 -9.3695 -9.163 -8.2835 -6.433001 -8.0045 -8.132001 -7.763 -7.478001 -4.728 -8.5415 -12.6459 -12.1376 -10.147 -7.439001 -9.922501 -9.337501 
-9.752001 -6.0235 -11.0762 -12.5312 -10.005 -12.2916 -8.588 -10.8088 -11.1431 -8.132001 -9.820001 -10.4185 -8.5415 -13.9631 -17.136 -15.6521 -10.1665 -13.6536 -9.922501 
-11.1735 -11.6936 -13.7249 -13.1667 -13.0766 -12.5961 -13.1226 -13.9474 -11.1431 -10.0605 -12.8793 -14.232 -13.9631 -18.4532 -20.6505 -15.6716 -16.5163 -13.6536 
-4.426 -1.7565 -1.4985 -3.6115 -4.7285 -4.1555 -3.147 -3.135 -3.1385 -2.7415 -4.2095 -3.6385 -4.361 -1.7565 -3.3435 -1.934 -3.3755 0 0 -7.278 0 -2.3615 -2.95 -2.7415 -3.383 -6.0525 0 
-5.47 -2.4195 -4.081 -6.5495 -8.4455 -5.77 -6.2245 -4.8745 -6.375501 -8.1285 -8.233 -7.8145 -8.187 -4.4105 -4.8115 -6.653 -3.3755 0 -7.278 -7.278 -2.3615 -4.4645 -5.481 -4.8365 -11.1599 -6.0525 
-5.9535 -5.180501 -6.670501 -9.978001 -9.541501 -8.558001 -7.8295 -8.545501 -11.9105 -12.3826 -12.7338 -12.2103 -11.1076 -5.667 -9.413501 -6.653 -3.3755 -7.278 -7.278 -9.322001 -4.4645 -6.662 -7.591001 -13.2092 -11.1599 
-8.462501 -7.797 -10.054 -11.0524 -12.3295 -10.758 -11.8133 -14.3207 -16.1646 -16.8834 -17.1296 -15.1309 -12.3641 -10.6138 -9.413501 -6.653 -11.136 -7.278 -9.322001 -11.6482 -6.662 -8.5675 -16.1915 -13.2092 
-10.2375 -11.2985 -11.1648 -13.8404 -14.5295 -14.7418 -17.5885 -18.5748 -20.6654 -21.2792 -20.0502 -16.3874 -17.3109 -10.6138 -9.413501 -14.9911 -11.136 -9.322001 -11.6482 -13.8457 -8.5675 -17.2842 -16.1915 
-4.138 -1.7565 -4.663 -5.831 -3.3255 -2.5195 -6.041 -3.8015 -1.756 -7.278 -3.519 -2.0935 -2.645 -4.153 0 
-5.1845 -6.1545 -11.117 -8.777 -6.5705 -9.6905 -9.887501 -5.6205 -8.7735 -11.3824 -5.3365 -3.883 -6.4755 -4.153 
-10.8939 -12.9023 -14.063 -12.3694 -14.1219 -13.5904 -11.8343 -13.4722 -12.9483 -13.1999 -6.9155 -8.6715 -6.4755 
-17.6417 -15.8483 -17.6554 -19.9208 -18.0218 -15.5372 -19.686 -17.647 -14.7658 -14.7789 -12.661 -8.6715 
-20.5877 -19.4407 -25.2068 -23.8207 -19.9686 -23.3889 -23.8608 -19.4645 -16.3448 -20.5244 -12.661 
