-4.759 
n/a 
n/a 
n/a 
n/a 
-4.759 
n/a 
n/a 
n/a 
n/a 
-4.759 
n/a 
n/a 
n/a 
n/a 
-4.759 
n/a 
n/a 
n/a 
n/a 
-2.4265 -2.186 -2.871 -1.7565 -1.4985 -3.6135 -4.167 -3.9225 -3.5555 -4.167 -1.934 -1.4985 -3.188 -2.4265 -4.0935 -6.332 -3.748 -4.02 
-3.292 -4.247 -3.5385 -2.4195 -4.4525 -6.365 -7.890501 -8.028501 -8.011001 -5.437 -2.6125 -3.619 -5.508 -5.351 -9.877001 -8.028 -6.9875 
-5.5545 -4.411 -3.7675 -5.553 -7.0435 -9.769 -12.4397 -10.199 -8.869 -6.043 -4.377 -5.7115 -8.1785 -11.7821 -13.4056 -12.0585 
-5.691 -4.5655 -6.296 -7.876501 -10.609 -14.4216 -14.6102 -11.057 -9.4245 -6.741 -6.2025 -8.281 -14.941 -14.9665 -17.157 
-5.822 -7.272 -8.924 -11.5892 -15.2616 -16.5921 -15.4682 -11.6125 -10.3751 -8.226001 -8.5675 -15.0937 -18.041 -18.7179 
-2.3615 -2.186 -2.871 -1.7565 -1.4985 -3.5555 -4.4665 -4.167 -1.934 -1.4985 -3.188 -2.356 -4.347 -6.332 -3.748 -3.1385 
-3.5005 -4.247 -3.5385 -2.4195 -6.097 -8.2255 -7.068 -5.437 -2.6125 -3.619 -5.329 -6.082 -8.877501 -8.028 -5.326 
-5.2435 -4.411 -3.7675 -6.842 -9.6285 -10.5975 -7.785 -6.043 -4.377 -5.467 -8.049 -10.3905 -11.621 -10.0095 
-5.381 -4.5655 -8.156 -10.5225 -11.6119 -11.3145 -8.2545 -6.741 -5.7925 -8.058001 -13.0835 -12.202 -11.8465 
-5.547 -9.148 -11.9519 -12.5059 -12.3289 -11.784 -8.612 -8.000501 -8.177501 -13.094 -14.394 -14.7682 
-6.332 -3.748 -3.1385 -3.511 -1.934 -2.3615 -3.8955 -3.188 -4.1735 -3.8145 
-8.028 -5.326 -5.979 -4.582 -3.539 -5.9455 -7.751 -7.127501 -7.666 
-10.0095 -7.183001 -6.5055 -6.42 -6.432 -9.6075 -12.3537 -10.9966 
-12.559 -7.4735 -8.152 -8.421 -10.717 -14.9856 -16.2228 
-12.786 -9.0725 -9.867001 -12.8976 -16.0951 -18.8547 
-3.6215 -6.332 -3.748 -3.1385 -3.511 -1.934 -1.4985 -3.2875 0 -2.9705 -3.882 -2.4265 -1.4985 -3.5555 -4.184 -4.1735 -3.2875 -1.934 -1.4985 -3.188 
-9.0045 -8.028 -5.326 -5.979 -4.582 -2.6125 -4.127 -3.2875 -2.9705 -5.271501 -4.72 -4.51 -6.097 -7.058001 -7.3225 -6.08 -5.248 -2.6125 -3.619 
-11.274 -10.0095 -7.183001 -6.5055 -5.3785 -4.9865 -4.127 -6.257 -5.271501 -5.798501 -6.575 -9.1115 -7.691 -9.5775 -8.656 -6.471 -5.8105 -4.377 
-13.8174 -12.559 -7.4735 -7.1645 -6.91 -4.9865 -6.712501 -8.5295 -5.798501 -7.416 -12.0847 -10.674 -9.732 -10.751 -8.806001 -6.8405 -6.623 
-15.8439 -12.786 -8.002001 -8.6675 -6.91 -7.443501 -8.972 -9.002 -7.416 -13.1015 -13.6472 -12.715 -10.9463 -10.901 -9.037001 -8.0515 
