-4.759 
n/a 
n/a 
n/a 
n/a 
-4.759 
n/a 
n/a 
n/a 
n/a 
-4.759 
n/a 
n/a 
n/a 
n/a 
-4.759 
n/a 
n/a 
n/a 
n/a 
-3.2615 -5.59 -3.9535 -5.5045 -1.934 -3.676 0 -3.3715 -4.5445 -1.7565 -4.891 -4.3665 -4.424 -3.433 -1.7565 -4.9655 -4.4715 -3.115 -6.0185 0 
-8.71 -8.642 -8.3865 -6.317501 -4.7985 -3.676 -3.3715 -6.568501 -4.771 -5.8275 -8.190001 -7.568501 -6.81 -4.1845 -6.33 -8.788 -6.630501 -8.3065 -6.0185 
-12.2022 -10.2755 -8.870001 -8.982 -4.7985 -7.2165 -6.568501 -6.733001 -8.567 -8.7795 -10.168 -9.265 -7.16 -9.455 -9.5275 -10.7335 -8.789001 -8.3065 
-13.8357 -10.769 -11.7105 -8.982 -7.8405 -9.7635 -6.733001 -9.966501 -10.0065 -10.19 -12.9345 -9.51 -12.5811 -12.7309 -11.62 -12.892 -8.789001 
-14.3292 -13.6095 -11.7105 -12.1726 -10.025 -9.7925 -9.966501 -10.2035 -10.199 -13.2503 -13.1795 -15.0227 -15.857 -14.8234 -13.7785 -12.892 
-3.875 -3.1385 -3.034 -3.9535 -3.8245 -1.934 -3.676 -3.321 0 -4.1955 -4.3665 -4.424 -3.851 -1.7695 -4.3845 -4.05 -1.756 -3.3715 -4.493 
-7.536 -6.036 -6.9215 -7.5 -4.7245 -4.7985 -7.160501 -3.321 -4.1955 -8.883 -7.568501 -7.1215 -4.0015 -5.677001 -9.938 -5.218 -4.6545 -8.045501 
-10.8217 -10.4047 -10.147 -8.295501 -7.018 -7.8065 -7.160501 -7.9375 -8.883 -12.224 -9.9175 -7.127501 -8.1435 -11.8227 -11.2386 -7.7955 -9.208 
-15.1904 -13.6302 -11.3999 -10.8222 -9.8915 -7.8065 -12.1632 -12.7878 -12.224 -14.573 -9.924001 -11.6737 -15.015 -13.1233 -13.8161 -12.718 
-18.4159 -14.8831 -13.9266 -13.6957 -9.8915 -12.9672 -17.0135 -16.1288 -14.573 -14.5795 -14.4702 -18.5452 -16.3156 -15.7008 -18.7386 
-5.59 -3.2615 -5.5495 -3.222 -3.676 0 -3.3715 -3.748 -3.264 -1.7565 -4.5735 -4.3665 0 -3.535 -6.071 -4.0135 -1.7565 -4.9655 -4.4715 -4.9695 -3.277 -1.756 -4.424 0 
-8.481501 -8.1685 -9.696001 -7.0125 -3.676 -3.3715 -7.7165 -6.287 -3.6125 -5.6355 -8.1675 -4.3665 -3.535 -7.037 -10.7025 -4.201 -6.33 -8.788 -9.283501 -8.356501 -4.6335 -5.698 -4.424 
-13.6951 -12.7026 -13.7587 -7.0125 -7.2165 -7.7165 -10.5509 -6.3 -8.002501 -9.5085 -8.1675 -8.658501 -7.037 -12.1537 -10.7815 -9.323501 -9.5275 -13.7412 -12.7315 -9.5655 -8.830001 -5.698 
-18.2292 -16.7653 -13.7587 -10.1185 -11.9351 -10.5509 -10.5639 -12.333 -12.1787 -9.5085 -12.9107 -10.575 -12.1537 -12.2327 -15.904 -12.6366 -14.6277 -17.1892 -13.9405 -13.87 -8.830001 
-22.2919 -16.7653 -16.8647 -14.8789 -14.7695 -10.5639 -16.5969 -16.5092 -12.1787 -14.3077 -14.8272 -15.6917 -12.2327 -17.3552 -19.2171 -17.7368 -18.0757 -18.3982 -18.245 -13.87 
-3.2615 -5.4675 -1.7695 -3.676 -2.3345 -5.59 0 -3.3715 -4.3665 -4.4465 -2.3345 -4.4715 -3.115 -6.8605 -7.8285 
-7.5 -6.1875 -5.5605 -5.846 -7.129001 -5.59 -3.3715 -6.057 -8.134001 -4.897501 -7.5675 -6.630501 -8.7675 -15.3958 
-7.966 -9.063001 -7.2825 -9.1075 -7.129001 -8.692 -6.057 -9.915501 -8.211 -8.553 -8.969001 -13.123 -17.3482 
-10.442 -10.9988 -10.275 -9.1075 -9.846001 -10.622 -9.915501 -9.962501 -10.749 -9.880501 -15.5943 -21.7037 
-12.3778 -13.9913 -10.275 -11.8829 -11.768 -14.4805 -9.962501 -12.8013 -12.0765 -16.5058 -24.175 
