-4.759 
n/a 
n/a 
n/a 
n/a 
-4.759 
n/a 
n/a 
n/a 
n/a 
-4.759 
n/a 
n/a 
n/a 
n/a 
-4.759 
n/a 
n/a 
n/a 
n/a 
-8.534 -3.277 0 -3.4975 -3.9665 -5.192 -3.7015 -3.8005 -5.222 -3.9665 -1.934 -7.835001 
-10.51 -3.277 -3.4975 -7.7115 -8.7875 -6.574501 -6.8735 -8.009001 -8.9215 -5.47 -9.729501 
-10.996 -7.218 -7.7115 -10.1765 -10.2595 -10.1635 -10.586 -12.2181 -9.792 -13.9455 
-15.1552 -11.7904 -10.1765 -11.8691 -13.8639 -13.9704 -14.7951 -13.0886 -18.2893 
-19.7276 -14.2554 -11.8691 -15.4735 -17.6708 -18.1795 -15.6656 -21.5859 
-1.934 -8.534 0 -3.5455 -4.28 -3.8275 0 -3.4975 -4.795 -5.192 -3.7015 -1.4985 -3.8005 -4.348 0 
-8.743501 -7.4305 -3.5455 -8.6155 -7.868501 -3.8275 -3.4975 -6.322001 -7.9225 -6.574501 -4.3435 -5.7805 -8.069 -4.348 
-9.201 -10.1385 -8.6155 -10.6475 -7.868501 -6.8565 -6.322001 -9.146 -9.5225 -7.074 -8.958501 -11.0406 -8.069 
-12.0798 -15.5211 -10.6475 -10.6475 -11.3251 -9.1255 -9.146 -10.938 -9.9445 -12.067 -14.4092 -11.0406 
-17.4624 -17.5531 -10.6475 -14.1041 -13.5941 -12.0815 -10.938 -11.36 -15.0201 -17.5177 -14.4092 
-8.534 -3.158 -3.676 -2.229 -6.1895 -9.433001 -3.8275 -1.7695 -4.809 -3.515 -3.8005 -3.515 0 
-10.457 -7.653501 -4.593 -8.6125 -16.6849 -13.8529 -5.9455 -7.049001 -7.9605 -7.5435 -7.484 -3.515 
-16.7743 -8.196501 -12.3509 -19.3473 -21.1048 -15.9709 -11.821 -10.0475 -12.3546 -8.395 -7.484 
-17.3173 -16.067 -23.0857 -23.7672 -23.2228 -21.8464 -14.8195 -14.4416 -13.2061 -8.395 
-25.1878 -26.8018 -27.5056 -25.8852 -29.0983 -24.8449 -19.2136 -15.2931 -13.2061 
-4.28 -3.8275 -1.934 -3.7015 -1.7565 -5.222 -3.6825 -1.7565 -3.8005 
-7.868501 -5.2615 -7.0015 -7.623 -6.667 -5.799 -5.4015 -5.0365 
-9.293 -10.1265 -9.630501 -12.8265 -7.6435 -6.464 -7.1225 
-14.6324 -12.8867 -15.0882 -13.803 -8.25 -7.132 
-17.3926 -18.3444 -16.0647 -14.4095 -8.661 
