-4.759 
n/a 
n/a 
n/a 
n/a 
-4.759 
n/a 
n/a 
n/a 
n/a 
-4.759 
n/a 
n/a 
n/a 
n/a 
-4.759 
n/a 
n/a 
n/a 
n/a 
-4.2085 -3.564 -4.7615 -4.202 0 -3.6085 -1.756 -3.511 -2.356 -3.875 -9.952001 -4.9225 0 -4.5735 -2.0935 -3.5895 0 -3.97 0 -3.8475 -3.7095 -1.7565 -4.9225 0 
-7.1955 -9.872 -10.2235 -4.202 -3.6085 -5.232 -5.11 -5.258 -6.645 -14.8266 -14.9649 -4.9225 -4.5735 -6.3135 -5.302 -3.5895 -3.97 -3.97 -3.8475 -8.2095 -4.7465 -6.4125 -4.9225 
-14.6069 -15.372 -10.2235 -8.6905 -5.232 -8.734501 -6.799 -10.4345 -18.1846 -19.8395 -14.9649 -9.793501 -6.3135 -10.061 -5.302 -5.591001 -3.97 -5.6715 -8.2095 -9.4605 -9.581 -6.4125 
-20.1069 -15.372 -14.712 -10.5535 -8.734501 -10.151 -12.4659 -22.2911 -23.1975 -19.8395 -19.8359 -12.0453 -10.061 -10.061 -9.5755 -5.591001 -5.6715 -10.688 -9.4605 -14.3962 -9.581 
-20.1069 -19.8605 -16.575 -14.056 -10.151 -15.9549 -24.3225 -27.304 -23.1975 -24.7105 -22.0877 -15.7928 -10.061 -14.3345 -9.5755 -10.019 -10.688 -11.939 -14.3962 -14.3962 
-1.4985 -3.691 -2.229 -4.9225 -2.8645 -3.97 0 -1.756 -3.564 -4.351 0 
-5.8135 -5.0855 -7.3105 -7.8105 -8.474501 -3.97 -1.756 -4.562 -7.469501 -4.351 
-7.4235 -8.352501 -10.147 -13.6195 -8.474501 -5.137 -4.562 -8.687 -7.469501 
-11.3693 -11.5928 -15.956 -13.6195 -9.5425 -7.238501 -8.687 -8.687 
-14.6096 -17.4018 -15.956 -14.6875 -11.7792 -10.7175 -8.687 
-2.7835 -3.61 -2.5045 -3.691 -3.564 -4.0395 0 -3.098 -3.6085 0 -4.0555 -2.5195 -3.4225 -4.0965 0 -2.4945 -3.7875 -3.5895 -3.519 0 -3.9655 -3.519 -1.756 -4.359 -1.934 -3.8475 0 
-7.938 -4.1825 -6.731501 -7.382501 -6.395 -4.0395 -3.098 -6.42 -3.6085 -4.0555 -5.0775 -5.8945 -4.2 -4.0965 -2.4945 -5.3155 -7.212 -6.896501 -3.519 -3.9655 -6.106 -4.9065 -6.254 -6.0385 -5.531 -3.8475 
-8.593 -7.9255 -11.4736 -11.1259 -6.395 -7.3915 -6.42 -6.42 -8.151 -5.0775 -9.0655 -6.604 -4.2 -7.026 -5.3155 -8.6945 -10.051 -6.896501 -7.6325 -6.106 -7.0875 -9.485001 -8.121 -9.765501 -5.531 
-12.3922 -13.2264 -15.217 -11.1259 -9.745001 -11.0047 -6.42 -11.8189 -9.215 -9.0655 -10.26 -6.604 -7.2005 -10.031 -8.6945 -12.2559 -10.051 -10.243 -8.715 -7.0875 -12.114 -10.452 -12.0258 -9.765501 
-17.6931 -16.9698 -15.217 -14.4759 -13.5502 -11.0047 -11.8189 -12.8829 -13.2572 -10.26 -10.26 -9.561001 -10.0475 -13.7236 -12.2559 -12.2559 -13.8339 -11.3255 -9.5375 -12.114 -13.081 -14.8908 -12.0258 
-3.047 -1.4985 -3.691 -2.229 -3.564 -4.0395 0 -3.098 -4.065 -3.1385 0 -2.5195 -3.4225 -3.8195 0 -2.674 -3.8565 -3.3825 0 -3.9655 -3.519 0 
-4.095 -5.8135 -5.0855 -5.63 -6.395 -4.0395 -3.098 -7.4615 -6.6145 -3.1385 -2.5195 -5.8945 -9.712501 -3.8195 -2.674 -7.1555 -4.849 -3.3825 -3.9655 -6.106 -3.519 
-8.716001 -7.4235 -7.897 -8.2755 -6.395 -7.3915 -7.4615 -9.406 -6.6145 -5.074 -5.8945 -12.7817 -9.712501 -6.1565 -7.1555 -8.6045 -4.849 -7.339001 -6.106 -6.106 
-10.609 -10.9138 -10.367 -8.2755 -9.745001 -12.0462 -9.406 -9.406 -8.9235 -8.568001 -12.7817 -12.7817 -12.0719 -10.322 -8.6045 -8.6045 -8.284 -9.275001 -6.106 
-14.0993 -13.3838 -10.367 -11.6231 -14.5917 -13.9907 -9.406 -11.9976 -12.5457 -15.713 -12.7817 -15.1411 -16.2374 -11.771 -8.6045 -12.3109 -10.5635 -9.275001 
