-4.759 
n/a 
n/a 
n/a 
n/a 
-4.759 
n/a 
n/a 
n/a 
n/a 
-4.759 
n/a 
n/a 
n/a 
n/a 
-4.759 
n/a 
n/a 
n/a 
n/a 
-12.16972 -4.113 -2.186 -4.5495 -2.0935 -1.4985 -5.598 0 -4.013 -4.8285 -1.756 -5.0295 -4.7375 -1.7695 -2.489 -1.8085 -3.8485 -3.689 -4.4915 -3.851 -1.7695 -8.472 -3.8355 -4.835 -2.5195 -1.4985 -3.75 0 
-16.28272 -6.241 -6.0455 -6.372 -2.9725 -6.121 -5.598 -4.013 -8.349001 -5.9385 -6.219 -9.405001 -4.768 -3.1405 -3.799 -4.325 -6.440001 -7.192 -8.601501 -4.0015 -9.474001 -11.0605 -6.651501 -6.7225 -3.1695 -4.8715 -3.75 
-18.41072 -8.8325 -6.9025 -7.137 -7.807001 -6.121 -8.929501 -8.349001 -9.943001 -7.7295 -9.7215 -9.408501 -5.4285 -4.2615 -5.717 -6.530001 -9.376 -10.1765 -8.6715 -11.398 -11.965 -10.409 -8.477 -6.898 -6.005 -4.8715 
-21.00222 -9.883 -7.7155 -10.27 -7.807001 -9.046 -10.486 -9.943001 -10.172 -10.0575 -9.7255 -9.899 -6.8555 -6.2665 -7.721001 -9.418001 -10.5135 -10.184 -12.2025 -11.3035 -10.667 -10.744 -8.757501 -8.3795 -6.005 
-22.05272 -10.0925 -10.45 -10.27 -10.419 -10.513 -10.529 -10.172 -10.2395 -10.063 -10.009 -10.2295 -7.449 -8.205 -10.1415 -10.514 -10.5295 -10.544 -11.026 -10.5345 -10.8365 -10.501 -9.451 -8.3795 
-4.38 -2.186 -1.8085 -3.2795 -1.7565 -3.8745 -2.9705 -4.706 -1.934 -1.4985 -3.7745 -4.1385 -4.3355 
-6.7035 -3.164 -4.5305 -4.4575 -6.2305 -6.945001 -6.429501 -5.462501 -2.6125 -4.753 -6.435 -5.686 
-7.5725 -5.9165 -4.854 -7.1445 -8.292 -9.718 -7.2535 -5.8215 -5.664001 -7.104 -7.4055 
-9.863001 -6.1445 -7.5115 -8.9025 -10.7025 -10.566 -7.5055 -8.4995 -7.6295 -8.229501 
-9.9165 -8.614 -9.4115 -11.587 -11.5505 -10.6175 -9.717001 -10.292 -8.46 
-4.38 -3.1715 -2.186 -2.664 -3.8375 -1.934 -4.1115 0 
-6.601 -5.3485 -3.8555 -5.739 -5.7375 -6.27 -4.1115 
-10.3285 -7.274 -6.7285 -6.7565 -9.300501 -6.27 
-12.254 -9.505501 -7.830501 -10.228 -9.300501 
-14.4855 -10.7249 -11.4752 -10.228 
-4.38 -3.1715 -2.186 -1.8085 -3.2795 -1.7565 -3.8745 -1.934 -1.4985 -4.255 -4.1385 -4.3355 0 
-6.601 -5.3485 -3.164 -4.5305 -4.4575 -6.2305 -6.057 -2.6125 -4.974 -7.113 -5.686 -4.3355 
-10.3285 -6.5565 -5.9165 -4.854 -7.1445 -7.44 -6.350501 -5.28 -8.022 -9.04 -5.686 
-11.5365 -9.634501 -6.1445 -7.5115 -7.877501 -7.577 -8.994 -8.401501 -9.173 -9.04 
-14.6145 -9.8065 -8.614 -8.3925 -7.934 -10.1675 -9.951 -9.39 -9.173 
