-4.759 
n/a 
n/a 
n/a 
n/a 
-4.759 
n/a 
n/a 
n/a 
n/a 
-4.759 
n/a 
n/a 
n/a 
n/a 
-4.759 
n/a 
n/a 
n/a 
n/a 
-3.5715 -2.461 0 -5.9 -8.5515 -6.8475 0 -4.29 -4.3625 -3.0695 -2.8645 -3.9955 -4.9105 -4.5515 
-5.579 -2.461 -5.9 -8.7495 -9.1675 -6.8475 -4.29 -7.6225 -6.2215 -4.5495 -5.568 -9.706501 -7.6325 
-5.579 -8.8955 -8.7495 -9.203501 -9.1675 -9.3745 -7.6225 -9.2495 -7.0915 -6.941 -11.623 -10.251 
-13.1147 -11.823 -9.203501 -9.203501 -11.8691 -10.017 -9.2495 -10.514 -9.354501 -13.179 -12.1675 
-16.0422 -12.277 -9.203501 -11.9277 -12.5116 -11.7402 -10.514 -12.777 -15.8099 -13.7235 
-3.5715 -7.007 -12.16972 0 -4.29 -4.3625 -3.0695 -5.939 -1.4985 -5.2655 -3.3585 0 -3.002 
-10.196 -19.98792 -12.16972 -4.29 -7.6225 -6.2215 -8.123501 -6.923 -5.9285 -7.9915 -3.3585 -3.002 
-24.56792 -20.34872 -16.45972 -7.6225 -9.2495 -11.9801 -8.755001 -9.693001 -8.463 -7.9915 -6.991 
-24.56792 -24.63872 -19.79222 -9.2495 -15.0651 -12.6116 -11.6676 -12.8167 -8.463 -12.1852 
-28.85792 -27.97122 -21.41922 -15.0651 -15.6966 -15.5242 -14.7913 -12.8167 -12.8687 
-3.5715 -2.461 0 -4.546 -12.16972 0 -5.2655 -4.5515 -4.389 -4.3625 0 -3.002 0 
-5.579 -2.461 -4.546 -17.45592 -12.16972 -5.2655 -5.723 -6.055 -7.0115 -4.3625 -3.002 -3.002 
-5.579 -7.078 -17.45592 -17.45592 -17.43522 -5.723 -6.8075 -8.031501 -7.0115 -7.384 -3.002 
-11.2972 -20.34872 -17.45592 -22.72142 -17.89272 -6.8075 -8.729 -8.031501 -10.7158 -7.384 
-24.56792 -20.34872 -22.72142 -23.17892 -18.97722 -8.729 -8.729 -11.901 -10.7158 
-3.5715 -7.007 -12.16972 0 -4.29 -4.3625 0 -5.2655 -5.8995 0 -3.0015 0 
-10.196 -19.98792 -12.16972 -4.29 -7.6225 -4.3625 -5.2655 -6.383 -5.8995 -3.0015 -3.0015 
-24.56792 -20.34872 -16.45972 -7.6225 -7.6225 -8.392 -6.383 -6.383 -9.512501 -3.0015 
-24.56792 -24.63872 -19.79222 -7.6225 -9.876501 -8.872 -6.383 -9.803 -9.512501 
-28.85792 -27.97122 -19.79222 -9.876501 -10.9005 -8.872 -9.803 -9.803 
