-4.759 
n/a 
n/a 
n/a 
n/a 
-4.759 
n/a 
n/a 
n/a 
n/a 
-4.759 
n/a 
n/a 
n/a 
n/a 
-4.759 
n/a 
n/a 
n/a 
n/a 
-4.4515 -1.7695 -4.237 -1.7565 -2.3335 -6.3855 -4.2485 -3.6615 -1.7695 -4.2065 -1.4985 -4.0435 -4.385 -1.7565 -3.429 -4.0645 0 
-6.673 -5.834001 -5.8415 -4.314 -8.5985 -9.174001 -6.466001 -4.667 -4.563 -4.732 -5.091001 -9.327001 -4.933 -6.4965 -9.750501 -4.0645 
-10.5325 -8.6225 -8.4415 -10.674 -11.5022 -11.3933 -8.448001 -7.565001 -5.081501 -8.3575 -10.0605 -9.724001 -10.2275 -13.3576 -9.750501 
-13.6858 -11.1585 -15.0659 -13.5777 -13.7215 -13.3753 -10.7495 -8.128501 -8.764001 -13.9412 -10.5417 -15.4273 -17.2328 -13.3576 
-16.2218 -17.7829 -17.9696 -15.797 -15.7035 -15.6768 -11.313 -12.0398 -14.3383 -14.4224 -16.245 -22.4326 -17.2328 
-1.4985 -3.741 -3.277 -2.186 -4.5715 -2.3335 -1.4985 -4.237 -1.934 -4.4515 -4.7075 -1.4985 -3.4625 -1.7565 -5.473 -4.1445 -4.641 -3.893 -4.142 0 
-4.967 -6.0885 -5.2315 -6.3815 -5.932 -3.3515 -5.154 -6.133 -7.154 -10.375 -5.6415 -4.940001 -4.9855 -6.873001 -7.984 -8.203001 -5.812 -8.954 -4.142 
-7.3835 -8.418501 -9.054001 -7.334001 -6.548501 -7.1005 -6.8155 -11.9938 -13.6361 -11.309 -9.1525 -5.959001 -9.208 -9.521001 -12.2639 -9.338501 -10.19 -8.954 
-8.855 -12.4224 -9.551001 -7.8535 -10.3155 -8.9805 -12.9671 -18.4759 -14.5701 -14.82 -9.932501 -10.181 -12.5046 -13.9735 -13.3994 -13.8043 -10.19 
-12.9359 -12.9194 -12.1153 -11.8239 -12.6223 -15.4133 -19.4492 -19.4099 -18.0811 -15.6 -14.2541 -13.0522 -16.9571 -15.109 -17.8652 -13.8043 
-3.9345 -1.7695 -2.3335 -1.4985 -4.008 -5.843 0 -4.1455 -4.2485 -3.6615 -2.186 -3.4635 -1.7695 -2.3335 -1.7565 -1.4985 -4.614 0 
-3.94 -4.46 -3.3515 -5.641001 -8.675001 -5.843 -4.1455 -6.0765 -6.466001 -6.337501 -5.495 -4.2045 -4.46 -4.618 -2.4195 -6.087 -4.614 
-6.766 -6.3275 -7.2235 -9.382001 -8.675001 -9.555 -6.0765 -8.304501 -8.689501 -9.389 -5.549 -6.1525 -5.4005 -5.106 -7.440001 -6.087 
-8.606501 -10.6735 -11.3431 -9.382001 -12.584 -11.649 -8.304501 -10.6465 -11.842 -9.427501 -7.68 -7.62 -5.876 -10.532 -7.440001 
-12.9975 -14.7931 -11.3431 -13.6142 -14.678 -13.877 -10.6465 -13.799 -11.8805 -11.6071 -8.2895 -8.085501 -11.3674 -10.532 
-4.4515 -3.7575 -3.074 -4.593 -3.115 -7.626 -1.756 -4.224 
-8.526501 -7.056 -8.257501 -8.817 -10.5035 -9.061001 -5.701 
-12.2672 -12.5325 -13.0223 -16.3687 -11.9385 -13.1446 
-17.7437 -17.2973 -20.574 -17.8037 -16.0221 
-22.5085 -24.849 -22.009 -21.8873 
