-4.759 
n/a 
n/a 
n/a 
n/a 
-4.759 
n/a 
n/a 
n/a 
n/a 
-4.759 
n/a 
n/a 
n/a 
n/a 
-4.759 
n/a 
n/a 
n/a 
n/a 
-2.7295 -2.7765 -5.043 -5.476 -3.222 -5.0475 0 -4.1335 -5.476 0 -3.689 -5.476 0 
-4.065 -6.9725 -11.4442 -8.101001 -9.106501 -5.0475 -4.1335 -9.0175 -5.476 -3.689 -8.705 -5.476 
-7.586 -13.9123 -14.0692 -14.6145 -9.106501 -11.1355 -9.0175 -9.0175 -9.505501 -8.705 -8.705 
-14.6528 -16.5373 -20.5827 -14.6145 -14.8003 -16.0195 -9.0175 -13.4568 -14.5779 -8.705 
-17.2778 -23.0508 -20.5827 -20.3083 -19.6843 -16.0195 -13.4568 -18.5292 -14.5779 
-5.473 -4.418 -2.7765 -2.489 -4.552 -2.5195 -5.936 -3.892 -1.7695 -5.2415 -5.473 -4.237 -4.31 0 -5.0475 0 -4.31 0 -3.784 -4.237 -4.31 0 -3.644 -4.237 -4.31 -1.756 -4.918 -4.31 
-7.6855 -6.9785 -3.495 -5.8315 -7.9315 -8.3365 -9.2965 -5.7935 -7.646501 -10.6605 -9.139 -9.136 -4.31 -5.0475 -5.0475 -4.31 -4.31 -3.784 -7.665 -9.136 -4.31 -3.644 -6.3665 -9.136 -5.882 -6.9245 -8.6575 
-10.0125 -7.2795 -6.4445 -8.8555 -13.9817 -12.0064 -11.3234 -12.3821 -13.4415 -14.3265 -14.5082 -9.136 -9.561501 -5.0475 -8.6775 -4.31 -8.383501 -7.665 -13.468 -9.136 -8.393001 -6.3665 -12.1631 -10.514 -9.861 -10.564 
-10.2915 -9.633 -9.382001 -15.0949 -17.6516 -14.0333 -17.912 -18.1771 -17.1075 -19.6957 -14.5082 -14.4879 -9.561501 -8.6775 -8.6775 -8.383501 -13.1023 -13.468 -13.468 -13.3194 -11.4697 -12.1631 -13.5411 -14.493 -13.5771 
-12.645 -12.4733 -15.6496 -18.7648 -19.6785 -20.6219 -23.707 -21.8431 -22.4767 -19.6957 -19.8601 -14.4879 -13.4663 -8.6775 -13.1132 -13.1023 -18.9053 -13.468 -17.6514 -16.3961 -17.2663 -13.5411 -17.5201 -18.2091 
-3.5015 -2.5195 -5.936 -1.7695 -5.2415 -2.4945 -4.794 -2.5045 -5.0475 -3.6185 0 -4.1335 -3.7685 -3.6185 0 -4.1335 -3.6185 -1.756 -4.989 -3.6185 0 
-5.965 -8.3365 -7.455501 -7.646501 -6.875501 -5.9735 -7.221 -8.755 -9.896501 -3.6185 -4.1335 -7.246 -7.3935 -3.6185 -4.1335 -8.8095 -5.2365 -6.599 -9.17 -3.6185 
-12.477 -8.754001 -9.340501 -9.953501 -9.840501 -8.2305 -13.8341 -12.9518 -9.896501 -8.485001 -7.246 -11.6514 -7.3935 -8.485001 -8.8095 -9.897 -10.298 -9.76 -9.17 
-12.8945 -9.409 -11.8161 -12.9185 -12.1677 -15.0058 -18.0309 -12.9518 -14.9092 -12.0193 -11.6514 -11.6514 -12.8854 -13.5828 -9.897 -14.9585 -13.459 -9.76 
-13.5495 -11.9328 -14.7811 -15.2457 -18.943 -19.2026 -18.0309 -17.9645 -18.4435 -16.4247 -11.6514 -17.1433 -17.9832 -14.6703 -14.9585 -18.1195 -13.459 
-2.4265 -2.7765 -2.489 -5.1125 -4.8855 -2.5195 -1.4985 -5.936 -1.7695 -1.4985 -4.989 -4.418 0 -3.1495 -2.4945 -1.4985 -4.7 0 -2.4285 -5.0475 0 0 -6.194 0 -5.805501 -1.756 -4.989 -5.819 0 
-4.346 -3.495 -6.468 -10.6345 -5.0115 -3.1695 -6.1495 -7.455501 -2.7955 -5.901501 -6.3745 -4.418 -3.1495 -4.459 -3.9315 -6.002 -4.7 -2.4285 -8.469 -5.0475 0 -6.194 -6.194 -5.805501 -6.962501 -6.599 -8.481501 -5.819 
-4.728 -6.8385 -12.6168 -10.6555 -6.1035 -7.2935 -7.5695 -8.004001 -7.380001 -6.925001 -6.3745 -7.171 -4.459 -5.194 -8.400001 -6.002 -7.4595 -8.469 -8.469 -5.0475 -6.194 -6.194 -8.783501 -6.962501 -8.658001 -9.738501 -8.481501 
-8.699 -13.5193 -12.6378 -11.7475 -9.865001 -7.8765 -8.047501 -9.623501 -8.23 -6.925001 -8.8315 -8.234 -5.194 -9.0765 -8.400001 -8.9425 -9.792001 -8.469 -8.469 -9.8125 -6.194 -8.783501 -9.3815 -8.658001 -10.298 -9.738501 
-15.4168 -13.5403 -13.7298 -15.509 -10.126 -8.1715 -9.6295 -9.935 -8.23 -9.034 -10.0005 -8.969501 -9.0765 -9.0765 -10.4945 -10.4585 -9.792001 -8.469 -10.575 -9.8125 -8.783501 -9.3815 -10.362 -10.298 -10.298 
