-4.759 
n/a 
n/a 
n/a 
n/a 
-4.759 
n/a 
n/a 
n/a 
n/a 
-4.759 
n/a 
n/a 
n/a 
n/a 
-4.759 
n/a 
n/a 
n/a 
n/a 
-2.5685 -2.95 -4.84 0 -3.013 -5.651501 -4.3285 -3.9555 
-4.8085 -7.477 -4.84 -3.013 -8.529501 -10.1015 -8.532001 
-10.2595 -7.477 -8.153 -7.7565 -13.2446 -15.0278 
-10.2595 -10.4945 -13.6195 -13.475 -18.1647 
-13.277 -16.306 -19.338 -18.1647 
-2.6165 -5.6745 -1.7695 -5.4905 0 -3.757 -5.058 
-6.7405 -6.941 -6.674 -5.4905 -3.757 -8.422501 
-8.2205 -12.1861 -6.674 -9.683001 -8.422501 
-13.9494 -12.1861 -11.8335 -14.5319 
-13.9494 -17.3456 -16.6824 
-3.757 -4.84 0 -2.6165 -4.175 -1.934 -5.0325 
-8.3935 -4.84 -2.6165 -5.7335 -4.3135 -6.3315 
-8.3935 -7.957 -5.7335 -5.8715 -7.142 
-11.9239 -11.5952 -5.8715 -8.521501 
-15.5621 -11.7332 -8.521501 
-3.757 -1.8085 -6.3235 -4.495 0 -2.6165 -4.1545 -1.7695 -3.9075 
-5.2655 -7.783 -9.035 -4.495 -2.6165 -6.5425 -5.2945 -4.7445 
-12.1148 -9.541 -9.035 -7.349 -6.5425 -7.8125 -7.6885 
-13.8728 -9.541 -11.9416 -11.9308 -7.8125 -10.085 
-13.8728 -12.6096 -16.5234 -13.2008 -10.085 
