-4.759 
n/a 
n/a 
n/a 
n/a 
-4.759 
n/a 
n/a 
n/a 
n/a 
-4.759 
n/a 
n/a 
n/a 
n/a 
-4.759 
n/a 
n/a 
n/a 
n/a 
-2.871 0 -5.512 -2.871 -3.4865 -3.89 0 -4.0395 0 -2.4265 -4.822 -1.7695 -3.135 -3.6615 -3.436 -3.6955 -3.1065 -2.4265 -5.4115 0 
-2.871 -5.512 -8.2605 -6.494 -7.165501 -3.89 -4.0395 -4.0395 -2.4265 -6.2155 -4.8595 -4.779 -5.8525 -6.6615 -7.716001 -6.888 -6.0655 -7.255 -5.4115 
-8.9005 -8.2605 -12.2585 -8.398001 -7.165501 -9.4545 -4.0395 -6.398 -6.2155 -6.283 -7.555 -7.8325 -8.524 -11.5323 -11.1949 -8.913 -11.8544 -7.255 
-11.8998 -12.2585 -14.1625 -8.398001 -13.1512 -9.4545 -6.398 -9.5425 -6.283 -8.667001 -10.7595 -10.8366 -13.771 -15.0112 -13.2199 -14.9147 -11.8544 
-15.8978 -14.1625 -14.1625 -14.8083 -13.1512 -11.8628 -9.5425 -9.7215 -8.667001 -12.0505 -13.7636 -16.0836 -17.2499 -17.0362 -19.2216 -14.9147 
-2.7835 -1.4985 -4.5205 -2.186 -4.225 -2.4285 -2.6165 0 -3.321 -2.925 -3.6915 -1.7695 -6.9 0 
-3.7575 -6.630501 -6.6425 -5.321 -6.0835 -4.3195 -2.6165 -3.321 -5.154 -6.632501 -5.863 -9.524501 -6.9 
-8.566501 -8.281 -9.859 -6.995501 -7.182501 -4.3195 -5.857 -5.154 -8.5725 -8.610001 -14.2776 -9.524501 
-9.701 -11.7809 -11.7121 -7.5295 -7.182501 -7.2475 -7.5785 -8.5725 -10.9096 -17.5442 -14.2776 
-13.5107 -13.634 -12.2461 -7.5295 -9.433001 -8.8765 -11.4908 -10.9096 -19.8438 -17.5442 
-3.135 -3.8625 -1.7695 -4.5205 -4.7615 -1.7695 -3.6615 -3.1495 -4.452 -1.7695 -3.1065 0 
-6.316 -5.2885 -6.7615 -10.8845 -7.074501 -5.614501 -6.803 -8.466001 -6.818 -5.567 -3.1065 
-7.923501 -11.3085 -13.5849 -13.1975 -11.6491 -9.1645 -12.6365 -9.4385 -11.3051 -5.567 
-14.4659 -18.1319 -15.8979 -17.7721 -15.1991 -15.057 -13.609 -14.9112 -11.3051 
-21.2893 -20.4449 -20.4725 -21.3221 -21.0916 -16.0295 -19.0817 -14.9112 
-1.8085 -4.015 -4.6455 -3.969 -3.1425 -5.14 -1.4985 -3.6615 -1.7695 -2.489 -3.793 -3.1065 0 
-4.5105 -8.973001 -7.97 -6.687 -6.9615 -5.8025 -4.9455 -4.667 -3.1405 -4.731 -5.5865 -3.1065 
-9.479501 -12.4819 -11.1846 -10.3165 -7.500501 -9.441501 -5.743001 -6.6695 -5.788 -6.982 -5.5865 
-13.0892 -15.6965 -14.8141 -10.8555 -11.3029 -9.814 -7.560501 -9.355 -8.092 -6.982 
-16.3038 -19.326 -15.3531 -14.6579 -11.6754 -11.3627 -10.621 -11.876 -8.092 
