-4.759 
n/a 
n/a 
n/a 
n/a 
-4.759 
n/a 
n/a 
n/a 
n/a 
-4.759 
n/a 
n/a 
n/a 
n/a 
-4.759 
n/a 
n/a 
n/a 
n/a 
-2.264 -2.3335 -2.95 -5.1475 -4.1585 -2.3335 -2.3615 -4.456 -3.152 -3.383 -3.6885 -3.0415 -2.3335 -4.4765 -1.7565 -2.3335 -3.1425 -3.429 -3.5015 -3.469 -3.277 0 
-4.6785 -4.8245 -8.132501 -8.6125 -5.438 -4.2805 -8.4125 -6.660501 -5.31 -5.3195 -6.916 -4.132 -7.046 -5.1035 -4.314 -4.3795 -5.2435 -4.918 -7.2025 -6.4615 -3.277 
-7.7465 -10.1225 -11.8663 -10.3254 -7.013 -10.375 -11.0162 -9.23 -7.7245 -7.915501 -7.659501 -8.764001 -7.419 -7.703 -6.9775 -6.4565 -6.611 -8.809 -10.442 -6.4615 
-13.2819 -13.8563 -13.5792 -11.9004 -13.3805 -12.9787 -13.5857 -11.7851 -9.699 -8.776 -12.3225 -9.006001 -9.834001 -10.7511 -9.367001 -7.654 -10.238 -12.4505 -10.442 
-17.0157 -15.5692 -15.1542 -18.2679 -15.9842 -15.5482 -16.1408 -13.7596 -10.7625 -13.5722 -12.5645 -11.6054 -12.9881 -13.1406 -10.355 -11.5518 -14.0163 -12.4505 
-2.3615 -3.9235 -3.383 -3.6135 
-5.7745 -8.036 -5.8785 
-9.482 -10.8975 
-12.5179 
n/a 
-2.4265 -4.114 -1.4985 -5.1475 -6.1525 -2.3335 -3.1495 -4.456 -2.7835 -3.6885 0 -3.1425 -3.429 -3.277 -1.7695 -4.0135 0 
-4.5725 -5.8665 -6.692 -12.4046 -6.4345 -4.8015 -6.364 -7.191 -6.9475 -3.6885 -3.1425 -5.2435 -6.405 -4.9945 -4.613 -4.0135 
-6.03 -10.3745 -14.3677 -12.6866 -8.265 -7.8275 -8.932501 -11.551 -6.9475 -7.646501 -5.2435 -7.49 -6.727 -8.1955 -4.613 
-10.374 -18.6562 -14.6497 -14.5171 -10.7575 -10.8486 -13.4355 -11.551 -10.6095 -9.693001 -7.49 -7.82 -9.7915 -8.1955 
-18.6557 -18.9382 -16.4802 -17.0096 -13.7786 -15.3516 -13.4355 -15.213 -12.656 -11.9919 -7.82 -10.7325 -9.7915 
-1.4985 -3.535 -6.6925 -2.7415 -4.384 -3.43 -1.7565 -3.905 -2.872 -2.7415 -4.6525 -2.3345 -1.8085 -3.9305 -3.43 -1.7565 -6.066 -4.8745 -1.934 -1.4985 -3.8315 -4.684 -4.153 -2.3615 -3.913 -3.807 -1.8085 -3.908 -3.668 -1.7565 -4.2535 -1.7565 -4.1955 -4.973 -1.756 -5.1875 -4.9575 -4.16 
-4.255 -10.9315 -9.248 -5.212501 -6.809 -4.9095 -5.3535 -6.6945 -5.264501 -5.9235 -5.126 -3.8605 -4.508 -7.299001 -4.9095 -7.7555 -7.953001 -6.752 -2.6125 -4.604 -6.490001 -5.274 -6.436501 -4.9295 -6.9095 -4.5735 -4.9425 -6.9045 -4.660501 -5.9715 -5.171 -5.464 -7.849 -6.8725 -7.085001 -10.2045 -7.199501 
-12.2247 -13.487 -11.801 -7.3655 -8.2285 -7.193 -7.57 -8.9735 -7.936001 -6.174 -5.9875 -7.139 -7.602 -8.521501 -8.551001 -8.803 -10.1945 -7.199501 -5.003 -6.8395 -6.5775 -7.5565 -9.911001 -7.3865 -7.606 -6.871 -7.036 -7.036 -8.391001 -7.043 -8.0015 -8.8085 -9.387501 -9.178 -10.4035 -10.451 
-14.7802 -16.04 -13.954 -8.789001 -10.2805 -8.722501 -9.961 -11.8872 -8.1745 -6.9395 -8.674 -10.5745 -8.901501 -12.9044 -9.051001 -10.4265 -10.5825 -9.986501 -7.1195 -6.8585 -8.696 -10.575 -12.5504 -8.074 -10.1185 -8.391001 -7.1395 -10.6335 -9.067 -9.8395 -11.7252 -10.0345 -10.5435 -10.533 -10.455 
-17.3332 -18.193 -15.3775 -10.5035 -11.81 -10.543 -12.8747 -12.1257 -9.137501 -9.8915 -10.7575 -11.874 -13.533 -13.4044 -10.61 -10.716 -13.3695 -12.103 -7.134501 -8.7735 -11.7603 -13.2144 -13.2379 -10.476 -11.6385 -8.466001 -10.647 -11.3095 -11.8735 -13.6838 -12.9512 -11.3989 -10.571 -10.5705 
