-4.759 
n/a 
n/a 
n/a 
n/a 
-4.759 
n/a 
n/a 
n/a 
n/a 
-4.759 
n/a 
n/a 
n/a 
n/a 
-4.759 
n/a 
n/a 
n/a 
n/a 
-6.6585 -9.758 -3.959 -3.5455 0 -3.75 -9.3905 0 -4.8625 -1.756 -5.1845 -5.74 -1.934 -12.16972 -3.8145 -3.17 -4.9225 -7.785 0 
-17.1751 -14.1982 -7.2885 -3.5455 -3.75 -14.3279 -9.3905 -4.8625 -6.1675 -7.0085 -5.7465 -7.7355 -15.11012 -15.98422 -7.6585 -7.3465 -13.7217 -7.785 
-21.6153 -17.5277 -7.2885 -5.228001 -14.3279 -14.3279 -14.4502 -6.1675 -10.451 -7.5095 -7.743001 -21.40242 -18.92462 -19.82822 -12.2186 -16.5659 -13.7217 
-24.9448 -17.5277 -9.6295 -16.5271 -14.3279 -19.3876 -15.7552 -10.451 -10.952 -8.7555 -21.41812 -25.21692 -22.76862 -24.38832 -21.438 -16.5659 
-24.9448 -19.8687 -21.3676 -16.5271 -19.3876 -20.6926 -20.0387 -10.952 -12.198 -22.58922 -25.23262 -29.06092 -27.32872 -33.60772 -21.438 
-6.899 -8.27 -2.4945 -1.934 -1.4985 -4.142 -1.756 -4.2775 -3.9035 -1.7565 -1.4985 -3.59 -3.4985 -1.4985 -4.1865 -8.27 -2.4945 -1.934 -1.4985 -3.7745 -3.9035 0 -10.1165 -3.8145 
-10.8215 -9.5465 -4.2645 -2.6125 -5.0295 -6.013 -5.581 -7.2095 -4.616 -2.4195 -4.268 -6.621 -4.398 -5.177 -11.117 -9.5465 -4.2645 -2.6125 -4.753 -7.217 -3.9035 -10.1165 -14.2302 
-12.098 -11.3499 -4.935 -5.665 -6.5425 -6.9545 -7.638 -7.2715 -4.895 -5.009 -6.9145 -7.407001 -7.9855 -12.7347 -12.3935 -11.3499 -4.935 -5.664001 -7.6835 -7.217 -14.9416 -14.2302 
-13.9014 -12.0204 -8.050501 -7.189001 -7.457 -8.2305 -7.691501 -7.525 -6.025 -7.5565 -7.667 -10.6735 -15.6198 -14.0112 -14.1969 -12.0204 -8.031 -8.1405 -7.6835 -19.2693 -19.0553 
-14.5719 -15.1359 -9.568001 -7.97 -8.352501 -8.275001 -7.885001 -8.1075 -8.436 -8.226501 -11.0045 -18.3078 -16.8963 -15.8146 -14.8674 -15.1164 -10.3735 -8.1405 -19.9488 -23.383 
-4.628 -5.939 -8.27 -3.959 -3.5455 0 -3.75 -3.7575 0 -4.1865 -8.27 -2.4945 -3.959 -3.7745 -3.7575 0 -12.16972 -3.1715 0 -2.925 -2.4945 -3.8245 
-5.9615 -10.674 -12.6558 -7.2885 -3.5455 -3.75 -5.4685 -3.7575 -4.1865 -11.117 -9.5465 -7.173 -7.547 -8.234 -3.7575 -12.16972 -15.34122 -3.1715 -2.925 -3.7675 -5.751 
-10.749 -15.0598 -15.9853 -7.2885 -5.228001 -5.4685 -5.4685 -8.632 -11.117 -12.3935 -14.2584 -11.5266 -13.2223 -8.234 -16.96962 -15.34122 -15.34122 -6.3555 -3.7675 -6.812 
-15.1348 -18.3893 -15.9853 -9.6295 -7.774501 -5.4685 -9.7405 -15.7569 -12.3935 -17.1054 -18.612 -17.2019 -13.2223 -21.69852 -20.14112 -15.34122 -18.52522 -7.0825 -6.812 
-18.4643 -18.3893 -18.3263 -12.615 -7.774501 -9.7405 -16.9802 -17.0334 -17.1054 -21.459 -24.2873 -17.2019 -26.68682 -24.87002 -20.14112 -18.52522 -19.25222 -9.779 
-9.634001 -8.27 -2.4945 -4.4755 -2.5045 -3.5455 -3.641 -3.9035 -1.7565 -6.6585 0 -4.1865 -8.27 -2.4945 -7.499001 -1.934 -3.9535 0 -3.17 -4.008 -2.5045 -12.16972 -3.8145 0 
-18.2228 -9.5465 -6.2685 -7.114 -5.878 -5.18 -8.153 -4.616 -8.343 -6.6585 -4.1865 -11.117 -9.5465 -9.769001 -9.487501 -6.644 -3.9535 -3.17 -8.146 -5.275001 -15.36922 -15.98422 -3.8145 
-19.4993 -13.3539 -9.125 -10.733 -8.032001 -9.047001 -8.3645 -10.6735 -8.343 -10.3615 -11.117 -12.3935 -16.8544 -12.0155 -14.3383 -6.644 -7.721001 -8.146 -8.947001 -18.85352 -19.18372 -15.98422 
-23.3067 -16.2104 -12.8404 -12.887 -12.2836 -9.1405 -14.5148 -10.6735 -12.3568 -17.292 -12.3935 -19.7014 -19.1009 -16.8663 -14.3383 -10.533 -13.0908 -8.947001 -23.22512 -22.66802 -19.18372 
-26.1632 -19.9258 -14.9944 -17.1386 -12.3771 -15.6824 -14.5148 -14.6873 -19.2873 -18.5685 -19.7014 -21.9479 -23.9517 -16.8663 -18.2273 -15.9028 -13.8918 -23.22512 -27.03962 -22.66802 
