-4.759 
n/a 
n/a 
n/a 
n/a 
-4.759 
n/a 
n/a 
n/a 
n/a 
-4.759 
n/a 
n/a 
n/a 
n/a 
-4.759 
n/a 
n/a 
n/a 
n/a 
-4.1715 -1.4985 -4.065 -3.1385 0 -2.9805 -3.074 -4.878 -3.0415 -3.3715 -3.8035 0 
-4.693 -4.824 -6.6145 -3.1385 -2.9805 -4.8805 -7.035 -7.823501 -4.5985 -6.0565 -3.8035 
-8.6715 -6.941501 -6.6145 -5.858 -4.8805 -8.429001 -10.7495 -8.5105 -6.9245 -6.0565 
-11.0968 -6.941501 -8.9235 -7.702001 -8.429001 -12.3989 -11.4365 -9.641001 -6.9245 
-11.0968 -9.015 -10.5135 -11.3865 -12.3989 -13.0859 -12.567 -9.641001 
-3.433 -1.7565 -1.4985 -3.098 -4.031 -1.7565 -3.5645 -3.582 -5.5785 -4.986 -2.5685 -2.3615 -4.8615 0 
-4.1845 -2.4195 -4.123 -5.724 -5.571 -4.9395 -6.387 -9.797501 -9.779501 -7.748 -4.833 -8.9475 -4.8615 
-4.6515 -6.127501 -5.7505 -8.5495 -8.342501 -7.5735 -13.4337 -14.1017 -13.0245 -9.126 -10.131 -8.9475 
-9.1525 -8.891001 -8.617001 -11.4862 -11.6245 -15.11 -17.7379 -17.3467 -14.4025 -14.5512 -10.131 
-10.5535 -11.8381 -11.5897 -14.7682 -19.161 -19.4142 -20.9829 -18.7247 -19.8277 -14.5512 
-2.9805 -4.878 -3.845 -1.7565 -3.8035 -3.433 -2.9805 -2.7415 -2.6165 -2.664 -9.6455 0 
-6.528501 -9.227 -4.13 -5.4625 -6.4975 -4.8755 -4.004 -4.266 -4.827 -13.5279 -9.6455 
-11.1907 -9.33 -6.5575 -8.003 -8.371 -5.7455 -5.5745 -6.0455 -16.2441 -13.5279 
-11.2937 -9.8215 -8.460501 -10.1385 -9.222501 -6.9675 -7.461 -17.8044 -16.2441 
-11.7852 -10.508 -10.4855 -10.99 -10.4685 -8.7465 -19.5387 -17.8044 
-2.9805 -3.251 -4.368 -3.3255 -1.8085 -3.845 -1.7565 -3.2775 -5.009 -3.098 -3.433 -1.7565 -1.4985 -4.031 -2.3335 -2.9805 -2.186 -2.6165 -2.664 -3.6085 -3.6385 0 
-4.429 -5.6405 -5.765 -4.441 -3.9645 -4.13 -4.411 -6.7745 -8.2445 -5.6145 -4.1845 -2.4195 -4.771 -5.4725 -4.1515 -4.1635 -3.5105 -4.827 -5.588 -7.482 -3.6385 
-6.6775 -6.864 -6.649 -6.522501 -4.156 -7.9045 -7.5775 -9.453501 -10.5745 -6.309 -4.6515 -6.0315 -5.9855 -7.174 -5.243 -5.4975 -5.13 -7.7145 -7.96 -7.482 
-7.890501 -7.764 -7.621 -6.7025 -7.967 -10.688 -10.2755 -11.9183 -11.269 -6.68 -8.114 -7.1895 -7.6845 -8.141001 -6.332 -7.210001 -8.2515 -9.7845 -7.96 
-8.9125 -8.975 -7.802 -10.8385 -10.749 -13.386 -13.0985 -12.6128 -11.64 -10.0375 -8.56 -8.972501 -8.658 -9.1925 -8.001 -10.057 -10.4253 -9.7845 
