-4.759 
n/a 
n/a 
n/a 
n/a 
-4.759 
n/a 
n/a 
n/a 
n/a 
-4.759 
n/a 
n/a 
n/a 
n/a 
-4.759 
n/a 
n/a 
n/a 
n/a 
-3.299 -4.4345 -1.7565 -5.1035 -4.4345 -2.8645 -3.699 -4.031 -2.186 -5.033 -1.756 -3.1435 -3.2275 -2.264 -4.0215 0 
-6.094501 -4.719 -6.0955 -9.243 -7.359 -6.553 -6.582 -5.555 -7.5635 -6.356 -4.1365 -6.24 -5.433001 -6.83 -4.0215 
-6.157001 -8.580001 -10.322 -12.7485 -11.7797 -10.3722 -7.4655 -11.6375 -8.827001 -8.468501 -7.5705 -7.285 -10.1765 -6.83 
-9.7145 -13.1721 -13.8275 -17.1692 -15.5989 -11.2557 -14.0968 -12.901 -11.2079 -12.3089 -8.915501 -12.2149 -10.1765 
-14.3168 -16.6776 -18.2482 -20.9884 -16.4824 -17.887 -15.3603 -15.2819 -15.0483 -13.6539 -13.9602 -12.2149 
-1.8085 -3.59 -4.595 -5.033 -2.7415 -1.4985 -3.2275 -1.7565 -1.4985 -3.959 -4.4665 -2.871 0 
-4.973001 -8.801001 -8.661501 -6.999001 -4.063 -4.925 -5.2895 -2.4195 -5.5 -8.463501 -6.8655 -2.871 
-10.3035 -13.1171 -10.8037 -8.538501 -7.637 -5.918 -5.875 -6.073501 -8.797001 -11.2213 -6.8655 
-14.6196 -15.2593 -12.3432 -12.2441 -8.009001 -6.2745 -9.2215 -8.9735 -11.6716 -11.2213 
-16.7618 -16.7988 -16.0488 -12.6161 -8.283 -10.388 -12.4681 -11.9387 -11.6716 
-1.4985 -4.031 -2.356 -2.3615 -3.922 -1.934 -3.6395 -2.186 -5.033 -1.756 -3.6485 -5.0815 0 
-4.771 -6.595 -4.2185 -5.994 -4.558 -6.509 -5.2645 -7.5635 -6.356 -5.1315 -8.808001 -5.0815 
-8.328501 -8.459001 -7.7155 -6.5615 -7.826 -7.916501 -11.5162 -8.827001 -10.135 -10.5975 -8.808001 
-10.134 -12.1536 -8.028001 -9.635 -9.553 -14.8582 -12.7797 -12.8744 -15.601 -10.5975 
-13.8286 -12.4661 -11.2547 -10.3975 -16.5489 -16.1217 -16.8271 -18.3404 -15.601 
-1.4985 -3.59 -2.229 -3.299 -3.6395 -1.7565 -5.8735 -2.186 -4.796 -3.851 -1.7695 -5.3555 -1.756 -3.9685 -4.002 0 
-4.268 -4.966 -5.412 -6.023001 -4.6145 -6.687 -7.588 -5.662 -6.2655 -4.0015 -7.211 -6.81 -5.153 -7.134 -4.002 
-5.127 -7.8025 -8.062 -6.250501 -8.0835 -8.338 -10.089 -6.8235 -6.271 -9.620501 -8.4065 -9.422001 -8.2545 -7.134 
-7.8785 -9.1245 -8.111501 -8.916501 -9.333 -10.147 -10.2055 -6.83 -10.185 -10.2395 -10.138 -9.962501 -8.2545 
-9.198501 -9.13 -9.9665 -10.071 -10.1635 -10.2065 -10.2135 -10.233 -10.245 -10.248 -10.2445 -9.962501 
