-4.759 
n/a 
n/a 
n/a 
n/a 
-4.759 
n/a 
n/a 
n/a 
n/a 
-4.759 
n/a 
n/a 
n/a 
n/a 
-4.759 
n/a 
n/a 
n/a 
n/a 
-1.934 -3.531 -3.2815 0 -1.8085 -5.1405 -4.299 -2.264 -1.8085 -4.0415 -3.918 -1.934 -5.719 0 -4.9875 -4.493 -3.1205 -4.269 0 
-5.012 -5.568501 -3.2815 -1.8085 -6.454 -7.107 -5.322001 -3.5925 -5.514 -6.2795 -5.666 -6.7075 -5.719 -4.9875 -9.244 -7.599 -7.797 -4.269 
-7.9455 -5.568501 -5.87 -6.454 -7.959001 -7.9585 -6.5565 -7.013 -6.9615 -7.0305 -9.9355 -6.7075 -6.992001 -9.244 -12.5752 -10.1815 -7.797 
-7.9455 -8.614 -10.8407 -7.959001 -8.646 -8.869 -8.4005 -7.612501 -7.571 -11.8446 -9.9355 -7.743501 -11.5739 -12.5752 -15.1577 -10.1815 
-11.6142 -13.6873 -12.3457 -8.646 -9.391001 -10.9324 -9.097 -8.328001 -12.5171 -11.8446 -10.6515 -12.6926 -14.9051 -15.1577 -15.1577 
-7.936501 -3.2815 0 -1.934 -12.16972 0 -7.408 0 -4.347 -3.1205 -4.424 -2.3345 -4.889 -4.8115 -4.005 -1.934 -8.3605 -3.4425 
-9.989501 -3.2815 -1.934 -15.11012 -12.16972 -7.408 -7.408 -4.347 -6.6785 -8.151001 -6.764 -7.528 -6.759501 -9.1525 -4.808 -10.1265 -12.0986 
-9.989501 -5.9045 -15.11012 -15.11012 -19.57772 -7.408 -12.2618 -6.6785 -12.402 -10.598 -12.5957 -8.8935 -11.8549 -10.177 -13.6609 -14.2216 
-12.8289 -19.47902 -15.11012 -22.51812 -19.57772 -12.2618 -14.5933 -12.402 -14.849 -16.4297 -13.9612 -14.2719 -12.8794 -19.0299 -17.756 
-26.40342 -19.47902 -22.51812 -22.51812 -24.43152 -14.5933 -20.3168 -14.849 -20.6807 -17.7952 -19.3396 -15.2964 -21.7323 -23.125 
-3.531 -3.2815 0 -4.144 -1.7565 -3.1205 -3.1385 -3.152 -4.493 -3.5455 -1.8085 -4.889 -4.299 -3.2295 -1.8085 -8.377001 -3.918 -1.934 -5.719 0 -4.9875 
-5.568501 -3.2815 -4.144 -5.067 -5.386 -6.5 -5.219 -5.593 -6.4835 -4.781 -5.919001 -6.702001 -7.3405 -4.564 -9.641001 -10.404 -5.666 -6.7075 -5.719 -4.9875 
-5.568501 -7.9215 -5.067 -7.9885 -6.9145 -8.005501 -6.315001 -7.1715 -7.302 -8.791 -7.573501 -10.19 -8.682 -13.4163 -11.8274 -10.7305 -9.9355 -6.7075 -6.992001 
-11.3321 -9.755501 -7.9885 -10.4505 -9.59 -8.392 -7.804501 -8.1555 -10.004 -9.687501 -11.5205 -11.6613 -17.6177 -15.6027 -12.1539 -15 -9.9355 -7.743501 
-13.1661 -12.7996 -10.4505 -13.126 -10.0025 -10.5535 -8.875501 -11.0255 -10.5185 -13.7065 -12.9918 -20.597 -19.8041 -15.9292 -16.4234 -15 -10.6515 
-3.531 -7.1325 -1.7695 -4.889 -12.16972 -4.493 -1.934 -8.815001 -4.0415 -3.9665 
-10.195 -8.0585 -6.472001 -17.99112 -16.66272 -5.1865 -10.564 -13.1471 -6.334 
-9.982 -12.467 -20.34052 -22.48412 -17.35622 -14.9613 -14.8961 -15.4396 
-14.4824 -27.72492 -24.83352 -23.17762 -27.13102 -19.2934 -17.1886 
-29.69272 -32.21792 -25.52702 -32.95242 -31.46312 -21.5859 
