-4.759 
n/a 
n/a 
n/a 
n/a 
-4.759 
n/a 
n/a 
n/a 
n/a 
-4.759 
n/a 
n/a 
n/a 
n/a 
-4.759 
n/a 
n/a 
n/a 
n/a 
-3.3855 -4.657 -1.8085 -3.3435 -4.809 -1.7695 -3.332 -4.522 -2.229 -5.849 -3.3435 
-6.292 -6.3035 -4.977 -9.049 -6.198 -4.6885 -5.084001 -5.650001 -7.565001 -8.4905 
-7.8215 -7.2465 -10.223 -10.075 -8.3595 -6.454 -6.067501 -10.31 -10.504 
-8.6815 -13.4205 -10.7105 -12.2779 -10.1545 -7.273 -10.434 -13.477 
-15.0127 -13.908 -12.9134 -14.0729 -11.1119 -11.8349 -13.71 
-3.332 -4.522 -4.1555 -1.7695 -4.5305 -3.3435 0 -3.321 -3.3855 -2.186 -3.74 -1.7695 -3.595 -2.264 -3.401 -3.3755 0 
-5.084001 -7.68 -4.988501 -6.417 -8.566501 -3.3435 -3.321 -5.572001 -4.4785 -6.689 -4.2995 -4.741 -5.329 -5.8025 -5.6705 -3.3755 
-8.6195 -8.357 -9.592501 -11.0878 -8.566501 -6.418 -5.572001 -7.2165 -9.345 -7.026 -9.46 -6.664001 -9.128501 -8.950001 -5.6705 
-9.1485 -13.299 -14.5467 -11.0878 -12.1164 -8.305 -7.2165 -12.2376 -9.778001 -12.3695 -11.6436 -10.7951 -12.5534 -8.950001 
-14.2111 -18.2532 -14.5467 -14.6377 -14.0034 -9.6315 -12.2376 -12.6706 -15.1215 -14.5531 -15.7747 -14.22 -12.5534 
-3.4765 -3.929 -3.332 -4.522 -4.077 -1.934 -8.4115 -4.2885 -3.3855 -3.5745 -5.651501 -5.302 -2.872 -3.3425 -2.356 -1.4985 -4.2605 0 
-4.589 -6.6035 -5.084001 -8.456 -4.43 -10.7025 -10.4945 -7.334001 -5.348001 -9.1155 -9.592001 -8.0595 -7.4505 -5.453 -3.1615 -4.8355 -4.2605 
-7.152 -8.170501 -9.602501 -8.642 -13.9551 -12.7855 -13.8612 -9.375501 -8.903001 -13.28 -13.185 -12.7882 -8.982 -6.53 -6.4315 -4.8355 
-8.506001 -13.047 -9.965501 -18.7969 -16.0381 -16.1522 -15.9027 -13.0464 -15.2007 -16.4472 -17.9137 -14.3197 -9.567501 -9.146501 -6.4315 
-13.4407 -13.41 -20.2034 -20.8799 -19.4048 -18.1937 -19.5736 -19.6116 -17.8777 -21.1759 -19.4452 -14.9052 -12.3706 -9.146501 
-3.3855 -2.186 -5.5885 -2.0935 -3.332 -4.4915 -5.547 -1.7695 -3.332 -4.522 -1.934 -5.2655 -1.7565 -3.091 -6.7825 -4.7275 0 
-4.4785 -7.0225 -6.511001 -4.7045 -7.625501 -8.127501 -6.0445 -4.6885 -5.084001 -6.3655 -5.303 -5.3035 -4.0655 -8.2215 -9.475 -4.7275 
-8.5305 -7.4575 -7.896501 -8.804001 -10.199 -8.648001 -7.627501 -6.454 -6.787001 -9.113501 -5.307 -6.781 -9.0135 -10.553 -9.475 
-8.6645 -8.832001 -12.2984 -11.5303 -10.342 -10.533 -8.7565 -7.942 -9.4005 -9.118001 -6.786 -12.071 -11.3534 -10.553 
-9.5245 -13.2851 -15.0247 -11.6733 -12.227 -11.662 -10.3605 -10.199 -9.401501 -9.847501 -12.0778 -14.4109 -11.3534 
