-4.759 
n/a 
n/a 
n/a 
n/a 
-4.759 
n/a 
n/a 
n/a 
n/a 
-4.759 
n/a 
n/a 
n/a 
n/a 
-4.759 
n/a 
n/a 
n/a 
n/a 
-4.5635 -2.7765 -3.074 -2.489 -4.4155 -2.5045 -3.594 
-7.486501 -4.359 -4.381 -6.0695 -6.2935 -6.194 
-9.124001 -4.9485 -7.3795 -7.461 -10.4626 
-9.277 -8.791 -8.774 -11.8289 
-13.2113 -9.541 -13.2319 
-1.4985 -4.3615 -2.742 -2.489 -3.9205 -2.5045 -4.5635 
-5.6615 -7.0185 -3.301 -5.5325 -4.449 -7.191 
-7.542 -7.187 -6.648 -5.9405 -9.4715 
-7.718 -11.4058 -6.994 -11.4572 
-12.0704 -11.7518 -12.5787 
-4.8255 -2.4945 -3.074 -3.849 -2.5045 -3.594 
-6.5745 -4.4205 -5.417 -6.305 -6.194 
-8.386 -6.794001 -7.559 -10.3105 
-10.75 -8.6125 -11.5245 
-12.5685 -12.5886 
-4.8255 -2.4945 -3.074 -3.849 -2.5045 0 -9.236501 0 0 
-6.5745 -4.4205 -5.417 -6.305 -2.5045 -9.236501 -9.236501 0 
-8.386 -6.794001 -7.559 -6.305 -12.6584 -9.236501 -9.236501 
-10.75 -8.6125 -7.559 -16.5625 -12.6584 -9.236501 
-12.5685 -8.6125 -17.7765 -16.5625 -12.6584 
