-4.759 
n/a 
n/a 
n/a 
n/a 
-4.759 
n/a 
n/a 
n/a 
n/a 
-4.759 
n/a 
n/a 
n/a 
n/a 
-4.759 
n/a 
n/a 
n/a 
n/a 
-3.5315 -3.0575 -4.184 -6.899 -4.753 -3.818 -1.756 -4.7535 -5.981 -10.5165 -7.5475 -4.9385 -3.091 -4.4205 -4.184 -5.8285 -1.934 -3.6035 -4.048 -3.5125 
-5.4975 -6.0635 -11.4626 -9.238501 -7.779 -5.3925 -6.311 -8.1155 -17.3045 -18.183 -12.9656 -7.275001 -8.123501 -8.7165 -9.4265 -7.553 -5.9875 -6.627501 -7.6055 
-7.851501 -13.8999 -13.8021 -12.8449 -9.1155 -9.9895 -9.998001 -19.7122 -24.971 -23.6011 -15.3021 -12.8769 -10.1 -14.16 -10.719 -9.373 -8.433001 -9.674001 
-15.9877 -16.2394 -17.4085 -14.1814 -13.7095 -13.6765 -21.5947 -27.3787 -30.3891 -25.9376 -20.904 -14.8534 -15.6939 -15.4525 -12.539 -12.7061 -9.790001 
-18.3272 -19.8458 -18.745 -18.7754 -17.3965 -25.2732 -29.2612 -32.7968 -32.7256 -31.5395 -22.8805 -20.4473 -16.9864 -17.2725 -15.8721 -14.0631 
-3.5315 -9.716001 -2.229 -4.753 -4.7535 -5.981 -9.860001 -7.155 -4.0875 -4.4205 -6.1615 -1.934 -3.6035 -4.753 0 
-12.2625 -12.201 -6.767 -9.0305 -8.1155 -16.648 -10.3045 -9.457001 -8.699 -9.669001 -7.0125 -5.9875 -6.837501 -4.753 
-16.4582 -17.8148 -11.7907 -10.276 -19.0557 -17.0925 -12.6065 -14.3873 -14.3953 -10.4965 -9.005501 -7.710001 -6.837501 
-21.2376 -22.8385 -13.0362 -21.2162 -19.5002 -19.3945 -17.5368 -20.0836 -15.2228 -12.4895 -9.427501 -7.710001 
-26.2613 -24.084 -23.9764 -21.6607 -21.8022 -24.3248 -23.2331 -20.9111 -17.2158 -12.9115 -9.427501 
-1.4985 -4.7535 -5.981 -1.7565 -6.899 -4.753 -3.515 -3.741 -9.407001 -7.155 -4.662 -3.091 -7.4795 -5.8285 -2.264 -1.4985 -4.795 -1.7565 -3.5315 0 
-5.9145 -8.1155 -7.8065 -8.5275 -9.238501 -6.6815 -7.156 -13.717 -17.0162 -10.4765 -7.135 -8.451 -9.852501 -8.381001 -2.9195 -5.8135 -6.674 -5.2425 -3.5315 
-9.580501 -9.767001 -15.2831 -11.0566 -9.722 -10.068 -17.267 -21.3262 -20.3377 -12.9495 -13.1906 -10.1855 -12.405 -8.780001 -6.647 -6.956 -7.8345 -5.2425 
-11.344 -17.169 -17.8122 -11.5401 -13.2291 -20.179 -24.8762 -24.6477 -22.8107 -19.0051 -14.9251 -12.738 -12.804 -13.0033 -7.2145 -8.0395 -7.8345 
-18.746 -19.6981 -18.2957 -15.0472 -23.3401 -27.7882 -28.1977 -27.1207 -28.8663 -20.7396 -17.4776 -13.137 -17.0273 -13.5708 -8.399501 -8.0395 
-3.5315 -3.0575 0 -6.899 -4.753 -4.7535 -5.981 -10.5165 -7.5475 -4.1765 -4.4205 -4.674 -6.1615 -1.934 -3.6035 -4.5185 0 
-5.4975 -3.0575 -6.899 -9.238501 -9.0305 -8.1155 -17.3045 -18.183 -12.2036 -9.245501 -8.466001 -9.83 -7.0125 -5.9875 -7.061501 -4.5185 
-5.4975 -10.7665 -9.238501 -14.0964 -10.276 -19.7122 -24.971 -22.8391 -17.2726 -13.5546 -13.7924 -10.392 -9.005501 -7.9715 -7.061501 
-14.1893 -13.106 -14.0964 -15.3419 -21.8727 -27.3787 -29.6271 -27.9081 -21.5817 -18.881 -14.3544 -12.385 -9.331 -7.9715 
-16.5288 -17.9639 -15.3419 -26.9386 -29.5392 -32.0348 -34.6961 -32.2172 -26.9081 -19.443 -16.3474 -12.7105 -9.331 
