-4.759 
n/a 
n/a 
n/a 
n/a 
-4.759 
n/a 
n/a 
n/a 
n/a 
-4.759 
n/a 
n/a 
n/a 
n/a 
-4.759 
n/a 
n/a 
n/a 
n/a 
-1.8085 -3.852 -4.281 0 -4.841 -3.4735 0 -2.8645 -3.1125 -3.9535 -1.934 -1.8085 -4.8385 -2.356 -3.135 -3.64 -3.819 -1.934 -1.8085 -3.6905 -1.7695 -3.396 -1.4985 -2.688 -4.841 -5.9255 0 
-5.5185 -7.006001 -4.281 -4.841 -6.976 -3.4735 -2.8645 -3.5345 -6.375 -5.3325 -3.2685 -7.2515 -7.581 -4.668 -6.3325 -7.535 -5.237 -3.2685 -4.7325 -5.416 -4.699 -4.7565 -3.702 -7.289001 -9.899 -5.9255 
-8.919001 -7.006001 -9.5705 -6.976 -6.976 -7.0725 -3.5345 -6.69 -7.4495 -6.882 -8.5435 -10.7175 -9.9305 -8.173 -10.5135 -9.129001 -5.552001 -5.824 -6.131 -8.015501 -5.4235 -6.7965 -8.5565 -13.0118 -9.899 
-8.919001 -12.6661 -11.9211 -6.976 -10.31 -8.172501 -6.69 -7.8385 -8.968 -12.5606 -12.2397 -13.067 -13.4355 -12.845 -12.1075 -9.401501 -7.941501 -7.875 -8.5 -8.5775 -7.6405 -12.1414 -14.4207 -13.0118 
-14.6589 -15.0167 -11.9211 -10.31 -11.41 -11.5762 -7.8385 -9.442 -14.805 -16.2568 -14.5892 -16.572 -18.1075 -14.439 -12.38 -11.8746 -9.376 -10.146 -9.132 -10.9481 -13.2498 -18.0056 -14.4207 
-1.8085 -3.993 -3.852 -2.7415 -3.9535 -2.5045 -4.8385 -2.356 -3.7375 -3.64 -4.1065 -1.7695 -3.8095 -1.4985 -4.841 -3.4735 -1.756 -2.688 -3.326 -3.602 -2.264 -4.481 0 
-5.3575 -6.345 -6.776501 -5.83 -5.6505 -8.252501 -7.581 -5.936 -6.395 -7.6715 -5.94 -4.549 -5.2515 -5.937 -6.976 -4.8385 -4.619 -5.546 -5.896501 -5.077 -6.711 -4.481 
-7.1295 -9.096001 -8.825001 -7.4545 -11.9401 -10.485 -10.6215 -9.302501 -9.969501 -10.038 -9.317 -5.863 -9.262 -8.7635 -8.5755 -7.769501 -7.392 -8.528 -7.215 -8.868501 -6.711 
-9.969001 -10.6605 -10.8381 -13.8847 -14.1726 -13.5255 -13.988 -12.9226 -12.4814 -13.415 -10.5542 -9.85 -12.4433 -9.915001 -12.3617 -10.1805 -10.586 -9.6645 -10.1505 -8.868501 
-11.5821 -12.6736 -17.2683 -16.1172 -17.2131 -16.892 -17.6081 -15.4345 -15.8584 -14.6522 -14.5412 -13.0343 -13.5948 -14.0054 -14.7727 -13.3745 -11.7225 -13.3106 -10.1505 
-2.871 -3.852 -3.849 -4.841 -3.4735 -2.7415 -3.9535 -1.934 -4.8385 -2.356 -3.098 -1.8085 -3.7375 -3.64 -1.756 -2.4265 -2.7415 -3.8755 -1.7695 -3.396 -4.481 -3.326 -4.005 -3.881 -3.6055 -3.6905 0 
-6.971001 -6.898001 -8.415 -6.976 -5.7815 -5.83 -5.3325 -6.197 -7.581 -5.195001 -4.5555 -3.8995 -6.395 -5.2805 -3.949 -3.681 -5.065001 -5.463 -4.699 -8.620001 -7.123501 -5.7445 -7.1885 -7.672 -5.384501 -3.6905 
-9.633501 -11.6056 -10.8162 -10.316 -10.476 -6.376501 -8.735001 -8.093 -9.943001 -5.925 -5.2545 -6.6065 -7.659 -7.456 -4.9795 -6.262 -5.922 -8.311001 -9.7655 -11.5337 -8.8295 -8.494 -11.9617 -9.634501 -5.384501 
-14.5371 -14.0068 -14.1562 -15.7055 -11.0225 -9.534 -10.016 -10.5035 -10.673 -6.475 -7.793 -7.8485 -9.1645 -8.825001 -8.176001 -7.251 -8.7825 -13.6231 -12.8414 -13.2397 -10.6215 -13.4046 -13.9242 -9.634501 
-16.9383 -17.3468 -19.5457 -16.252 -14.18 -10.9692 -12.5335 -11.2335 -11.223 -9.120501 -9.203501 -9.486501 -10.2645 -12.0539 -9.0845 -10.1951 -14.1508 -16.699 -14.5474 -15.0317 -16.5495 -15.3671 -13.9242 
-3.852 -1.7565 -4.841 -3.4735 -3.9535 -2.5045 -4.8385 -3.3235 -5.229 -1.934 -2.3335 -3.852 -2.0935 -5.4525 0 -1.756 -2.688 -3.326 -3.602 -2.4945 -6.0135 -1.934 -2.3335 -3.852 
-6.0125 -5.9015 -6.976 -8.277 -5.6505 -8.252501 -9.251 -9.9895 -6.852 -4.359 -7.244 -5.736 -7.375 -5.4525 -1.756 -4.619 -5.546 -5.896501 -5.7205 -7.8465 -7.2925 -4.359 -7.244 
-11.1127 -8.7015 -12.7641 -10.5268 -11.9401 -13.0272 -16.1264 -11.7355 -9.1495 -8.192 -9.0885 -11.9165 -7.375 -6.544001 -4.619 -7.392 -8.528 -8.203001 -11.9727 -8.619 -10.2385 -8.192 
-13.9127 -14.9448 -15.0139 -16.8164 -16.7148 -19.9026 -17.8724 -14.033 -13.1363 -10.054 -15.3278 -11.9165 -8.2255 -10.513 -7.392 -10.586 -10.5035 -14.8138 -12.7452 -11.7476 -14.0715 
-20.156 -17.1946 -21.3035 -21.5911 -23.5902 -21.6486 -20.1699 -18.0198 -14.9983 -16.2933 -15.3278 -12.767 -12.2687 -13.286 -10.586 -12.5615 -17.1143 -15.5863 -15.8738 -15.5806 
