-4.759 
n/a 
n/a 
n/a 
n/a 
-4.759 
n/a 
n/a 
n/a 
n/a 
-4.759 
n/a 
n/a 
n/a 
n/a 
-4.759 
n/a 
n/a 
n/a 
n/a 
-3.2615 -3.2495 -3.4795 -3.6135 -4.5115 -3.7015 -4.489 0 -4.621 -3.0415 -2.925 -3.7555 -4.7565 0 
-5.6585 -5.2115 -7.656 -8.755501 -6.1095 -7.742001 -4.489 -4.621 -8.387001 -4.8045 -5.431 -10.204 -4.7565 
-6.813 -9.517 -13.124 -10.004 -10.5325 -7.742001 -6.757 -8.387001 -9.933001 -7.338 -12.1833 -10.204 
-11.5001 -15.2286 -14.3725 -14.7756 -10.5325 -8.834001 -10.0715 -9.933001 -12.4885 -14.3081 -12.1833 
-17.2117 -16.4771 -19.1441 -14.7756 -12.0699 -12.3407 -11.6175 -12.4885 -19.4586 -14.3081 
-4.489 -5.053 -4.299 -1.7695 -3.852 -1.4985 -3.931 -2.5045 -3.291 -2.341 -3.9765 
-8.596001 -9.476501 -6.4355 -4.341 -4.4535 -5.055 -6.229 -6.342501 -5.924 -4.7385 
-13.3761 -11.764 -9.584001 -4.925 -9.011001 -7.706 -10.569 -9.573001 -7.057 
-15.6636 -14.9125 -9.979501 -9.1975 -11.6294 -12.1658 -13.7995 -10.9436 
-18.8121 -15.308 -14.3956 -11.9449 -16.0892 -15.3963 -15.1701 
-2.356 -1.934 -3.2495 -3.4795 -4.489 -1.756 -4.621 -4.257 -2.229 -3.152 -4.6185 -1.7695 -4.502 -5.3195 
-5.342 -4.821 -5.2115 -8.6905 -6.2105 -6.6635 -8.797501 -5.842 -5.943501 -5.948501 -4.987 -5.2865 -8.877501 
-7.822001 -6.436501 -10.733 -10.789 -7.7605 -10.9812 -11.2145 -10.2865 -8.738501 -6.0325 -8.0825 -9.3955 
-9.031 -11.944 -12.8315 -12.339 -12.245 -13.3982 -15.659 -13.0815 -8.804501 -9.183001 -12.6637 
-14.8105 -14.0425 -14.3815 -16.8235 -14.662 -17.8427 -18.454 -13.1475 -12.1042 -14.0642 
-1.934 -1.4985 -3.291 -3.2495 -3.4795 0 -4.489 0 -4.621 -4.795 -4.986 -3.8175 -3.354 -3.251 -1.756 -4.9095 -3.4045 
-2.6125 -3.9665 -5.5375 -5.2115 -3.4795 -4.489 -4.489 -4.621 -10.181 -8.523001 -7.5435 -7.704 -6.2235 -4.739 -5.939 -6.7335 
-4.871 -5.5725 -6.815 -5.2115 -8.6905 -4.489 -6.757 -10.181 -13.909 -11.2373 -10.1265 -8.3385 -7.7805 -9.876 -8.185 
-6.249001 -6.8355 -6.815 -10.733 -8.6905 -6.757 -12.5942 -13.909 -16.6233 -13.8203 -10.74 -9.8675 -13.0439 -11.3032 
-7.81 -6.8355 -12.3507 -10.733 -11.3355 -12.5942 -16.3222 -16.6233 -19.2063 -14.4338 -12.269 -15.1309 -14.4711 
