-4.759 
n/a 
n/a 
n/a 
n/a 
-4.759 
n/a 
n/a 
n/a 
n/a 
-4.759 
n/a 
n/a 
n/a 
n/a 
-4.759 
n/a 
n/a 
n/a 
n/a 
-4.98 0 -3.687 0 -3.959 -3.254 -3.815 -3.0695 -2.8645 -4.1785 -1.934 -1.4985 -3.158 -1.7565 -3.531 -3.131 -2.0935 -3.6085 -4.278 0 -4.7505 0 
-4.98 -3.687 -3.687 -3.959 -6.818 -7.2215 -8.5485 -4.5495 -6.7765 -6.663 -2.6125 -4.178 -4.71 -5.3905 -4.9165 -5.887 -5.857 -6.738 -4.278 -4.7505 -4.7505 
-8.355 -3.687 -7.877 -6.818 -11.9533 -12.3116 -10.2925 -8.298 -8.796 -7.854001 -5.265 -5.562 -9.051001 -7.1515 -7.7625 -9.651 -9.189001 -6.738 -11.0145 -4.7505 
-8.355 -7.877 -12.1302 -11.9533 -17.0434 -14.0556 -14.041 -10.6507 -9.297 -10.4425 -6.3135 -10.0375 -11.1498 -8.855 -11.7145 -13.1298 -9.189001 -14.0525 -11.0145 
-12.7882 -12.1302 -17.2655 -17.0434 -18.7874 -17.8041 -16.3937 -11.1517 -12.1783 -11.491 -11.2946 -12.3635 -12.8533 -13.2674 -15.1933 -13.1298 -16.7555 -14.0525 
-3.6085 -10.6925 -10.9655 -4.23 -1.7565 -4.9225 -1.934 -3.531 -3.131 0 
-15.3198 -21.658 -15.1955 -5.617 -6.4125 -6.477 -5.012 -4.9165 -3.131 
-26.2853 -25.888 -16.5825 -10.3675 -7.9235 -9.531 -6.372 -4.9165 
-30.5153 -27.275 -21.333 -11.8785 -11.1639 -11.4112 -6.372 
-31.9023 -32.0255 -22.844 -15.1189 -13.0441 -11.4112 
-3.1385 -5.037 -2.0935 -3.6085 -4.278 -1.934 -3.531 -3.131 -3.152 -4.7505 
-7.04 -7.41 -5.857 -6.738 -6.962501 -5.012 -4.9165 -6.616 -8.547501 
-9.616001 -11.9983 -9.189001 -8.6925 -9.587501 -6.372 -8.588 -10.6735 
-14.2075 -15.3303 -10.635 -11.8579 -11.2727 -9.3415 -12.6931 
-17.5395 -16.7763 -14.411 -13.5431 -14.2422 -13.496 
-4.7505 
n/a 
n/a 
n/a 
n/a 
