-4.759 
n/a 
n/a 
n/a 
n/a 
-4.759 
n/a 
n/a 
n/a 
n/a 
-4.759 
n/a 
n/a 
n/a 
n/a 
-4.759 
n/a 
n/a 
n/a 
n/a 
-1.4985 -3.6115 -4.2315 -4.1445 -6.697001 -12.16972 -3.0695 -2.7415 -1.934 -4.348 -3.43 -2.3615 -3.768 
-4.081 -7.522501 -8.0525 -10.3285 -19.42952 -15.23922 -4.6395 -4.5155 -5.5045 -8.429501 -5.467 -6.117 
-7.898001 -11.6355 -14.3415 -23.42422 -22.49902 -16.80922 -6.139501 -8.179501 -9.177 -10.5135 -7.256001 
-12.1556 -17.9245 -27.43722 -26.49372 -24.06902 -18.30922 -9.4595 -12.3506 -11.614 -12.3025 
-18.4446 -31.02022 -30.50672 -28.06372 -25.56902 -21.62922 -13.8872 -14.7876 -13.403 
-3.6115 -3.705 -4.1445 -3.5445 -12.16972 -2.674 -4.794 -1.4985 -4.348 
-7.729001 -7.514501 -6.882501 -16.63862 -14.84372 -7.0325 -6.5245 -6.117001 
-12.1281 -10.6929 -20.26422 -19.31262 -19.20222 -7.8295 -11.3546 
-15.3065 -24.07462 -22.93822 -23.67112 -19.99922 -12.7694 
-28.68822 -26.74862 -27.29672 -24.46812 -24.93912 
-1.4985 -3.6765 -3.0695 -3.251 -5.895 -1.4985 -4.348 -1.7695 -12.16972 -2.186 -7.285501 -12.16972 -3.0695 -2.7415 -1.4985 -4.1445 -1.7565 -3.6115 -5.6725 
-4.501 -4.7945 -4.7295 -10.389 -7.433001 -6.117001 -6.601 -14.92142 -14.35572 -8.445001 -19.00512 -15.23922 -4.6395 -4.063 -5.555 -5.2675 -5.642 -8.719501 
-5.3435 -6.736 -12.2559 -11.927 -12.4417 -9.170501 -20.39472 -17.10742 -20.60922 -21.76482 -22.30582 -16.80922 -5.8275 -7.906 -7.21 -9.419001 -11.3358 
-7.2695 -14.5304 -13.7939 -16.9357 -15.4952 -23.33902 -22.58072 -23.36092 -33.97934 -24.87912 -23.87582 -17.99722 -9.069 -9.1475 -12.1387 -15.349 
-15.2625 -16.0684 -18.8026 -19.9892 -29.66372 -25.52502 -28.83422 -36.73104 -37.04884 -26.44912 -25.06382 -21.23872 -9.894501 -14.1728 -18.0687 
-1.4985 -4.065 -4.1445 -4.281 -3.5445 -7.731 -3.43 -4.348 -2.5045 -4.559 -2.229 -4.927 0 
-4.824 -7.3965 -7.4645 -6.8795 -8.8345 -11.142 -8.764 -6.9925 -6.876 -5.3525 -6.5085 -4.927 
-8.258501 -9.509001 -9.4825 -12.3395 -12.4363 -16.476 -11.7917 -12.0006 -7.257 -9.885 -6.5085 
-10.5094 -11.5552 -14.9425 -15.9413 -17.7703 -19.5037 -16.7998 -12.3816 -12.1157 -9.885 
-12.5556 -17.0152 -18.5443 -21.2753 -20.798 -24.5118 -17.1808 -17.2403 -12.1157 
