-4.759 
n/a 
n/a 
n/a 
n/a 
-4.759 
n/a 
n/a 
n/a 
n/a 
-4.759 
n/a 
n/a 
n/a 
n/a 
-4.759 
n/a 
n/a 
n/a 
n/a 
-5.1845 -4.4975 -2.7765 -2.489 -3.644 -4.816 -2.6165 -3.098 -3.3255 -4.245 -3.594 -1.756 -5.255 -3.594 -2.872 -3.074 -3.3255 -3.8245 -3.5855 -1.756 -3.5125 0 
-10.2485 -7.361001 -3.495 -5.0815 -6.654 -7.319501 -4.283 -5.8835 -7.1195 -6.769001 -4.8265 -6.4935 -9.792 -6.263 -4.5415 -6.5655 -7.4755 -7.5235 -4.5585 -5.334 -3.5125 
-13.112 -7.757 -6.4845 -7.047501 -9.329 -8.1155 -6.922501 -9.7535 -9.885 -8.108001 -10.27 -11.2393 -12.5308 -7.82 -6.978001 -10.3045 -11.7023 -8.1315 -6.9145 -5.334 
-13.508 -10.7175 -7.628 -9.797001 -10.011 -10.159 -11.1015 -12.6716 -10.5265 -14.1439 -15.0158 -13.9781 -14.0878 -9.740001 -10.597 -14.5313 -12.3103 -11.7521 -6.9145 
-16.4685 -11.861 -10.597 -10.278 -12.2069 -14.4012 -14.0196 -13.3131 -17.0552 -18.8897 -17.7546 -15.5351 -16.0078 -13.3362 -14.8238 -15.1393 -15.9309 -11.7521 
-1.4985 -4.4975 -1.7565 -5.1845 -2.7765 -2.489 -8.805 -2.6165 -3.098 -1.934 -4.6065 -2.872 -2.985 -4.221 -1.756 -3.5125 
-5.694 -5.344501 -6.580501 -8.9405 -3.495 -10.0925 -11.8131 -4.283 -4.746 -6.3965 -7.141 -5.521501 -5.038 -5.2925 -5.334 
-5.894501 -11.0923 -10.6335 -9.708 -11.7689 -13.1006 -13.4796 -5.722 -8.833 -8.4755 -9.882501 -7.9425 -5.982 -8.6215 
-11.6917 -15.1453 -11.401 -17.9819 -14.777 -14.7671 -14.9186 -9.594001 -9.747001 -11.389 -12.3035 -9.073501 -9.6245 
-15.7447 -15.9128 -19.6749 -20.99 -16.4435 -16.2061 -18.7906 -9.7735 -13.3231 -13.81 -13.4345 -12.9794 
-1.7695 -3.3785 -8.1485 -5.547 -2.186 -2.3585 -3.322 -5.547 -3.594 -1.756 -3.074 -2.9635 -1.7565 -5.1845 -4.9225 -3.3435 
-4.1685 -12.7668 -14.0561 -7.4195 -5.2845 -5.1045 -9.809001 -8.970501 -4.8265 -4.566 -6.1995 -4.6005 -6.580501 -9.13 -7.9965 
-13.9198 -18.6744 -15.9286 -10.7726 -8.412001 -12.2775 -13.3389 -10.4855 -7.843 -8.0375 -9.347501 -9.9975 -10.2805 -12.3386 
-19.8274 -20.5469 -19.2817 -13.9001 -15.9958 -15.8074 -14.8539 -13.502 -11.4353 -10.2085 -14.7589 -13.9119 -13.7925 
-21.6999 -23.9 -22.4092 -21.4839 -19.5257 -17.3224 -17.8704 -17.0943 -13.6063 -15.9827 -18.6733 -17.4239 
-1.4985 -12.16972 -3.9745 -1.7565 -2.7765 -2.489 -4.816 -2.6165 -3.098 -2.3345 -5.1845 -4.245 -4.8125 0 -2.872 -3.074 -2.3345 -4.4525 -1.4985 -5.2225 -1.7565 -3.277 -3.6245 0 
-14.76202 -16.14422 -4.5865 -6.423501 -3.495 -5.6005 -7.319501 -4.283 -5.214 -7.449 -7.991 -7.886001 -4.8125 -2.872 -4.5415 -5.7025 -6.4995 -5.323501 -7.043 -6.714 -4.25 -5.943501 -3.6245 
-18.73652 -16.75622 -9.723001 -7.396 -6.390501 -7.906 -8.1155 -6.241 -11.0869 -10.7625 -11.9514 -7.886001 -7.2395 -4.5415 -6.273 -9.2475 -7.261 -11.3192 -7.285501 -10.0597 -7.1755 -5.943501 
-19.34852 -21.89272 -10.6905 -10.0675 -8.9545 -8.546 -8.950001 -12.3901 -14.4004 -14.7229 -11.9514 -10.63 -8.2235 -6.273 -9.6995 -10.0165 -13.3489 -11.5617 -10.7262 -12.9852 -7.1755 
-24.48502 -22.86022 -13.362 -12.6961 -9.368001 -9.4195 -15.2173 -15.7036 -18.3608 -14.7229 -14.6954 -11.614 -9.8235 -9.6995 -10.3905 -16.1044 -13.5914 -15.0024 -13.6517 -12.9852 
