-4.759 
n/a 
n/a 
n/a 
n/a 
-4.759 
n/a 
n/a 
n/a 
n/a 
-4.759 
n/a 
n/a 
n/a 
n/a 
-4.759 
n/a 
n/a 
n/a 
n/a 
-3.0365 -2.4945 -2.9965 -4.9225 -1.934 -3.676 -1.756 -2.7035 -4.9225 -1.934 -3.691 -2.4945 -4.986 -2.3345 -5.0185 -4.599 0 
-3.688 -6.205501 -8.467001 -6.477 -4.7985 -5.0365 -5.077 -8.566501 -6.477 -4.8225 -6.250501 -7.977 -6.164 -7.483001 -5.1395 -4.599 
-6.696001 -12.2472 -9.913501 -9.084001 -6.0785 -8.809501 -11.5242 -10.335 -7.7745 -6.921501 -12.2834 -8.526 -12.1617 -7.5835 -5.1395 
-12.9467 -13.6937 -13.3011 -9.928 -10.1675 -15.6419 -13.2927 -11.9007 -9.530001 -12.9118 -12.8324 -14.6461 -12.2622 -7.5835 
-14.3932 -17.0813 -14.1451 -14.017 -16.9999 -17.4104 -14.8584 -13.6562 -15.5605 -13.4608 -18.9525 -14.7466 -12.2622 
-2.9965 -3.1385 -1.934 -3.676 -1.756 -2.7035 -3.1385 -1.934 -3.691 -2.7415 -4.4465 -2.356 -2.3615 -4.05 
-6.121 -4.522 -4.7985 -5.0365 -5.077 -5.901 -4.522 -4.8225 -6.588 -6.5275 -6.6665 -4.2185 -5.97 
-7.4585 -6.740001 -6.0785 -8.809501 -8.303 -7.462 -7.262001 -7.331501 -9.896 -8.386001 -8.1295 -6.919 
-10.442 -8.0255 -10.1675 -12.4207 -9.529 -10.6144 -10.0315 -10.5225 -11.6167 -10.0775 -9.030001 
-11.9809 -12.3437 -13.7787 -13.6467 -12.7768 -13.3839 -13.2225 -12.2432 -13.3082 -10.978 
-2.9965 -3.1385 -1.934 -1.4985 -2.791 -1.756 -4.0155 -1.934 -3.691 -2.674 -3.1125 -4.4465 -2.3345 -5.0185 -4.599 
-6.121 -4.522 -2.6125 -4.3645 -4.6785 -5.546 -6.175 -4.8225 -6.7065 -3.6315 -6.108 -4.897501 -7.483001 -5.1395 
-7.4585 -5.087501 -4.900001 -5.429501 -8.871 -7.502 -8.8975 -7.250501 -7.5735 -6.413 -6.283 -8.475 -7.5835 
-8.041 -6.8065 -5.776 -9.319 -10.31 -9.466001 -11.7235 -8.033001 -10.1145 -6.5975 -9.472 -8.526501 
-9.8275 -8.005501 -9.6005 -10.335 -10.728 -12.3856 -12.506 -10.7025 -10.244 -10.2175 -9.4805 
-2.9965 -1.934 -3.676 -1.756 -2.7035 -1.934 -3.691 -2.4945 -4.4465 -2.3345 -2.3615 -4.05 0 
-5.558001 -4.7985 -5.0365 -5.077 -5.1845 -4.8225 -6.250501 -5.7985 -4.897501 -4.499 -5.97 -4.05 
-8.226501 -6.0785 -8.809501 -6.9825 -8.595501 -6.921501 -9.238501 -6.018 -6.1875 -7.5265 -5.97 
-9.826 -10.1675 -9.844001 -9.765 -10.8413 -9.405001 -9.332001 -7.130001 -7.923501 -7.5265 
-14.1454 -11.202 -12.8617 -12.0206 -13.3248 -9.458501 -9.633 -8.7725 -7.923501 
