-4.759 
n/a 
n/a 
n/a 
n/a 
-4.759 
n/a 
n/a 
n/a 
n/a 
-4.759 
n/a 
n/a 
n/a 
n/a 
-4.759 
n/a 
n/a 
n/a 
n/a 
-1.934 -3.0105 0 -1.4985 -3.0415 -3.849 -7.6355 -1.7565 -3.9745 -2.8645 -3.9535 -3.571 -3.8825 -4.221 -1.756 -1.4985 -3.7715 -2.4945 -4.8695 -4.732 -3.5195 -3.3245 0 -2.8845 0 
-4.827 -3.0105 -1.4985 -5.258 -4.942 -10.143 -8.186501 -5.221 -6.438 -5.669 -7.2475 -6.884501 -8.288 -5.442 -3.0405 -5.468 -5.481 -6.3915 -9.2985 -7.328001 -4.822001 -3.3245 -2.8845 -2.8845 
-4.827 -4.7935 -5.258 -5.3215 -11.6394 -10.8772 -8.25 -7.747 -9.564501 -8.4515 -10.254 -10.564 -9.758501 -6.563 -7.0105 -6.8935 -10.031 -10.5325 -12.1085 -8.3325 -4.822001 -4.9175 -2.8845 
-5.863 -8.868 -5.3215 -12.0109 -12.3736 -10.9407 -11.2194 -10.9843 -12.5264 -11.6968 -13.9335 -12.0345 -10.9959 -10.949 -8.3155 -11.6683 -14.3294 -13.3425 -13.113 -8.3325 -5.6485 -4.9175 
-9.67 -8.926001 -12.0109 -12.7451 -12.4371 -13.9101 -14.4567 -13.9462 -15.7717 -15.3763 -15.404 -13.2719 -15.3819 -12.254 -13.1939 -15.9667 -17.1394 -14.347 -13.113 -9.369 -5.6485 
-1.934 -3.0105 -2.664 -4.437 -2.7415 -3.9535 -2.3345 -1.4985 -4.7145 -3.922 -7.6355 -3.943 -1.7695 -3.857 -1.4985 -2.688 -4.2405 -5.181 -1.7565 -1.4985 -3.188 -2.5195 -1.8085 -4.0785 -1.7565 -3.8605 -4.066 -5.449 -2.0935 -4.2085 
-4.827 -6.171 -5.8335 -6.4865 -5.83 -5.226501 -3.233 -5.6595 -8.252501 -10.9315 -8.5675 -5.929 -4.747 -4.9445 -3.702 -7.1095 -6.6615 -5.823 -2.4195 -3.619 -5.831 -3.8815 -5.174 -4.595 -5.5915 -8.4965 -8.585501 -7.6785 -5.099 
-7.272 -9.059 -8.348001 -8.275001 -6.5635 -6.679 -6.8105 -9.364 -15.7266 -11.8635 -10.335 -9.601501 -5.628 -7.5205 -7.646501 -7.679501 -6.83 -6.1715 -4.4095 -6.002 -6.995 -6.7505 -5.373 -8.8415 -9.913001 -10.7025 -10.533 -10.76 
-9.9175 -10.3475 -9.465 -8.936001 -7.388 -10.1385 -10.3405 -16.9423 -16.6586 -13.631 -10.5335 -10.0145 -8.222 -10.0465 -7.87 -7.780001 -6.966 -6.639 -6.8555 -7.1105 -10.151 -6.796 -9.262501 -10.758 -10.737 -12.65 -13.6145 
-10.706 -11.4645 -10.244 -9.4475 -10.6465 -13.7635 -17.9188 -17.8743 -18.4261 -13.8295 -10.56 -10.7565 -10.159 -10.1155 -7.9285 -7.822001 -7.192 -8.912001 -8.2515 -10.292 -10.1665 -10.078 -10.758 -10.778 -12.6845 -15.7315 
-2.3615 -3.989 -3.251 -3.788 -3.9535 -1.4985 -3.486 -4.221 -2.9705 -2.186 -3.849 -2.688 -2.743 -8.893001 -1.7565 -3.9745 -1.934 -4.509 -3.7715 -2.4945 -4.3285 -4.732 -10.8275 0 
-6.654 -7.274 -5.3545 -6.122 -5.435 -3.5655 -7.7305 -6.527 -3.89 -4.8565 -6.642 -6.2535 -10.6095 -9.788501 -5.221 -5.9335 -6.610001 -8.763 -5.481 -5.63 -8.409 -10.9635 -8.7915 
-9.4255 -9.213 -7.140501 -7.4605 -7.8125 -7.765 -10.016 -7.365 -6.3545 -8.064 -10.513 -14.8188 -10.7375 -13.5062 -6.718 -10.2075 -10.2915 -10.6475 -7.155 -9.396501 -15.2871 -11.0715 
-11.5941 -11.073 -8.383 -10.134 -12.5902 -10.071 -10.854 -10.1895 -9.5515 -12.1106 -19.0783 -14.9468 -14.4552 -15.0032 -11.0745 -14.6185 -11.6045 -12.888 -10.138 -16.2642 -15.2871 
-13.4541 -12.3155 -11.0841 -14.9117 -14.8962 -10.909 -13.6785 -13.3865 -13.6357 -20.6759 -19.2063 -18.6645 -15.9522 -19.3597 -15.67 -15.7645 -14.1245 -15.9868 -17.0057 -16.2642 
-1.934 -3.0105 -3.8665 -2.688 -2.743 -5.181 -1.7565 -3.9745 -3.849 -1.934 -3.5195 -3.3245 -2.8845 -3.5725 -4.2675 0 
-4.827 -7.3785 -7.629001 -6.2535 -6.565001 -5.823 -5.221 -8.165001 -5.735 -5.009 -4.822001 -4.9175 -7.204 -7.3835 -4.2675 
-8.990001 -11.6128 -11.7147 -7.627001 -7.1095 -7.187 -8.883 -10.1635 -9.088 -7.8205 -5.6485 -9.3915 -11.3662 -7.3835 
-13.6617 -15.6985 -13.0882 -7.782501 -8.007501 -11.2532 -11.0059 -13.7245 -12.0749 -9.058001 -10.494 -13.6423 -11.3662 
-17.7474 -17.072 -13.2437 -8.22 -12.6449 -13.3761 -14.5669 -16.7114 -13.3124 -14.0373 -14.7448 -13.6423 
