-4.759 
n/a 
n/a 
n/a 
n/a 
-4.759 
n/a 
n/a 
n/a 
n/a 
-4.759 
n/a 
n/a 
n/a 
n/a 
-4.759 
n/a 
n/a 
n/a 
n/a 
-1.934 -4.1855 -2.229 -3.0365 -2.7415 -1.8085 -5.949 -1.934 -1.4985 -3.1715 -5.8935 -3.7095 -2.9705 -3.43 -5.9565 0 -4.4925 -1.756 -1.4985 -4.142 -4.1755 -2.674 -2.985 -3.5205 -6.1555 0 
-5.408 -5.8465 -5.671 -4.2225 -3.891 -7.934501 -7.7275 -2.6125 -3.994 -9.665001 -9.3505 -6.714 -5.781 -10.7025 -5.9565 -4.4925 -5.864 -3.0405 -5.0295 -4.9875 -7.065001 -5.042 -4.257 -8.738001 -6.1555 
-7.843501 -7.9525 -7.109 -4.725 -9.846001 -9.403001 -8.410001 -4.939 -11.2937 -13.2692 -12.7008 -9.5745 -13.4309 -10.7025 -11.5074 -5.864 -6.736001 -6.4125 -6.2895 -7.623001 -8.955001 -5.6365 -8.8035 -8.738001 
-10.146 -8.4215 -7.476501 -10.6595 -11.4855 -9.8575 -10.7025 -12.4389 -14.8979 -16.6195 -15.5613 -17.4084 -13.4309 -16.2534 -12.8789 -6.736001 -8.466001 -7.564 -10.0488 -9.151501 -9.097001 -9.444 -8.8035 
-10.756 -8.6995 -13.5374 -12.299 -11.94 -12.2426 -18.2024 -16.0431 -18.2482 -19.48 -23.3952 -17.4084 -18.9818 -17.6249 -13.7509 -8.466001 -8.6765 -11.5971 -11.5773 -9.195001 -13.0621 -9.444 
-1.934 -4.1855 0 -3.766 -4.1 -2.7415 -6.436 0 -3.5205 -6.1555 -2.0935 -4.4755 0 -4.4925 -1.756 -3.5455 -4.1755 -2.7415 -4.5485 0 
-5.408 -4.1855 -3.766 -7.095 -6.363 -7.4565 -6.436 -3.5205 -8.738001 -8.2115 -6.0725 -4.4755 -4.4925 -5.864 -5.308001 -7.245 -6.868001 -5.5565 -4.5485 
-5.408 -8.0465 -7.095 -9.165501 -10.494 -7.4565 -10.8621 -8.738001 -10.7025 -10.168 -6.0725 -5.9435 -5.864 -8.384501 -8.937 -10.3285 -8.959001 -5.5565 
-9.660501 -11.9067 -9.165501 -13.4179 -10.494 -12.4874 -16.0796 -10.7025 -12.659 -10.168 -8.2845 -6.984 -8.384501 -9.889501 -12.1935 -12.4195 -8.959001 
-13.7737 -13.9772 -13.4179 -13.4179 -15.5249 -17.7049 -18.0441 -12.659 -12.659 -12.8362 -8.3905 -9.623501 -9.889501 -13.146 -14.2845 -12.4195 
-2.872 0 -1.934 -4.1855 -4.4755 0 -6.0395 0 -1.756 -4.1755 -1.7695 -6.1075 -2.0935 -7.309501 
-2.872 -1.934 -5.408 -8.9135 -4.4755 -6.0395 -6.0395 -1.756 -5.79 -6.362 -7.970001 -8.3215 -8.038 
-4.659 -5.408 -10.575 -8.9135 -11.4936 -6.0395 -7.2645 -5.79 -7.6505 -13.1099 -9.6675 -13.9306 
-8.2405 -10.575 -10.575 -16.2816 -11.4936 -7.2645 -11.8575 -7.6505 -14.6274 -14.8074 -15.387 
-13.6755 -10.575 -17.9431 -16.2816 -12.7186 -11.8575 -13.718 -14.6274 -16.3249 -20.5269 
-3.5455 -5.075 0 -3.766 -4.1 -6.5585 -3.693 -3.034 -4.015 -6.1555 -3.152 -4.5485 -1.934 -4.4755 0 -4.4925 -1.756 -3.5455 -4.1755 
-8.278 -5.075 -3.766 -7.095 -10.8215 -8.474501 -5.8655 -7.781 -9.844501 -8.3865 -6.251 -5.4015 -5.3555 -4.4755 -4.4925 -5.864 -5.308001 -7.245 
-8.278 -9.284 -7.095 -14.2471 -12.7375 -10.223 -10.9099 -13.8391 -12.1367 -11.6955 -6.918 -9.0175 -5.3555 -5.9435 -5.864 -8.384501 -8.937 
-12.5674 -12.7508 -14.2471 -16.1631 -14.486 -15.2674 -16.968 -16.1313 -15.4457 -12.3625 -10.096 -9.0175 -7.5505 -6.984 -8.384501 -9.889501 
-16.0342 -19.9029 -16.1631 -17.9116 -19.5304 -21.3255 -19.2602 -19.4403 -16.1127 -15.5405 -10.096 -11.7155 -7.699501 -9.623501 -9.889501 
