-4.759 
n/a 
n/a 
n/a 
n/a 
-4.759 
n/a 
n/a 
n/a 
n/a 
-4.759 
n/a 
n/a 
n/a 
n/a 
-4.759 
n/a 
n/a 
n/a 
n/a 
-4.9425 -5.1005 0 -3.8385 -1.7565 -1.4985 -7.6355 -3.989 -4.4175 -2.3335 -4.498 -2.0935 -2.743 -5.181 -1.7565 -1.4985 -3.188 -2.186 -1.4985 -3.0835 -4.4225 -3.3755 -1.934 -2.3615 -4.1545 -1.934 -1.4985 -3.6835 -3.5125 0 
-8.424 -5.1005 -3.8385 -4.716001 -2.4195 -8.1595 -12.8533 -8.653501 -5.0185 -6.983001 -5.73 -5.4875 -6.565001 -5.823 -2.4195 -3.619 -5.1175 -3.339 -3.535 -7.2405 -7.399 -5.0985 -3.539 -5.7745 -6.426 -2.6125 -4.7155 -6.175 -3.5125 
-8.424 -8.752001 -4.716001 -5.204 -8.988001 -13.9055 -17.5178 -9.0395 -9.388 -7.8085 -9.589001 -8.8935 -7.1095 -6.1715 -4.4095 -5.318 -6.475 -4.8925 -7.502501 -10.9884 -9.1005 -6.833 -5.7865 -7.4355 -6.9545 -5.813001 -7.990001 -6.175 
-12.5879 -8.947001 -5.204 -12.3675 -14.7646 -18.57 -17.9038 -13.5258 -10.049 -11.9517 -13.1944 -9.0185 -7.304501 -6.639 -6.2545 -6.727 -8.173 -8.904 -11.3076 -12.6899 -10.758 -8.696 -7.447001 -8.0175 -10.3345 -8.64 -7.990001 
-12.7829 -9.5765 -12.3675 -18.1441 -19.4291 -18.956 -22.3901 -14.1868 -14.1922 -15.5571 -13.3194 -9.8465 -7.541501 -8.650001 -7.4635 -8.419001 -12.4975 -13.0755 -13.0091 -14.3474 -12.621 -10.598 -8.028001 -11.7443 -13.1615 -8.64 

n/a 
n/a 
n/a 
n/a 
-4.426 -1.7565 -1.4985 -3.6115 -4.7285 -4.1555 -3.147 0 
-5.47 -2.4195 -4.081 -6.5495 -8.4455 -5.77 -3.147 
-5.9535 -5.180501 -6.670501 -9.978001 -9.541501 -5.77 
-8.462501 -7.797 -10.054 -11.0524 -9.541501 
-10.2375 -11.2985 -11.1648 -11.0524 
-3.188 -2.688 -2.743 -5.181 -4.2245 -1.7565 -5.032 -1.4985 -12.16972 0 
-6.154 -6.2535 -6.565001 -10.66 -5.277 -7.716001 -6.418 -14.76202 -12.16972 
-9.391001 -7.627001 -13.1926 -11.7125 -12.1567 -9.467501 -20.42872 -14.76202 
-9.7895 -15.155 -14.2451 -18.5922 -13.9082 -23.90202 -20.42872 
-17.2711 -16.2075 -21.1248 -20.3437 -28.34272 -23.90202 
