-4.759 
n/a 
n/a 
n/a 
n/a 
-4.759 
n/a 
n/a 
n/a 
n/a 
-4.759 
n/a 
n/a 
n/a 
n/a 
-4.759 
n/a 
n/a 
n/a 
n/a 
-4.0455 -2.229 -4.754 -2.4945 -4.4715 -3.962 -3.325 -1.4985 -3.995 -2.229 -4.1455 0 
-6.483 -6.5 -6.471 -5.7935 -7.4115 -7.0865 -3.898 -4.712 -5.324 -5.863501 -4.1455 
-8.234 -7.669001 -9.559 -8.5375 -10.586 -7.4775 -7.189 -5.586 -6.186 -5.863501 
-9.2445 -11.2594 -12.411 -12.3558 -10.977 -11.2107 -8.2225 -6.2805 -6.186 
-12.7645 -14.1114 -16.2293 -12.7468 -14.7102 -12.2442 -8.441501 -6.2805 
-1.4985 -4.754 -2.4945 -3.757 -1.934 -1.4985 -4.142 -1.7565 -1.4985 -3.995 0 
-5.6035 -6.471 -5.0075 -5.7075 -2.6125 -4.552 -4.797 -2.4195 -4.712 -3.995 
-7.217 -9.0535 -6.487 -6.282001 -5.719501 -4.8755 -5.014 -5.2205 -4.712 
-9.7615 -10.3285 -7.2325 -9.058001 -6.109 -5.057 -8.4665 -5.2205 
-11.0365 -11.074 -9.908 -9.681001 -6.2045 -8.508 -8.4665 
-1.934 -1.4985 -5.1315 -6.351 -5.898 0 -1.4985 -4.634 -1.7565 -5.673 -5.6515 -1.8085 -4.5585 -1.7565 -1.4985 -4.0455 -1.7565 -3.3435 
-2.6125 -6.285501 -8.7085 -6.451 -5.898 -1.4985 -5.466001 -6.2255 -7.072001 -12.2301 -6.341 -5.969 -5.0825 -2.4195 -5.133 -5.615 -4.4105 
-7.1295 -10.426 -8.711 -6.451 -7.449 -5.466001 -6.5415 -10.513 -14.0761 -12.9196 -8.901501 -6.1905 -5.548 -5.8915 -6.107501 -6.021501 
-11.7538 -10.439 -8.711 -8.177 -10.223 -6.5415 -11.0884 -17.5171 -14.7656 -15.4801 -8.922501 -6.537 -7.539501 -6.792 -6.346001 
-11.7668 -10.439 -10.6095 -11.6534 -12.2041 -11.0884 -18.0925 -18.2066 -17.3261 -15.5011 -9.946 -9.4325 -9.5895 -6.9675 
-4.442 -4.6905 -4.138 -3.047 -1.934 -3.873 -3.6445 0 
-8.972 -8.983 -7.9345 -5.078 -5.96 -8.0755 -3.6445 
-13.6935 -13.1949 -10.2267 -10.0035 -10.8373 -8.0755 
-17.9054 -15.4871 -15.1522 -14.8808 -10.8373 
-20.1976 -20.4126 -20.0295 -14.8808 
