-4.759 
n/a 
n/a 
n/a 
n/a 
-4.759 
n/a 
n/a 
n/a 
n/a 
-4.759 
n/a 
n/a 
n/a 
n/a 
-4.759 
n/a 
n/a 
n/a 
n/a 
-1.4985 -3.4025 -3.152 -3.7855 -3.098 -3.2615 -3.956 
-5.701 -6.7095 -5.473001 -6.5205 -5.4695 -6.0445 
-7.7605 -9.435 -7.9175 -8.130501 -8.5305 
-10.487 -12.3259 -9.7685 -11.5135 
-13.3779 -14.1769 -13.0661 
-4.62 -3.4025 -3.152 -3.7855 -3.2615 -1.4985 -3.956 -1.7565 -1.8085 -4.567 0 
-9.082001 -6.7095 -5.473001 -6.739501 -4.032 -4.8985 -4.932 -3.2595 -5.671 -4.567 
-12.7036 -9.435 -8.273001 -7.263501 -6.1535 -5.16 -5.736 -6.8735 -5.671 
-15.4291 -12.6814 -8.8435 -9.955501 -6.1865 -6.0405 -8.3475 -6.8735 
-18.6755 -13.2519 -11.6873 -9.999001 -7.271 -8.9565 -8.3475 
-1.934 -3.3785 -4.841 -3.7855 -3.098 -3.2615 -1.4985 -5.1795 -3.956 
-4.5895 -7.9685 -8.182 -6.5205 -5.4695 -4.032 -5.916 -8.7475 
-9.615001 -11.7501 -10.4765 -8.130501 -6.1955 -9.158501 -9.882501 
-13.4334 -14.0446 -12.8227 -8.557 -11.4726 -13.1706 
-15.7279 -16.3908 -13.2492 -14.1795 -15.4847 
-4.251 0 -5.6625 -3.152 -4.6475 -3.2615 -1.4985 -3.956 -1.7565 -5.9885 0 
-4.251 -5.6625 -7.879001 -6.121 -7.303 -4.032 -4.8985 -4.932 -7.0565 -5.9885 
-10.907 -7.879001 -9.940001 -8.8585 -7.9755 -6.1535 -5.16 -11.1002 -7.0565 
-13.1235 -9.940001 -12.9929 -9.417001 -10.459 -6.1865 -11.5546 -11.1002 
-15.1845 -12.9929 -13.5514 -11.9211 -10.473 -12.9169 -11.5546 
