-4.759 
n/a 
n/a 
n/a 
n/a 
-4.759 
n/a 
n/a 
n/a 
n/a 
-4.759 
n/a 
n/a 
n/a 
n/a 
-4.759 
n/a 
n/a 
n/a 
n/a 
-3.5035 -1.934 -2.688 -3.9885 -3.6085 -1.756 -4.19 0 -3.5035 -1.934 -6.437 0 -3.6085 -1.756 -3.9685 -2.8645 -1.4985 -3.2895 -1.7695 -2.9645 -2.872 -1.934 -3.2495 -3.468 -3.0365 -2.186 -2.847 -4.377 -3.6885 
-5.214 -4.282 -4.5315 -7.172501 -5.232 -5.7085 -4.19 -3.5035 -5.214 -9.385 -6.437 -3.6085 -5.232 -5.691 -7.4805 -4.3545 -4.862 -4.985001 -3.812 -5.904 -4.659 -4.821 -6.2 -6.303 -3.66 -4.1045 -8.142 -7.434 
-7.198 -5.9495 -8.7805 -9.697001 -6.1555 -5.7085 -7.444 -5.214 -13.5778 -9.385 -10.7039 -5.232 -6.2885 -8.851 -9.0815 -7.2805 -5.677 -6.394001 -6.451 -7.772 -7.6105 -7.2645 -8.731001 -6.8235 -4.256001 -9.0425 -11.3648 
-8.731001 -10.1105 -10.115 -9.7425 -6.1555 -8.957001 -9.0815 -13.5778 -13.5778 -13.7387 -12.3274 -6.2885 -9.227 -10.3815 -12.1407 -7.471 -6.8425 -10.019 -8.493 -10.8737 -10.476 -9.814501 -9.242001 -7.386 -9.085501 -12.3621 
-13.0334 -11.445 -10.1745 -9.7425 -9.742001 -10.2925 -17.5617 -13.5778 -17.9315 -15.3622 -13.3839 -9.227 -10.5135 -13.4407 -12.3312 -8.2895 -10.8465 -12.3516 -11.7821 -13.7392 -13.026 -10.706 -9.809501 -12.4817 -12.4209 
-3.929 -2.688 -3.9885 -2.8645 -4.3155 -1.934 -3.683 -4.8345 -1.7695 -2.9645 -3.6085 -1.756 -4.19 -1.756 -7.5325 -4.078 -3.6085 -1.756 -3.9685 0 -1.934 -3.5155 -1.4985 -3.468 0 -3.6085 -2.186 -2.6165 -4.559 -1.4985 -3.915 -3.7095 
-7.245501 -4.5315 -6.5995 -5.659 -5.585 -5.8605 -8.2755 -5.423501 -3.812 -6.794001 -5.232 -5.7085 -5.763 -9.3655 -12.5271 -7.9375 -5.232 -5.691 -3.9685 -1.934 -4.6585 -4.496 -5.0815 -3.468 -3.6085 -5.869 -3.5105 -6.458 -5.7735 -4.5295 -7.0155 
-9.357 -7.3195 -9.548 -7.14 -9.896001 -10.609 -9.021501 -9.493 -7.423 -8.419001 -6.1555 -7.134 -14.5107 -15.1681 -16.3866 -9.2745 -6.2885 -5.691 -6.3755 -4.6585 -5.471 -8.018001 -5.0815 -5.28 -5.869 -6.579501 -7.0035 -7.636001 -9.107 -8.0345 
-10.2095 -10.4035 -11.1372 -11.5528 -14.6445 -11.355 -13.0946 -13.288 -8.959001 -9.616 -7.469501 -16.0317 -20.3133 -19.0276 -17.7236 -10.486 -6.2885 -7.608 -9.1615 -5.471 -8.72 -8.018001 -9.659 -9.1925 -6.579501 -11.2351 -7.982501 -11.1845 -10.013 
-13.2935 -11.9927 -15.55 -16.3013 -15.3905 -15.4281 -16.8896 -14.824 -10.122 -11.0494 -16.4708 -21.8343 -24.1728 -20.3646 -18.9351 -10.486 -7.942501 -10.0095 -10.1905 -8.72 -8.72 -13.1007 -13.8023 -10.468 -11.2351 -12.2141 -11.6392 -12.0905 
-3.929 0 -1.4985 -4.179 -1.7565 -2.688 -3.9885 -4.111 -3.5155 -3.6085 -1.756 -4.19 -1.756 -1.4985 -4.179 -1.7565 -6.84 -4.111 -3.5155 -3.6085 -1.756 -3.9685 0 -1.7695 -2.489 -3.2955 -2.5045 -4.2915 0 -3.5155 -1.4985 -3.468 -3.013 -2.6165 -2.674 -2.9995 -3.915 -3.6885 0 
-3.929 -1.4985 -5.087 -5.060501 -4.2285 -4.5315 -8.6925 -6.898 -6.3965 -5.232 -5.7085 -5.763 -3.0405 -5.087 -5.060501 -8.045501 -11.6306 -6.898 -6.3965 -5.232 -5.691 -3.9685 -1.7695 -3.1405 -3.979 -4.6545 -7.636001 -4.2915 -3.5155 -4.496 -5.0815 -6.2695 -3.724 -4.2165 -4.4625 -6.407001 -6.26 -3.6885 
-4.8985 -5.087 -5.315001 -7.206501 -5.8425 -9.267 -11.3943 -10.6215 -6.4415 -6.1555 -7.134 -7.44 -6.564 -5.315001 -12.6871 -13.2829 -14.4176 -10.6215 -6.4415 -6.2885 -5.691 -6.4585 -3.1405 -4.7755 -5.0275 -9.475 -7.636001 -7.6375 -4.496 -8.018001 -7.713 -6.3895 -4.6215 -5.3575 -7.6185 -8.838 -6.26 
-8.468 -5.315001 -7.426001 -8.715501 -10.4105 -12.022 -15.1178 -10.7085 -6.864 -7.469501 -8.558001 -11.2691 -6.7935 -13.373 -17.9245 -16.0699 -18.1411 -10.7085 -7.2675 -6.2885 -7.928 -8.161 -4.7755 -5.8285 -10.092 -9.475 -10.396 -9.21 -8.018001 -11.1547 -7.983001 -7.49 -5.723001 -7.9615 -10.304 -8.838 
-9.017 -7.426001 -9.106501 -13.6425 -13.1655 -15.7455 -15.2048 -11.131 -8.112 -8.830001 -12.4245 -11.4986 -15.1101 -18.6104 -20.7115 -19.7934 -18.2281 -11.5345 -7.2675 -8.322001 -9.449 -9.657001 -5.8285 -10.522 -10.092 -13.0944 -12.2653 -12.7564 -11.1547 -11.4247 -8.771001 -8.897 -8.619 -10.3815 -10.304 
-2.688 -3.9885 -3.6085 -1.756 -4.19 -4.413 -1.756 -3.9685 -3.5035 -3.2495 -3.1715 -1.7565 -4.2915 0 
-4.5315 -7.172501 -5.232 -5.7085 -8.7195 -6.2495 -5.691 -6.9385 -7.413 -6.2805 -4.207 -5.967 -4.2915 
-8.7805 -9.697001 -6.1555 -9.953501 -9.8165 -10.013 -8.468 -10.634 -10.2815 -7.5395 -9.657501 -5.967 
-10.115 -9.7425 -10.7291 -11.0505 -13.765 -12.8872 -12.2467 -13.5025 -11.7121 -14.2764 -9.657501 
-10.1745 -14.4579 -11.8261 -14.999 -16.6392 -16.6659 -15.1152 -14.9331 -18.449 -14.2764 
