-4.759 
n/a 
n/a 
n/a 
n/a 
-4.759 
n/a 
n/a 
n/a 
n/a 
-4.759 
n/a 
n/a 
n/a 
n/a 
-4.759 
n/a 
n/a 
n/a 
n/a 
-3.6705 0 -1.4985 -3.6205 -3.251 -1.7695 -2.489 -6.269001 -2.5045 -2.4265 -3.251 -1.7695 -3.429 -3.1435 -6.305 -1.756 -2.8965 -3.9665 -1.7695 -3.875 -1.7695 -4.319 -3.7015 -3.982 -1.934 -1.4985 -3.8275 
-3.6705 -1.4985 -4.755 -6.7795 -4.3285 -3.1405 -7.4505 -8.091001 -4.228 -4.8545 -4.3285 -4.032 -6.292 -8.519501 -7.379 -3.751 -7.458 -5.6315 -5.567 -5.9875 -4.9595 -5.442 -6.9755 -5.9555 -2.6125 -4.726 
-4.5585 -4.755 -7.3865 -8.043 -5.192 -7.874 -9.027 -9.678501 -6.366 -5.9495 -6.0595 -6.6615 -12.448 -9.6625 -8.929501 -8.577001 -9.1885 -9.5465 -7.0305 -8.626501 -6.451 -8.9265 -7.928 -6.579 -5.815001 
-7.548 -7.3865 -8.556001 -8.25 -8.708 -9.384001 -10.4765 -11.9619 -7.964 -8.0965 -8.9615 -12.8911 -13.591 -11.2956 -14.1549 -10.3035 -13.1119 -11.2002 -8.9425 -9.844001 -9.585 -9.89 -8.599501 -9.076 
-9.678 -8.556001 -8.7755 -10.31 -9.81 -10.8965 -12.7599 -13.5599 -10.248 -9.9665 -15.1917 -14.0341 -15.2241 -16.521 -15.8814 -14.4191 -14.7656 -13.1122 -10.367 -13.0762 -10.349 -10.208 -10.503 
-2.872 -2.3615 -3.6205 -3.5745 -2.6165 -4.9205 -3.433 -2.925 -3.251 -1.7695 -4.081 -2.985 -3.8275 -4.4605 -1.756 -4.6075 -1.7695 -3.875 -3.433 -1.7565 -1.4985 -3.8275 -2.356 -3.982 0 
-4.6665 -5.509501 -7.1505 -4.114 -6.393001 -7.171 -4.511 -4.617 -4.3285 -4.517 -5.875 -6.771501 -7.544001 -5.928 -6.1915 -6.2725 -5.567 -7.141001 -4.1845 -2.4195 -4.726 -5.674 -6.664001 -3.982 
-7.982501 -8.611 -7.334 -6.908 -8.1525 -7.905001 -6.2045 -5.662 -6.978001 -6.215 -9.514501 -9.486501 -8.5835 -8.540501 -7.673 -9.448501 -8.243 -7.604501 -4.6515 -5.547 -6.6115 -7.655 -6.664001 
-9.816001 -8.696501 -9.317 -8.695001 -9.238501 -9.991501 -7.274 -8.015 -8.567 -10.0035 -12.5807 -10.719 -11.345 -9.613501 -11.0288 -12.7425 -8.7355 -8.043 -7.378 -7.4135 -8.401501 -7.655 
-9.908501 -9.92 -10.7345 -9.861 -10.5755 -11.061 -9.703 -9.134001 -12.5495 -12.9357 -13.8132 -13.4805 -12.418 -13.2749 -14.3228 -13.235 -9.165001 -10.0635 -8.988501 -9.095 -8.401501 
-2.872 0 -3.433 -1.7565 -1.4985 -3.8275 -4.4825 -2.356 -3.982 0 -2.4265 -2.7415 -4.023 -1.7695 -4.081 -6.305 -1.756 -3.5535 -1.7695 -3.875 -2.3615 -3.6205 -3.5745 -2.6165 -4.4825 0 
-2.872 -3.433 -4.1845 -2.4195 -4.726 -8.253 -6.1715 -6.664001 -3.982 -2.4265 -3.681 -5.7765 -4.5555 -4.517 -10.7495 -7.379 -5.1915 -5.0625 -5.567 -6.384501 -5.509501 -7.1505 -4.114 -6.764 -4.4825 
-5.412001 -4.1845 -4.6515 -5.547 -8.824 -10.4945 -10.0125 -6.664001 -6.6545 -3.681 -6.1435 -6.096 -6.859 -11.2921 -11.8235 -11.3515 -6.1585 -10.3045 -7.6025 -9.647501 -8.611 -7.334 -8.6715 -6.764 
-6.0505 -4.6515 -7.378 -10.0475 -11.1347 -14.3355 -10.0125 -8.696501 -7.4645 -6.1435 -6.3055 -8.2015 -13.9997 -12.3661 -15.796 -12.3185 -11.7737 -12.34 -11.2607 -13.0146 -8.696501 -12.4225 -8.6715 
-6.430501 -7.378 -12.1415 -12.3582 -14.9757 -14.3355 -12.0756 -9.475 -10.028 -6.3055 -8.5425 -15.4552 -15.0737 -16.3386 -16.763 -17.9337 -13.8092 -15.9982 -14.6278 -13.1001 -13.9844 -12.4225 
-2.872 -3.433 -1.7565 -1.4985 -3.8275 -2.356 -3.982 -2.925 -2.4945 -4.4015 -4.384 -3.0365 -1.756 -2.925 -4.3155 -3.251 -1.4985 -3.7855 -1.7695 -3.875 
-5.412001 -4.1845 -2.4195 -4.726 -5.674 -6.664001 -7.048 -3.7675 -4.934 -11.142 -7.325001 -4.927 -4.2585 -6.1425 -5.8865 -5.0745 -5.2795 -5.5325 -5.567 
-6.0505 -4.6515 -5.547 -6.6115 -7.655 -9.139501 -7.9745 -6.443501 -12.0859 -14.083 -9.524501 -6.5335 -7.138 -7.5175 -7.067 -8.942 -6.6995 -9.3835 
-6.430501 -7.378 -7.4135 -8.401501 -9.824 -10.2705 -10.7953 -13.3224 -15.0269 -16.2825 -11.1306 -9.354501 -8.7205 -8.281 -10.7025 -10.3225 -10.9089 
-9.1155 -8.988501 -9.095 -10.442 -11.0354 -13.0913 -17.6742 -16.2634 -17.2264 -17.8886 -13.9516 -10.9276 -9.412001 -12.0401 -12.083 -14.5319 
