-4.759 
n/a 
n/a 
n/a 
n/a 
-4.759 
n/a 
n/a 
n/a 
n/a 
-4.759 
n/a 
n/a 
n/a 
n/a 
-4.759 
n/a 
n/a 
n/a 
n/a 
-2.3615 -5.213 -4.3805 -2.341 0 -1.7565 -3.5085 -3.4425 0 -1.756 -5.466 0 -1.7565 -3.5085 -3.873 -3.4425 0 
-6.9075 -9.526501 -6.987 -2.341 -1.7565 -5.016 -6.09 -3.4425 -1.756 -6.909 -4.5355 -1.7565 -5.016 -6.6845 -6.015 -3.4425 
-11.6586 -12.2752 -6.987 -4.511 -5.016 -7.657001 -6.09 -4.9015 -6.993 -6.993 -7.163 -5.016 -7.631501 -6.9535 -6.015 
-14.4073 -12.2752 -9.099001 -7.109 -7.657001 -7.657001 -7.9425 -10.159 -6.993 -8.35 -8.9115 -7.631501 -7.815501 -6.9535 
-14.4073 -14.3872 -12.074 -9.377501 -7.657001 -9.1035 -13.4368 -10.159 -8.35 -10.3815 -11.6174 -7.815501 -7.815501 

n/a 
n/a 
n/a 
n/a 
-2.4265 -4.3805 -2.341 0 -1.7565 -1.4985 -3.188 -3.5085 -3.4425 -1.756 -5.466 0 -1.7565 -1.4985 -3.5085 -3.188 -3.873 -3.4425 
-5.9095 -6.987 -2.341 -1.7565 -2.4195 -3.619 -7.005 -6.09 -4.9015 -6.909 -4.5355 -1.7565 -2.4195 -4.4755 -6.9465 -7.192 -6.015 
-8.449501 -6.987 -4.511 -2.4195 -4.4095 -7.410501 -10.051 -7.9425 -10.288 -6.993 -7.163 -2.4195 -5.126 -7.620001 -10.0215 -8.911 
-8.449501 -9.099001 -5.211 -4.4095 -7.58 -10.218 -11.7847 -13.4368 -10.159 -8.35 -7.7195 -5.126 -7.861001 -10.218 -10.143 
-10.66 -9.394 -7.5195 -7.58 -10.66 -12.0171 -17.279 -13.4368 -11.6346 -8.9045 -8.92 -7.861001 -10.264 -10.324 
-2.3615 -1.4985 -2.341 0 -1.7565 -4.834 -3.5085 -3.4425 -1.756 -5.466 0 -1.7565 -4.834 -3.873 -3.4425 
-4.913 -4.961 -2.341 -1.7565 -6.725501 -8.829 -6.09 -4.9015 -6.909 -4.5355 -1.7565 -6.725501 -8.939501 -6.015 
-8.3595 -4.961 -4.511 -6.725501 -10.316 -11.5235 -7.9425 -10.288 -6.993 -7.163 -6.725501 -11.198 -10.2705 
-8.3595 -7.178 -9.9805 -10.316 -13.0105 -13.376 -13.4368 -10.159 -8.35 -12.2855 -11.198 -12.529 
-10.7007 -13.0697 -13.571 -13.0105 -14.863 -18.8703 -13.4368 -11.6346 -13.9585 -16.758 -12.529 
