-4.759 
n/a 
n/a 
n/a 
n/a 
-4.759 
n/a 
n/a 
n/a 
n/a 
-4.759 
n/a 
n/a 
n/a 
n/a 
-4.759 
n/a 
n/a 
n/a 
n/a 
-3.634 -5.4085 -2.742 -3.098 -4.3185 -2.9635 -2.264 -3.486 -3.3425 -2.4285 -3.4635 -1.7695 -1.4985 -4.031 
-8.086 -8.3275 -4.943 -6.437 -8.7585 -5.3015 -6.119 -6.5035 -5.275001 -5.5325 -4.2045 -2.7955 -4.937 
-13.0592 -10.151 -7.572001 -11.4712 -11.5147 -9.130501 -10.243 -8.463 -8.557501 -6.185 -4.7965 -6.4335 
-14.8827 -13.0982 -12.7692 -14.2274 -15.3437 -13.9413 -12.2025 -12.1501 -10.259 -6.8125 -8.0415 
-17.8299 -18.2954 -15.5254 -18.0564 -20.1545 -15.9008 -15.8896 -13.8516 -10.8865 -10.248 

n/a 
n/a 
n/a 
n/a 
-1.4985 -4.3955 -1.7565 -4.885 -4.1145 -2.186 -3.486 -1.756 -5.8225 -2.4285 -1.934 -2.8965 -3.3755 -3.1435 -3.4635 -1.7695 -1.4985 -2.8965 -4.1145 -3.098 0 
-4.95 -4.9015 -7.140501 -10.2045 -6.3365 -6.475 -5.7385 -6.886 -8.239 -4.403501 -4.391 -5.3975 -6.647 -6.107 -4.2045 -2.7955 -3.928 -7.2895 -8.028 -3.098 
-5.049 -10.155 -13.1448 -12.4265 -11.5303 -8.658501 -11.7593 -10.1635 -10.6916 -6.1685 -7.892 -8.7875 -10.5645 -7.975 -4.7965 -5.194 -8.2735 -12.1708 -8.028 
-10.7325 -16.4403 -15.3668 -17.6203 -13.7138 -14.7921 -15.0368 -12.7179 -12.4566 -8.773001 -10.733 -12.8584 -12.4325 -8.495 -7.541501 -9.395 -13.3378 -12.1708 
-17.0178 -18.6623 -20.5606 -19.8038 -19.8474 -18.0696 -17.5912 -14.4829 -15.0611 -11.7506 -14.8039 -14.7264 -12.9525 -10.334 -11.9163 -14.5923 -13.3378 
-6.6185 -5.675 -1.934 -2.871 -1.4985 -2.645 -3.699 0 
-13.1021 -8.1565 -4.2805 -5.1 -4.4385 -5.093 -3.699 
-15.5836 -10.7228 -6.860001 -7.724 -6.24 -5.093 
-18.1499 -13.3023 -9.650001 -9.387 -6.24 
-20.7294 -16.0923 -11.3588 -9.387 
