-4.759 
n/a 
n/a 
n/a 
n/a 
-4.759 
n/a 
n/a 
n/a 
n/a 
-4.759 
n/a 
n/a 
n/a 
n/a 
-4.759 
n/a 
n/a 
n/a 
n/a 
-2.4265 -4.7595 -1.4985 -4.023 -4.114 -1.7565 -3.6835 -3.4625 -1.7695 -2.674 -3.5155 -3.301 -4.101 -3.3435 -1.756 -4.105 -3.3435 -2.356 -1.4985 -3.8475 0 
-6.318 -5.4655 -4.971 -8.587 -5.93 -4.6675 -5.5035 -6.108 -3.8225 -5.6375 -6.3905 -7.4355 -7.818001 -4.576 -5.4375 -8.1645 -5.3805 -3.1615 -5.09 -3.8475 
-6.9505 -8.689 -8.8855 -10.1725 -9.4835 -7.315001 -7.0175 -7.973001 -6.513501 -8.2785 -10.396 -11.7099 -8.927001 -9.2815 -9.2045 -10.292 -6.3415 -6.9145 -5.09 
-9.875501 -13.0413 -10.674 -14.0964 -12.3058 -8.9025 -8.616501 -10.749 -9.053 -12.3824 -14.6704 -12.8189 -10.4345 -13.1715 -11.4046 -11.253 -10.3605 -6.9145 
-14.1922 -14.8298 -14.5979 -16.9187 -13.8933 -10.6373 -11.5033 -13.2885 -13.1561 -16.6568 -15.7794 -14.3264 -14.3245 -15.3716 -12.3656 -15.272 -10.3605 
-2.4265 -4.7595 -1.4985 -3.9005 -4.385 -2.0935 -3.8245 -3.5935 -1.756 -3.564 -3.3435 -2.356 -4.241 0 -5.177 -1.756 -4.065 -3.3435 0 
-6.318 -5.4655 -4.797 -5.9235 -5.7755 -5.878 -7.144 -5.2435 -4.562 -5.8305 -5.3805 -6.5465 -4.241 -5.177 -6.3915 -5.614 -6.459 -3.3435 
-6.9505 -7.551 -6.322001 -7.239 -8.3925 -9.739 -9.0815 -6.558001 -6.7145 -7.828 -8.7675 -6.5465 -10.674 -6.3915 -8.776501 -7.2165 -6.459 
-8.653501 -8.564 -7.888 -10.028 -12.6291 -11.8225 -9.998 -8.366501 -8.8345 -11.6506 -8.7675 -13.5557 -11.8885 -8.776501 -9.899 -7.2165 
-9.464001 -10.513 -10.702 -14.3612 -14.7126 -12.739 -11.9419 -10.564 -12.7885 -11.6506 -16.1169 -14.7702 -14.2735 -9.899 -9.899 
-2.3615 -3.452 -4.7595 -1.4985 -3.9005 -4.458 -3.989 -2.0935 -2.9995 -3.6835 -3.4625 -1.7695 -3.511 -5.353 -1.934 -3.091 -3.5935 -2.5045 -3.3235 -2.5045 -3.564 -3.3435 0 
-4.5465 -6.918 -5.4655 -4.797 -6.974501 -7.8385 -5.0175 -4.1725 -6.4335 -5.5035 -6.108 -4.633 -6.678 -7.048 -4.2105 -5.7225 -6.951 -3.7105 -3.8485 -6.06 -5.8305 -3.3435 
-7.257 -7.516 -7.551 -7.462501 -10.411 -8.342501 -7.285501 -7.64 -7.079 -7.0175 -8.513 -7.0045 -8.024 -8.660501 -6.914001 -9.227 -7.413 -3.8545 -6.878 -8.868501 -5.8305 
-7.818501 -9.052501 -9.9945 -10.5855 -11.0314 -10.702 -10.6735 -8.171 -8.356 -8.7405 -11.1855 -8.674001 -9.9075 -11.617 -9.7985 -9.291 -7.4405 -6.879 -9.408001 -8.868501 
-9.460001 -11.8708 -13.1905 -11.3425 -13.3909 -14.09 -11.2045 -8.6 -9.9975 -11.5086 -12.855 -10.7999 -13.2192 -14.5015 -9.8715 -9.2995 -9.157001 -9.408 -9.408001 
-1.7695 -3.0785 -5.4185 0 -5.353 0 -6.817 -3.8245 -1.934 -2.8195 -1.756 -4.0435 -1.7695 -3.0785 -2.3615 -3.6385 -4.0135 
-3.9555 -9.5415 -5.4185 -5.353 -5.353 -6.817 -9.883 -4.7245 -4.706 -4.6595 -5.541 -6.252501 -3.9555 -5.7485 -5.5465 -7.360001 
-9.85 -9.5415 -10.2645 -5.353 -9.7505 -9.883 -10.783 -8.066501 -6.842 -7.8555 -8.0115 -8.339001 -6.648 -8.1905 -10.01 
-9.85 -14.4927 -10.2645 -9.7505 -13.3237 -10.783 -14.125 -9.7845 -9.935 -10.2035 -9.571 -11.1539 -8.485001 -12.861 
-14.825 -14.4927 -14.819 -13.3237 -14.2237 -14.125 -15.843 -12.9879 -12.3092 -11.763 -12.7071 -12.9909 -13.3599 
