-4.759 
n/a 
n/a 
n/a 
n/a 
-4.759 
n/a 
n/a 
n/a 
n/a 
-4.759 
n/a 
n/a 
n/a 
n/a 
-4.759 
n/a 
n/a 
n/a 
n/a 
-2.4265 -3.074 -3.7965 -4.445 0 -5.1995 0 -1.756 -3.3715 -4.418 -3.8825 -1.934 -2.3615 -4.0215 0 
-4.605 -5.1585 -8.5845 -4.445 -5.1995 -5.1995 -1.756 -4.6545 -6.8805 -8.715 -4.9695 -3.539 -5.855 -4.0215 
-5.988501 -9.6845 -8.5845 -9.429501 -5.1995 -6.6225 -4.6545 -8.8575 -11.7113 -9.508501 -6.601501 -8.281 -5.855 
-10.8421 -9.6845 -13.9396 -9.429501 -6.6225 -8.688 -8.8575 -13.8075 -12.5048 -11.3175 -10.7025 -8.281 
-10.8421 -15.2954 -13.9396 -10.288 -8.688 -13.6896 -13.8075 -14.601 -14.3138 -15.4185 -10.7025 
-3.0365 -2.4945 -2.8965 -4.6835 -4.4905 -2.356 -8.26 -3.8785 -3.2775 -2.5045 -4.033 -3.5855 0 -4.8015 0 -3.5855 0 -4.2865 -4.4975 0 -5.1995 0 -11.0905 0 -4.0215 0 -3.8785 0 -5.0505 -3.843 0 
-3.688 -5.387 -6.5925 -8.807501 -6.6155 -10.647 -12.5647 -6.8785 -3.678 -6.417 -5.9045 -3.5855 -4.8015 -4.8015 -3.5855 -3.5855 -4.2865 -8.2445 -4.4975 -5.1995 -5.1995 -11.0905 -11.0905 -4.0215 -4.0215 -3.8785 -3.8785 -5.0505 -9.147501 -3.843 
-5.479001 -8.961 -11.4825 -10.6215 -15.3827 -15.5535 -15.5647 -6.961501 -7.0225 -8.799001 -5.9045 -8.275001 -4.8015 -8.299001 -3.5855 -8.1045 -8.2445 -8.2445 -8.821501 -5.1995 -17.6532 -11.0905 -15.112 -4.0215 -7.1895 -3.8785 -8.323001 -9.147501 -9.147501 
-9.021001 -14.0894 -13.2965 -19.9019 -20.2892 -18.5535 -15.6477 -9.128501 -9.436501 -8.799001 -11.3526 -8.275001 -8.299001 -8.299001 -8.1045 -12.7021 -8.2445 -12.7741 -8.821501 -17.6532 -17.6532 -15.112 -15.112 -7.1895 -7.1895 -8.323001 -12.7164 -9.147501 
-14.161 -15.9034 -22.5769 -24.8084 -23.2892 -18.6365 -17.8147 -12.4273 -9.436501 -14.5251 -11.3526 -12.4757 -8.299001 -13.557 -12.7021 -12.7021 -12.7741 -12.7741 -21.6516 -17.6532 -21.6747 -15.112 -18.28 -7.1895 -12.2658 -12.7164 -12.7164 
-2.4265 -3.074 -4.5875 -12.16972 0 -12.16972 -3.681 0 -3.6835 -3.7435 0 -4.2655 0 -5.1995 0 -12.16972 0 -7.496 0 -4.0215 0 -3.8785 0 -10.5065 -3.843 
-4.605 -6.4135 -17.90582 -12.16972 -12.16972 -15.85072 -3.681 -3.6835 -5.62 -3.7435 -4.2655 -4.2655 -5.1995 -5.1995 -12.16972 -12.16972 -7.496 -7.496 -4.0215 -4.0215 -3.8785 -3.8785 -10.5065 -14.4655 
-6.903501 -19.88382 -17.90582 -24.33944 -15.85072 -15.85072 -7.486 -5.62 -5.62 -8.581501 -4.2655 -7.649 -5.1995 -18.73242 -12.16972 -19.66572 -7.496 -11.9221 -4.0215 -7.1895 -3.8785 -15.545 -14.4655 
-20.67142 -19.88382 -30.07554 -28.02044 -15.85072 -19.65572 -9.861 -5.62 -10.223 -8.581501 -7.649 -7.649 -18.73242 -18.73242 -19.66572 -19.66572 -11.9221 -11.9221 -7.1895 -7.1895 -15.545 -19.504 
-20.67142 -32.05354 -33.75654 -28.02044 -19.65572 -22.03072 -9.861 -10.223 -10.223 -12.5188 -7.649 -22.04472 -18.73242 -26.22842 -19.66572 -24.09182 -11.9221 -15.0901 -7.1895 -19.4878 -19.504 
-4.7265 -2.7455 -3.766 0 -3.5855 -6.726501 -1.7565 -1.4985 -6.558 0 
-6.5205 -6.481 -3.766 -3.5855 -9.639001 -10.0625 -2.4195 -7.76 -6.558 
-10.218 -6.481 -8.2215 -10.328 -12.61 -10.505 -8.689501 -7.76 
-10.218 -11.6697 -15.5278 -12.61 -12.976 -16.611 -8.689501 
-15.4067 -18.976 -17.8098 -12.976 -20.0454 -17.0934 
