-4.759 
n/a 
n/a 
n/a 
n/a 
-4.759 
n/a 
n/a 
n/a 
n/a 
-4.759 
n/a 
n/a 
n/a 
n/a 
-4.759 
n/a 
n/a 
n/a 
n/a 
-3.5455 -1.4985 -7.680501 -4.947 0 -7.5525 -1.934 -5.3885 0 -2.7415 -4.1205 -2.5045 -2.871 -1.7565 -1.4985 -3.699 -5.8805 0 
-3.91 -8.351501 -10.9315 -4.947 -7.5525 -9.365001 -6.4035 -5.3885 -2.7415 -5.631001 -5.3175 -4.7085 -3.5385 -2.4195 -5.264 -9.226501 -5.8805 
-9.734 -12.1267 -10.9315 -13.4317 -9.365001 -9.7615 -6.4035 -8.401501 -5.631001 -6.993001 -6.802 -4.9525 -3.7675 -6.063 -10.4345 -9.226501 
-13.8888 -12.1267 -19.4162 -15.2442 -9.7615 -9.7615 -8.9775 -11.4176 -6.993001 -8.368 -7.0365 -5.1005 -6.646 -11.2675 -10.4345 
-13.8888 -20.6114 -21.2287 -15.6407 -9.7615 -12.4361 -11.9778 -12.7796 -8.368 -8.487 -7.093 -7.889 -12.0941 -11.2675 
-5.3885 -2.229 -10.8075 -2.7415 -1.4985 -3.699 -4.717 -2.0935 -1.4985 -12.16972 
-7.854 -13.6315 -13.549 -4.063 -5.264 -8.830501 -6.808 -2.9725 -14.76202 
-19.5199 -16.373 -14.8705 -7.870501 -10.1505 -9.6385 -7.8825 -16.51282 
-22.2614 -17.6945 -18.678 -13.1346 -11.2915 -10.3765 -21.60262 
-23.5829 -21.502 -23.9421 -14.2756 -12.0295 -24.37302 
-1.934 -5.3885 0 -7.5525 -2.7415 -1.4985 -3.699 -5.072 -1.7565 -7.680501 -5.2875 0 
-6.4035 -5.3885 -7.5525 -9.938001 -4.063 -5.264 -8.699 -7.037 -9.051001 -8.935 -5.2875 
-6.4035 -9.3785 -9.938001 -11.2595 -7.870501 -9.894 -9.7535 -14.7099 -10.164 -8.935 
-10.733 -11.7422 -11.2595 -15.067 -12.8781 -10.13 -17.5288 -15.8229 -10.164 
-13.0967 -13.0637 -15.067 -20.0746 -13.1141 -17.9053 -18.6418 -15.8229 
-9.305 -1.934 -5.3885 -2.186 -1.4985 -4.4695 -3.5015 -2.0935 -4.2235 -4.9225 0 
-11.583 -6.4035 -7.7415 -3.339 -5.252501 -7.613 -4.7905 -6.1765 -8.9615 -4.9225 
-16.0525 -8.5155 -8.509001 -6.966 -8.441501 -8.539001 -9.175501 -11.6347 -8.9615 
-18.1645 -9.576 -12.5766 -9.5795 -9.721001 -13.03 -14.6287 -11.6347 
-19.225 -13.6436 -15.1901 -10.383 -14.212 -18.4832 -14.6287 
