-4.759 
n/a 
n/a 
n/a 
n/a 
-4.759 
n/a 
n/a 
n/a 
n/a 
-4.759 
n/a 
n/a 
n/a 
n/a 
-4.759 
n/a 
n/a 
n/a 
n/a 
-1.934 -2.3615 -1.4985 -6.5175 -5.25 -5.808 -1.4985 -3.5455 -1.756 -3.75 0 
-3.539 -4.913 -7.340501 -9.8485 -11.0145 -6.3845 -4.554 -5.364501 -5.571 -3.75 
-6.6215 -10.609 -10.76 -15.782 -11.591 -9.182 -5.8465 -6.547501 -5.571 
-12.5003 -14.0285 -16.6935 -16.3585 -14.3885 -9.606501 -6.898 -6.547501 
-15.9198 -19.962 -17.27 -19.156 -14.813 -11.2656 -6.898 
-3.75 -3.641 
-5.5645 
n/a 
n/a 
n/a 
-1.934 -3.1495 0 -1.4985 -6.899 -4.1455 -1.934 -1.4985 -4.3215 -1.7565 -3.9075 -2.3335 -2.186 -5.43 -1.4985 -3.641 -1.756 -1.4985 -3.75 -2.186 -4.076 0 
-4.5395 -3.1495 -1.4985 -8.336 -12.0549 -5.415 -2.6125 -5.394 -5.7605 -6.106 -6.519 -3.7085 -7.518001 -5.924 -4.644 -5.511001 -3.0405 -4.8715 -6.250501 -5.795 -4.076 
-4.5395 -5.949 -8.336 -13.5849 -13.3244 -6.153 -7.2015 -5.962501 -7.937 -8.4565 -7.5925 -8.612 -7.923 -9.144001 -5.9665 -6.4605 -6.467 -6.983 -10.025 -5.795 
-7.591001 -12.9063 -13.5849 -14.8544 -14.0624 -11.2954 -8.223001 -8.029501 -10.6903 -9.311001 -12.78 -9.122001 -11.5818 -9.943501 -6.694 -7.798 -8.684 -10.8807 -10.025 
-14.6389 -18.1552 -14.8544 -15.5924 -19.2048 -12.3169 -9.844001 -10.873 -11.5448 -14.5689 -13.29 -12.849 -12.3813 -10.5085 -7.836 -9.574 -12.6059 -10.8807 
-1.934 -2.3615 0 -9.9045 -6.3675 -5.25 -2.9705 -2.186 -5.43 -3.5455 -1.756 -3.75 -2.186 -3.699 0 
-3.539 -2.3615 -9.9045 -16.2968 -9.824501 -7.502501 -3.89 -7.518001 -8.878 -5.364501 -5.571 -6.250501 -4.636 -3.699 
-3.539 -13.5542 -16.2968 -19.7538 -12.2228 -8.857 -9.2735 -10.647 -9.143001 -6.547501 -8.021 -9.217001 -4.636 
-15.4367 -19.9465 -19.7538 -22.1521 -13.5773 -14.3517 -12.4711 -10.912 -11.614 -8.807 -11.3069 -9.217001 
-21.829 -23.4035 -22.1521 -23.5066 -19.072 -17.5493 -12.7361 -13.383 -13.8735 -12.0405 -11.3069 
