-4.759 
n/a 
n/a 
n/a 
n/a 
-4.759 
n/a 
n/a 
n/a 
n/a 
-4.759 
n/a 
n/a 
n/a 
n/a 
-4.759 
n/a 
n/a 
n/a 
n/a 
-1.4985 -3.4295 -4.4975 -1.7565 -3.17 -5.4085 0 -4.549 -3.9555 -1.7695 -3.7765 -3.3425 0 -3.4405 -2.6165 -4.0735 -2.3335 -3.6055 -3.925 -2.186 -7.719 0 
-4.8285 -8.49 -5.344501 -5.268 -7.966 -5.4085 -4.549 -7.268001 -5.592 -5.128 -6.445001 -3.3425 -3.4405 -3.7415 -6.6565 -4.4255 -5.2305 -7.861001 -6.1705 -8.012 -6.359 
-9.2235 -9.433001 -8.972501 -9.753501 -7.966 -9.745501 -7.268001 -7.4785 -8.1475 -7.410501 -6.445001 -6.612 -3.7415 -6.9455 -7.062 -6.597001 -9.204 -9.0135 -12.4985 -8.290001 
-9.6495 -10.343 -10.3415 -9.753501 -10.513 -10.445 -7.4785 -9.22 -9.978001 -7.410501 -9.975 -6.681001 -6.9455 -7.366001 -9.285501 -10.5635 -10.186 -11.8495 -10.575 
-10.344 -10.367 -10.3415 -10.5155 -10.529 -10.467 -9.22 -10.2705 -9.978001 -10.396 -10.2225 -10.204 -7.366001 -9.7335 -10.5865 -10.5815 -10.758 -10.612 
-4.138 -1.7565 -4.1145 -2.229 -4.0555 -1.7565 -4.4295 -2.186 -2.9325 0 -3.6055 -3.925 -3.383 -3.3785 -2.7455 -1.7695 -4.649 -1.756 -4.2175 -1.7695 -3.7765 0 
-5.1845 -6.695001 -6.818501 -6.2475 -5.3155 -7.808001 -7.306 -4.589 -2.9325 -3.6055 -7.861001 -7.835 -8.837501 -4.6985 -4.8235 -6.855501 -6.3305 -5.9125 -4.751 -5.128 -3.7765 
-11.4344 -8.594501 -10.341 -7.7755 -8.696 -9.9355 -9.136001 -4.589 -6.1515 -7.861001 -12.4244 -14.0503 -10.647 -7.847001 -11.2785 -8.264001 -10.513 -6.521 -7.360001 -5.128 
-13.3339 -12.33 -11.869 -11.166 -10.4765 -11.7655 -9.136001 -7.408 -9.901001 -12.4244 -18.6397 -15.8598 -13.7955 -14.6122 -12.687 -12.8141 -11.1215 -9.983001 -7.360001 
-17.0694 -13.858 -15.2595 -12.9465 -12.3065 -11.7655 -12.0816 -10.7575 -14.5304 -18.6397 -20.4492 -19.0083 -20.5607 -16.0207 -17.2371 -13.4226 -14.5835 -9.983001 
-3.135 -3.1385 -4.197 -3.458 -2.7415 -3.819 -3.925 -1.934 -1.4985 -3.17 -6.0525 -1.934 -1.4985 -3.7765 -1.934 -1.4985 -3.135 -5.6295 0 
-4.8745 -7.8455 -7.31 -7.7225 -5.5775 -8.800501 -5.362 -2.6125 -3.7115 -10.647 -8.311001 -2.6125 -5.52 -5.749001 -2.6125 -6.4025 -8.616501 -5.6295 
-10.013 -11.3995 -12.1851 -10.8349 -9.578501 -10.019 -6.822001 -5.384 -11.8007 -12.9055 -9.1105 -6.493 -7.638 -7.0125 -7.703001 -12.202 -8.616501 
-13.7244 -16.2746 -15.2975 -14.8359 -10.2005 -12.3064 -9.863001 -13.7744 -14.0592 -13.705 -13.0376 -9.637 -8.821 -12.5952 -13.6365 -12.202 
-18.5995 -19.387 -19.2985 -15.4579 -12.3097 -15.3474 -18.436 -16.0329 -14.8587 -17.6321 -16.1816 -10.283 -14.6083 -18.5287 -13.6365 
-5.277 -4.28 -1.7695 -4.0215 -1.7695 -3.7765 -1.4985 -4.031 -4.018 -3.1575 -6.344 -2.7835 -3.6055 -3.925 -2.186 -4.9175 -3.932 -2.186 -4.251 -1.4985 -3.908 -4.703 -1.7565 -3.17 -1.7565 -1.4985 -5.4085 
-7.190001 -5.027 -5.175 -5.521 -5.128 -5.333 -4.937 -8.2425 -4.2785 -9.3955 -8.254001 -6.1925 -7.861001 -6.1705 -6.9985 -7.3845 -6.165 -5.193 -5.6885 -5.555 -8.427501 -5.335 -5.268 -4.179 -2.4195 -7.439501 
-7.543001 -8.868 -7.165501 -8.878 -5.9315 -7.5115 -9.095 -8.309 -9.901001 -11.3413 -11.9542 -8.7755 -9.0135 -11.5136 -8.499001 -10.442 -9.8505 -6.637001 -10.089 -9.4045 -9.246 -8.7235 -6.02 -4.497 -8.306001 
-11.5282 -9.836 -9.642 -10.1425 -8.0965 -12.2599 -9.178 -14.1889 -11.7932 -15.0415 -14.5372 -11.0342 -14.7792 -13.0141 -11.8719 -14.1275 -11.5033 -11.7153 -13.9385 -10.042 -12.6767 -9.948 -6.2395 -8.8985 
-12.4962 -12.5209 -11.5173 -12.3075 -13.2039 -12.3429 -15.2307 -16.0811 -15.4934 -17.6245 -16.7959 -16.7999 -16.2797 -16.387 -15.5574 -15.7803 -16.5816 -15.5648 -14.576 -13.4727 -13.9012 -10.2475 -10.6714 
