-4.759 
n/a 
n/a 
n/a 
n/a 
-4.759 
n/a 
n/a 
n/a 
n/a 
-4.759 
n/a 
n/a 
n/a 
n/a 
-4.759 
n/a 
n/a 
n/a 
n/a 
-1.934 -2.3615 -2.95 0 -2.9805 -3.7515 -1.7565 -3.7075 -2.186 -4.554 -2.5045 -6.342501 -4.277 -3.277 0 
-3.539 -4.4645 -2.95 -2.9805 -7.939001 -4.6045 -5.7275 -5.825 -5.002501 -5.7705 -9.035501 -8.859501 -6.336 -3.277 
-6.3285 -4.4645 -5.2005 -7.939001 -8.455001 -9.3215 -8.22 -9.865 -6.2665 -11.8005 -12.537 -10.73 -6.336 
-6.3285 -6.157001 -10.7624 -8.455001 -13.305 -12.0344 -12.4388 -11.1774 -12.4887 -15.3429 -13.1047 -9.175501 
-8.164001 -11.9745 -11.2784 -13.305 -16.0179 -16.2532 -13.7512 -17.6876 -15.9389 -15.8494 -13.1047 
-1.934 -2.3615 -3.7075 -1.7695 -4.6145 -1.4985 -3.7075 -3.7515 -2.5045 -6.342501 -7.135 -3.277 
-3.539 -5.029 -5.234 -5.0285 -5.1755 -4.6235 -8.175 -6.136 -9.035501 -13.1098 -11.1256 
-6.699 -6.3655 -7.424 -5.432 -9.9505 -8.856501 -11.1745 -13.318 -17.6296 -17.7522 
-8.7925 -9.086 -7.8295 -10.2915 -14.2375 -12.18 -18.4157 -21.632 -21.6814 
-11.6212 -9.618501 -12.753 -14.5785 -17.561 -19.4212 -26.6705 -25.6226 
-1.4985 -3.7515 -1.7565 -1.4985 -4.5895 -2.186 -6.342501 -7.6555 -3.277 0 
-4.705501 -4.6045 -2.4195 -6.42 -7.4265 -8.617001 -13.6303 -11.6819 -3.277 
-4.844501 -5.7455 -7.291 -8.552 -13.812 -17.4711 -18.3085 -11.6819 
-5.9585 -11.2592 -9.4785 -15.0599 -22.6211 -21.5925 -18.3085 
-11.6616 -13.4467 -16.2772 -23.869 -26.6475 -21.5925 
-2.5195 -2.3615 -3.7075 -1.4985 -3.7075 -3.3435 -2.7415 -4.3765 -1.7695 -2.489 -6.342501 -4.277 -3.277 0 
-4.4095 -5.029 -5.6435 -4.6235 -6.353001 -5.7065 -5.951 -5.572 -3.1405 -9.1405 -8.859501 -6.336 -3.277 
-7.4045 -6.7125 -9.6145 -7.8455 -9.515501 -8.923 -6.552 -5.857 -10.081 -12.4565 -10.73 -6.336 
-8.776501 -10.8489 -13.0217 -10.5225 -12.7844 -9.33 -6.712 -10.9165 -11.034 -10.993 -9.175501 
-13.1599 -14.2561 -15.6987 -13.7914 -13.1914 -9.370501 -11.8024 -11.8144 -11.085 -10.993 
