-4.759 
n/a 
n/a 
n/a 
n/a 
-4.759 
n/a 
n/a 
n/a 
n/a 
-4.759 
n/a 
n/a 
n/a 
n/a 
-4.759 
n/a 
n/a 
n/a 
n/a 
-3.5855 -3.8185 -2.925 -4.273 -2.186 -1.4985 -6.441 -1.7565 -5.9385 -5.261 0 -1.756 -3.7455 0 -1.7695 -3.0465 -2.688 -3.914 0 -1.7695 -4.519 -1.4985 -3.914 -2.4945 -1.4985 -4.613 
-8.284 -4.726501 -7.0185 -5.6225 -3.339 -9.335 -9.757001 -7.23 -10.9075 -5.261 -1.756 -5.526 -3.7455 -1.7695 -3.683 -5.6635 -6.0385 -3.914 -1.7695 -5.151 -5.2055 -5.0465 -6.5955 -3.9315 -5.7635 
-9.2115 -7.829501 -8.443501 -7.101501 -11.6909 -12.8526 -15.4193 -12.6498 -10.9075 -7.147 -5.526 -5.526 -5.402 -3.683 -6.3215 -8.967501 -6.0385 -5.556 -5.151 -5.5775 -9.26 -8.759501 -7.9145 -9.1815 
-12.5495 -9.442 -9.927501 -15.9154 -15.2085 -18.5149 -20.8391 -12.6498 -12.7935 -11.4158 -5.526 -7.2615 -6.975 -6.3215 -9.1855 -8.967501 -7.273 -8.809001 -5.5775 -9.626501 -13.0906 -9.9805 -13.5009 
-14.162 -10.9948 -18.8688 -19.433 -20.8708 -23.9347 -20.8391 -14.5358 -17.0623 -11.4158 -7.2615 -10.025 -10.1345 -9.1855 -9.1855 -10.4765 -10.5225 -9.556001 -9.626501 -13.5127 -14.3116 -15.6631 
-7.6235 -3.7075 -2.186 -1.4985 -7.851 -1.756 -3.0465 -2.688 -3.914 -1.756 -5.189 -2.688 -4.2695 0 
-11.8594 -5.196 -3.339 -8.6745 -9.225 -4.477 -5.6635 -6.0385 -4.8495 -6.639 -8.977 -6.217 -4.2695 
-13.3479 -6.6385 -10.76 -10.3165 -12.078 -7.0385 -8.967501 -6.808001 -10.6095 -10.176 -12.6514 -6.217 
-14.7904 -14.4231 -12.402 -13.1695 -14.6395 -10.233 -9.613501 -12.9692 -14.1465 -13.8504 -12.6514 
-22.575 -16.0651 -15.255 -15.731 -17.834 -10.879 -15.8717 -16.5062 -17.8209 -13.8504 
-4.2665 -4.029 -4.849 -5.9385 -3.7075 -4.4655 -3.833 0 -3.0465 -2.688 -3.914 -1.756 -3.7765 -1.4985 -3.914 -1.756 -4.2695 
-7.924 -9.0415 -11.9139 -10.038 -8.419001 -8.678501 -3.833 -3.0465 -5.6635 -6.0385 -4.8495 -5.5195 -5.333 -5.0465 -4.8495 -5.3315 
-13.5645 -16.2576 -16.0134 -15.2127 -13.0212 -8.678501 -7.291 -5.6635 -8.967501 -6.808001 -10.2865 -6.535501 -9.304501 -5.854 -7.5365 
-20.7806 -20.3571 -21.1881 -19.8149 -13.0212 -12.3519 -10.8242 -8.967501 -9.613501 -12.6462 -11.3835 -9.5695 -10.5752 -8.309501 
-24.8801 -25.5318 -25.7903 -19.8149 -16.6946 -15.8851 -14.1282 -9.613501 -15.5487 -13.7432 -14.4175 -11.2312 -13.0307 
-3.5855 -1.7565 -3.527 -2.186 -3.8665 -1.756 -8.6765 -1.756 -3.6505 -3.326 0 -3.0465 -2.688 -4.2975 0 -4.705 -1.7565 -3.914 0 -3.383 -4.079 -2.0935 -4.2695 0 
-5.385 -6.81 -5.4665 -6.099 -5.409 -10.575 -10.389 -5.486 -6.1385 -3.326 -3.0465 -5.6635 -6.784 -4.2975 -4.705 -5.850501 -5.071 -3.914 -3.383 -5.4065 -5.1445 -7.521501 -4.2695 
-11.3707 -9.111501 -10.4451 -7.047 -15.543 -12.2875 -14.119 -7.468 -6.1385 -6.686 -5.6635 -10.3815 -6.784 -9.6945 -5.850501 -10.19 -5.071 -7.919001 -5.4065 -6.281 -10.01 -7.521501 
-13.6722 -13.9455 -11.3931 -17.5266 -17.2555 -16.0175 -16.101 -7.468 -10.6215 -10.4675 -10.3815 -10.3815 -12.9632 -10.931 -10.19 -10.19 -9.059 -9.814501 -6.281 -11.3363 -10.01 
-18.5062 -14.8935 -21.8727 -19.2391 -20.9855 -17.9995 -16.101 -12.1246 -14.403 -15.1855 -10.3815 -16.8151 -14.1997 -15.2705 -10.19 -14.178 -10.8875 -10.7258 -11.3363 -11.3363 
