-4.759 
n/a 
n/a 
n/a 
n/a 
-4.759 
n/a 
n/a 
n/a 
n/a 
-4.759 
n/a 
n/a 
n/a 
n/a 
-4.759 
n/a 
n/a 
n/a 
n/a 
-4.7475 -2.5195 -4.921 -3.5785 -1.7695 -4.028 -3.4985 -3.7715 0 -3.486 -4.1825 -1.7565 -4.161 -2.742 -2.489 -3.2955 0 
-7.423 -7.495501 -7.9715 -5.052 -6.413001 -6.675 -6.5965 -3.7715 -3.486 -6.904 -5.5 -5.6765 -6.7235 -3.301 -3.979 -3.2955 
-12.904 -10.9312 -9.7405 -9.025001 -8.892501 -8.689001 -6.5965 -8.418501 -6.904 -8.415501 -8.913 -8.217 -7.2605 -4.9885 -3.979 
-16.3397 -12.7002 -13.7135 -12.0049 -11.0333 -8.689001 -11.5967 -12.2655 -8.415501 -11.7713 -11.7027 -8.722 -8.400001 -4.9885 
-18.1087 -16.6732 -16.6934 -14.1457 -11.0333 -13.8514 -15.4437 -13.777 -11.7713 -14.561 -12.2077 -10.6595 -8.400001 
-3.0415 0 -2.5195 -1.4985 -4.921 -4.042 -1.7695 -4.816 -1.4985 -4.109 -5.2055 -3.486 -3.319 -1.7565 -4.161 -2.4945 -3.2955 
-3.0415 -2.5195 -3.1695 -6.1615 -6.8155 -6.227 -6.7215 -5.504001 -5.435 -7.526501 -9.419001 -5.7975 -4.165 -5.6765 -6.052 -4.6305 
-6.1335 -3.1695 -7.7145 -8.4635 -8.838 -10.7025 -7.425 -9.564001 -9.382501 -12.3938 -12.9955 -6.1045 -8.598001 -7.84 -7.487 
-6.742001 -7.7145 -10.1265 -10.8076 -13.4383 -11.406 -11.6472 -13.6217 -14.5784 -15.9703 -13.3025 -10.1465 -9.8525 -9.343 
-11.588 -10.1265 -12.5582 -15.4079 -14.1418 -15.6282 -15.7049 -18.8176 -18.1549 -16.2773 -17.3445 -11.4588 -10.6375 
-1.934 -3.333 -1.7695 -3.2345 -1.4985 -3.6005 -3.777 -1.934 -1.4985 -3.127 -3.135 -4.8695 -2.915 -1.7695 -2.489 -3.7855 -1.7695 -1.4985 -3.2 -2.3335 -3.2645 -2.489 -1.934 -1.4985 -3.519 -1.7565 -3.598 -5.036 -2.228 -1.756 -2.1715 0 
-3.9835 -4.022 -3.713 -4.328 -4.9615 -7.752 -4.5805 -2.6125 -4.269 -6.8155 -8.028501 -7.395 -4.548 -3.1405 -4.789001 -4.793 -2.7955 -4.259 -4.957 -4.997 -3.7195 -4.348 -2.6125 -4.4155 -4.4175 -5.209 -8.23 -6.459 -4.89 -4.749 -2.1715 
-4.0425 -5.5905 -4.717 -7.085001 -7.891 -9.2445 -5.495 -5.548 -7.862 -12.0652 -10.6714 -8.603001 -5.77 -5.6465 -5.3715 -5.356501 -5.609 -6.179501 -7.0365 -5.3065 -5.5955 -4.967 -4.8345 -4.839 -7.522501 -10.509 -11.189 -8.849501 -6.1155 -4.749 
-5.5995 -6.3195 -7.323 -10.7035 -9.43 -9.981501 -8.5865 -8.8655 -13.2729 -14.7081 -11.8794 -9.1045 -7.630001 -6.2075 -5.9095 -8.402 -7.41 -7.139501 -7.1005 -7.002501 -6.1465 -6.2475 -4.9455 -7.9325 -12.9005 -12.6646 -13.4416 -10.3115 -6.1155 
-6.325 -9.142 -11.0423 -12.2425 -10.093 -13.073 -12.2416 -14.35 -15.9158 -15.9161 -12.3809 -9.3505 -7.942 -6.6385 -9.1355 -10.13 -9.7915 -7.147 -9.665501 -7.548 -7.482 -6.3225 -7.9605 -13.6189 -15.3321 -14.8436 -14.1391 -9.346001 
-3.0415 -3.737 -4.532 -3.254 -1.7695 -3.705 -4.465 -1.7565 -2.5685 -3.213 -2.9645 -1.7695 -3.5965 
-6.99 -8.59 -7.811 -5.3015 -5.834001 -8.7685 -8.148001 -3.938 -5.709 -6.8295 -4.905 -5.6105 
-12.2942 -12.4832 -10.403 -10.3415 -11.5409 -13.3147 -9.6155 -7.097001 -9.6105 -9.4215 -9.387501 
-16.1874 -15.0752 -15.443 -16.0484 -16.0871 -14.7822 -12.8461 -11.2477 -12.3065 -13.9926 
-18.7794 -20.1152 -21.1499 -20.5946 -17.5546 -18.0128 -16.9968 -13.9437 -16.8776 
