-4.759 
n/a 
n/a 
n/a 
n/a 
-4.759 
n/a 
n/a 
n/a 
n/a 
-4.759 
n/a 
n/a 
n/a 
n/a 
-4.759 
n/a 
n/a 
n/a 
n/a 
-2.9805 -4.69 -3.091 -4.1985 -3.213 -3.321 -2.9805 -4.7995 -1.934 -4.791 -1.756 -3.97 
-6.204 -7.138 -6.5935 -7.192 -6.199 -5.175 -9.1175 -7.002001 -6.031 -5.908501 -5.355 
-7.892001 -10.9871 -10.0826 -11.1044 -8.041 -11.8252 -10.404 -11.4954 -6.833 -8.2535 
-11.8777 -14.4762 -13.995 -12.9464 -14.8346 -13.1117 -14.8974 -12.2974 -9.052501 
-15.3668 -18.3886 -15.837 -19.74 -16.1211 -17.6051 -15.6994 -14.5169 
-2.9805 -4.69 -3.091 -3.1335 -2.5045 -1.8085 -4.1985 -5.011 -4.5085 -3.918 -1.934 -3.97 -1.756 -2.9195 -3.7425 
-6.204 -7.138 -6.194 -5.548 -3.3625 -5.2985 -9.786501 -10.9219 -8.8485 -6.013 -5.607 -5.137 -5.16 -6.618 
-7.892001 -10.634 -7.218 -6.1705 -6.094501 -10.494 -15.6974 -15.2619 -11.6229 -10.218 -6.5835 -7.594501 -8.595 
-11.5246 -11.658 -7.6595 -8.3385 -11.6768 -16.4049 -20.0374 -18.0363 -15.8279 -11.3771 -9.425 -11.8209 
-12.5486 -12.0995 -9.816 -14.212 -17.5877 -20.7449 -22.8118 -22.2413 -16.987 -14.2186 -13.938 
-2.9805 -5.84 -2.5195 -4.1445 -1.756 -3.9535 -5.701 -2.264 -4.791 -1.756 -3.97 
-7.055501 -6.4715 -6.0655 -5.1165 -5.4855 -8.4595 -5.987 -7.13 -5.908501 -5.355 
-7.659501 -10.168 -7.7415 -9.3085 -9.191501 -8.584001 -10.2695 -7.776 -8.2535 
-11.702 -11.844 -10.259 -13.1263 -9.2805 -12.9281 -10.9155 -9.8675 
-13.378 -14.3615 -14.1976 -13.2153 -13.6928 -13.5741 -13.007 
-6.332 -4.1445 -4.886 0 -4.077 -1.934 -4.791 -1.756 -3.97 
-10.533 -6.6755 -4.886 -4.077 -4.43 -6.031 -5.908501 -5.355 
-13.4238 -6.6755 -8.756001 -4.43 -8.6305 -6.833 -8.2535 
-13.4238 -10.9293 -9.212 -8.6305 -9.5935 -9.052501 
-17.6776 -11.3853 -13.5023 -9.5935 -11.6736 
