-4.759 
n/a 
n/a 
n/a 
n/a 
-4.759 
n/a 
n/a 
n/a 
n/a 
-4.759 
n/a 
n/a 
n/a 
n/a 
-4.759 
n/a 
n/a 
n/a 
n/a 
-3.676 -3.441 -3.6215 -6.367 -1.4985 -4.901 -3.6215 0 -4.0415 0 -4.5605 0 -1.756 -9.962501 -2.4945 -3.9285 -1.934 -2.3615 
-7.8005 -6.3955 -8.626 -7.298 -6.05 -9.656 -3.6215 -4.0415 -4.0415 -4.5605 -4.5605 -1.756 -12.7271 -12.5402 -5.071 -4.3695 -3.539 
-10.361 -11.7468 -9.727501 -12.1951 -10.0885 -9.656 -7.7805 -4.0415 -7.411 -4.5605 -5.9695 -12.7271 -15.3048 -15.1167 -5.383 -5.392 
-15.7123 -12.8483 -14.685 -16.2336 -10.0885 -13.6518 -7.7805 -7.411 -7.411 -5.9695 -17.9654 -15.3048 -17.8813 -15.4287 -6.364501 
-16.8138 -17.8058 -18.7235 -16.2336 -14.1693 -13.6518 -11.9298 -7.411 -9.3605 -17.9654 -20.5431 -17.8813 -18.1933 -16.4102 
-3.4975 -4.225 -3.6215 -4.4565 -1.4985 -4.519 -4.348 0 -4.257 0 -4.5605 0 -4.283 -4.7715 0 -1.756 -3.599 -3.9665 0 
-7.1485 -6.111001 -8.264501 -5.6065 -5.745 -8.8245 -4.348 -4.257 -4.257 -4.5605 -4.5605 -4.283 -5.433 -4.7715 -1.756 -5.2745 -4.743 -3.9665 
-9.472 -11.2566 -8.8815 -10.66 -9.658 -8.8245 -7.443 -4.257 -6.1385 -4.5605 -6.5705 -5.433 -5.433 -6.262 -5.2745 -6.564 -4.743 
-14.7508 -11.8736 -14.0428 -14.573 -9.658 -12.0047 -7.443 -6.1385 -6.1385 -6.5705 -6.6265 -5.433 -6.9255 -8.179501 -6.564 -6.564 
-15.3678 -17.0349 -17.9558 -14.573 -12.9652 -12.0047 -8.216001 -6.1385 -7.5315 -6.6265 -6.6265 -6.9255 -8.225 -8.203 -6.564 
-2.4265 -2.186 -4.1375 -1.4985 -3.676 -2.229 -4.828 -3.6215 -2.4265 -3.7965 -4.257 -4.5605 -3.9665 -1.756 -3.599 -3.9665 0 
-3.292 -6.9315 -6.516001 -6.125 -4.593 -6.514 -7.2925 -6.545 -5.329 -8.475 -6.1385 -8.303 -5.324 -5.2745 -4.743 -3.9665 
-8.97 -8.573 -11.6207 -6.428 -9.0155 -8.780001 -9.861 -8.897501 -10.434 -9.139501 -9.7305 -9.984 -8.015501 -6.564 -4.743 
-10.7015 -14.2915 -11.9237 -11.7003 -10.3615 -11.5949 -12.2247 -14.0345 -11.0985 -13.7069 -11.5609 -12.7875 -8.722501 -6.564 
-16.42 -14.5945 -17.196 -13.0463 -13.1764 -13.9586 -17.3617 -14.699 -15.6659 -15.5373 -14.3644 -13.4945 -8.722501 
-1.4985 -3.6215 -1.7565 -3.4075 -3.441 -2.186 -4.7155 -1.4985 -4.901 -2.229 -5.4345 0 -2.4265 -3.7965 -3.599 -3.9665 0 -4.257 0 -4.5605 0 -5.3815 
-4.3415 -3.936 -5.009 -5.047501 -5.6035 -6.768001 -5.4705 -6.05 -7.0585 -6.852 -5.4345 -2.4265 -5.329 -7.176001 -4.743 -3.9665 -4.257 -4.257 -4.5605 -4.5605 -5.3815 
-4.621 -6.7885 -6.299 -7.1855 -10.1765 -7.5175 -9.8785 -7.5305 -12.1469 -6.852 -8.370001 -5.329 -9.071 -9.005 -4.743 -6.793 -4.257 -6.1385 -4.5605 -7.3 
-7.2085 -8.375501 -8.0625 -12.1075 -10.973 -12.0573 -10.326 -12.8173 -12.1469 -10.119 -11.7687 -9.071 -11.1804 -9.005 -6.844501 -6.793 -6.1385 -6.1385 -7.3 
-8.782001 -11.0086 -13.2085 -12.904 -15.5128 -12.5048 -16.4384 -12.8173 -15.4139 -13.7383 -15.5107 -11.1804 -11.1804 -10.089 -6.844501 -7.618001 -6.1385 -7.561 
