-4.759 
n/a 
n/a 
n/a 
n/a 
-4.759 
n/a 
n/a 
n/a 
n/a 
-4.759 
n/a 
n/a 
n/a 
n/a 
-4.759 
n/a 
n/a 
n/a 
n/a 
-1.934 -4.1855 0 -3.8275 -4.4825 -5.113 0 -2.925 -2.674 -3.3235 -4.465 -6.144 -2.229 -4.418 
-5.408 -4.1855 -3.8275 -8.253 -9.5395 -5.113 -2.925 -4.1785 -6.475 -6.606501 -11.117 -7.4565 -6.6515 
-5.408 -8.67 -8.253 -13.3766 -9.5395 -8.303 -4.1785 -7.8405 -9.053 -13.7293 -12.4295 -12.3238 
-10.281 -13.2831 -13.3766 -13.3766 -12.9041 -9.5255 -7.8405 -10.7025 -16.4468 -15.0418 -17.2968 
-14.8941 -18.4067 -13.3766 -16.7412 -14.1266 -13.3207 -10.7025 -18.0963 -17.7593 -19.9091 
-3.8275 -4.289 -1.934 -4.1855 0 -4.975 -4.891 -3.8535 -3.2495 -3.699 -5.5515 -3.5455 -2.3615 -3.8405 
-7.591001 -6.006 -5.408 -4.1855 -4.975 -10.1035 -9.953501 -7.062 -6.0885 -10.3745 -8.373 -5.013 -5.371 
-8.859 -9.185 -5.408 -8.892 -10.1035 -15.166 -13.259 -9.8085 -13.4314 -13.196 -9.9455 -5.726 
-12.1854 -9.185 -9.338 -14.1039 -15.166 -18.4715 -16.0055 -17.6034 -16.2529 -14.7685 -10.291 
-12.1854 -13.401 -14.5299 -19.1664 -18.4715 -21.218 -23.8004 -20.4249 -17.8254 -15.114 
-2.5045 -2.3335 -2.95 -1.7565 -3.8275 -2.7415 -3.958 -1.934 -4.1855 0 -4.891 -4.493 -3.2495 -3.535 -3.1385 0 
-4.744 -4.8245 -4.3785 -4.8265 -5.9615 -5.8215 -5.497 -5.408 -4.1855 -4.891 -8.5115 -6.6515 -5.6235 -7.4655 -3.1385 
-5.158 -6.2375 -6.5505 -7.311501 -9.534 -7.318 -9.8545 -5.408 -9.634001 -8.5115 -10.8562 -9.9501 -9.146 -7.4655 
-7.0335 -9.571501 -8.908 -10.9038 -11.3095 -11.9183 -9.8545 -11.3943 -13.2971 -10.8562 -14.1548 -13.4726 -9.146 
-10.3095 -12.0948 -12.5615 -12.6793 -15.9098 -11.9183 -15.8978 -15.0574 -15.6418 -14.1548 -17.6773 -13.4726 
-3.8275 -4.5115 -4.289 -2.5195 -4.1855 0 -1.756 -3.5455 -2.3615 -3.8405 -1.4985 -5.3745 -1.7565 -4.891 -4.4655 -3.2495 -3.535 -7.862 
-8.6525 -8.0065 -5.878 -6.1845 -4.1855 -1.756 -5.4885 -5.013 -5.371 -5.224 -6.2355 -6.2675 -7.001501 -10.038 -7.075001 -5.6235 -12.5244 
-12.3667 -9.618 -9.9915 -6.1845 -5.78 -5.4885 -6.979 -5.726 -6.3585 -10.3475 -6.4355 -9.7705 -12.7883 -12.8219 -9.906501 -15.3825 
-13.9782 -13.9607 -9.9915 -7.8805 -9.047501 -6.979 -7.6115 -6.592 -11.5672 -10.5475 -9.8315 -16.8187 -15.5722 -15.6534 -19.6655 
-18.3209 -13.9607 -11.7207 -11.514 -10.3045 -7.6115 -8.0955 -11.8735 -11.7672 -13.9435 -17.1279 -19.6026 -18.4037 -25.4124 
