-4.759 
n/a 
n/a 
n/a 
n/a 
-4.759 
n/a 
n/a 
n/a 
n/a 
-4.759 
n/a 
n/a 
n/a 
n/a 
-4.759 
n/a 
n/a 
n/a 
n/a 
-1.4985 -3.17 -4.9225 -2.7415 -4.267 -1.7695 -10.5565 -4.9225 0 
-3.7115 -7.3465 -7.802 -7.755501 -6.9425 -13.3082 -15.8952 -4.9225 
-9.5415 -10.6462 -12.9512 -10.1635 -18.9828 -18.6469 -15.8952 
-13.0858 -15.7954 -15.3592 -22.3116 -24.3215 -18.6469 
-18.235 -18.2034 -27.5073 -27.6503 -24.3215 
-3.454 0 -1.7565 -1.4985 -3.1385 -3.8245 -3.147 -2.4945 -4.175 -1.7695 -3.613 -2.356 -4.015 -4.1755 0 
-3.454 -1.7565 -2.4195 -4.2575 -5.577001 -6.1295 -4.5385 -4.9605 -5.779 -4.563 -6.174 -6.2925 -7.7945 -4.1755 
-5.404 -2.4195 -5.013 -6.7355 -7.68 -8.213 -8.554 -6.7775 -7.672501 -6.650001 -10.733 -10.475 -7.7945 
-5.9865 -5.013 -7.257501 -8.290501 -8.867001 -11.9063 -10.31 -8.169001 -9.662001 -11.4284 -14.9155 -10.475 
-8.14 -7.257501 -8.779501 -9.182501 -12.6045 -13.6623 -11.7015 -10.218 -14.6288 -15.6109 -14.9155 
-3.454 0 -1.7565 -1.4985 -3.1385 -3.8245 -3.147 -3.465 -1.7695 -3.613 -1.4985 -3.9675 -1.7565 -4.1755 0 
-3.454 -1.7565 -2.4195 -4.2575 -5.577001 -6.1295 -6.5665 -3.665 -4.563 -4.5455 -5.1285 -4.4555 -5.3105 -4.1755 
-5.404 -2.4195 -5.013 -6.7355 -7.68 -10.025 -6.673 -5.996 -5.1665 -8.869 -5.356 -5.7345 -5.3105 
-5.9865 -5.013 -7.257501 -8.290501 -10.476 -10.2805 -8.606501 -6.506001 -9.184001 -9.245001 -6.34 -5.7345 
-8.14 -7.257501 -8.779501 -11.0993 -10.7315 -12.214 -9.364 -10.4675 -9.610001 -9.802 -6.34 
-4.426 -1.7565 -1.4985 -3.0835 -4.7285 -4.1555 -3.147 0 
-5.47 -2.4195 -3.535 -6.042 -8.4455 -5.77 -3.147 
-5.9535 -4.6785 -6.335501 -9.523001 -9.541501 -5.77 
-8.021 -7.476501 -10.0095 -10.7035 -9.541501 
-9.983001 -11.3061 -11.3 -10.7035 
