-4.759 
n/a 
n/a 
n/a 
n/a 
-4.759 
n/a 
n/a 
n/a 
n/a 
-4.759 
n/a 
n/a 
n/a 
n/a 
-4.759 
n/a 
n/a 
n/a 
n/a 
-3.3985 -3.0605 0 -4.3105 -3.5435 -4.8165 -2.3335 -2.925 -3.557 -1.4985 -5.018 -4.176 -3.8275 -4.335 -4.281 -12.16972 -1.934 -3.188 -3.8275 -3.741 -2.5045 -3.641 -3.8655 
-5.2975 -3.0605 -4.3105 -5.7775 -7.342 -5.8995 -4.0295 -5.51 -4.757 -6.4845 -9.896501 -7.211 -7.645 -7.677 -16.76732 -14.10372 -5.387 -4.801 -5.1015 -6.402 -5.945001 -6.9115 
-5.2975 -7.8105 -5.7775 -9.7075 -8.231501 -7.208 -6.91 -6.5475 -10.5975 -11.6374 -12.9961 -9.7565 -10.609 -20.63672 -18.70132 -17.55672 -5.9855 -5.1285 -7.662 -9.7775 -10.248 
-10.485 -9.467501 -9.7075 -10.6235 -9.613501 -9.795501 -7.724 -12.3796 -15.7504 -14.737 -15.5416 -12.7527 -23.56872 -22.57072 -22.15432 -18.15522 -6.1565 -7.673 -11.4515 -14.3787 
-12.142 -13.4463 -10.6235 -12.0055 -12.4104 -10.546 -13.6523 -17.5325 -18.85 -17.2825 -18.5378 -25.71242 -25.50272 -26.02372 -22.75282 -18.32622 -8.587 -11.4989 -16.0527 
-3.3985 -3.0605 0 -3.6115 -3.188 -3.8275 -2.5045 -4.9465 
-5.2975 -3.0605 -3.6115 -5.7875 -4.801 -6.343 -8.598001 
-5.2975 -7.0275 -5.7875 -5.8365 -7.896 -13.1217 
-9.892 -9.969501 -5.8365 -8.127501 -14.9175 
-12.834 -10.1115 -8.127501 -15.258 
-3.3985 -3.0605 0 -4.3105 -3.5435 -4.3215 -2.3335 -5.511 -5.9855 -7.8265 -2.9705 -2.7415 -5.8495 -3.5455 -1.4985 -3.6115 -3.188 -3.8275 -1.934 -4.9465 0 -2.7415 -3.557 -1.934 -3.641 -3.8655 0 
-5.2975 -3.0605 -4.3105 -5.7775 -6.5315 -5.1075 -7.676001 -12.5275 -10.884 -9.715 -4.512 -7.5565 -8.305 -3.91 -4.081 -5.7875 -4.801 -5.2615 -6.264 -4.9465 -2.7415 -5.094501 -4.4175 -5.245 -6.9115 -3.8655 
-5.2975 -7.8105 -5.7775 -8.079 -7.214 -11.0608 -15.1571 -17.426 -12.7725 -10.3305 -8.918501 -9.353001 -8.667001 -5.798 -5.93 -5.8365 -7.075 -8.329 -6.264 -7.637501 -5.094501 -5.837501 -7.9085 -8.244 -6.9115 
-10.485 -9.467501 -8.079 -8.798 -13.4219 -18.5419 -20.0556 -19.3145 -13.388 -14.933 -10.718 -9.6105 -10.8928 -6.613 -5.9535 -7.327001 -9.285501 -8.329 -8.283001 -10.328 -5.837501 -9.3935 -10.5865 -8.244 
-12.142 -11.8178 -8.798 -15.1985 -20.903 -23.4404 -21.9441 -19.93 -17.9905 -16.7325 -10.9755 -12.0483 -11.7078 -6.6155 -7.350501 -9.342501 -9.285501 -10.368 -10.6215 -11.071 -9.3935 -12.0459 -10.5865 
-2.264 -3.3985 -3.0605 -4.184 0 -4.9465 -3.6115 -3.188 -4.5165 -3.8175 -4.176 -5.9855 -10.5675 -2.7415 -3.557 -1.934 -3.5455 -3.8655 0 -1.4985 -4.3105 -3.5435 -4.8165 
-4.699 -5.2975 -6.047501 -4.184 -4.9465 -8.897501 -5.7875 -6.3925 -8.817 -7.425 -8.503 -17.686 -13.309 -5.094501 -4.4175 -4.8495 -7.301001 -3.8655 -1.4985 -4.977 -5.7775 -7.342 
-6.250501 -7.737 -6.047501 -8.8085 -8.897501 -9.764001 -7.609 -9.967001 -12.6977 -12.3458 -20.4349 -20.4275 -15.662 -5.837501 -7.233 -8.566001 -7.301001 -5.712501 -4.977 -6.05 -9.7075 
-8.451 -7.737 -10.4425 -12.9161 -9.764001 -12.7867 -11.3387 -13.8477 -17.6185 -24.2777 -23.1764 -22.7805 -16.405 -9.012001 -11.3715 -8.566001 -9.4175 -7.331 -6.05 -9.759501 
-8.451 -12.4346 -14.5501 -13.7826 -12.7867 -16.5164 -15.2194 -18.7685 -29.5504 -27.0192 -25.5294 -23.5235 -19.5795 -13.1631 -11.3715 -9.935501 -11.079 -8.3 -9.759501 
