-4.759 
n/a 
n/a 
n/a 
n/a 
-4.759 
n/a 
n/a 
n/a 
n/a 
-4.759 
n/a 
n/a 
n/a 
n/a 
-4.759 
n/a 
n/a 
n/a 
n/a 
-6.0075 -2.229 -4.179 -1.7565 -5.373 -4.257 -4.477 -1.4985 -5.8885 -1.7565 -4.248 -2.7455 -1.4985 -3.7075 -3.9345 -1.7695 -6.0075 -2.229 -4.179 0 -3.345 -3.841 -5.083 -3.9485 -2.664 -5.92 -2.356 -1.4985 -3.7075 -2.5045 -2.871 -4.0075 0 
-6.634 -5.8005 -5.060501 -6.575 -7.396 -8.827 -5.007 -6.8995 -6.7285 -5.522 -7.663 -3.637 -4.6235 -7.944 -3.94 -7.9635 -6.634 -5.8005 -4.179 -3.345 -6.3135 -8.5 -7.224 -6.348001 -6.8685 -7.677 -3.1615 -4.6235 -6.482 -4.905 -6.991 -4.0075 
-7.2335 -6.99 -7.940001 -7.679 -10.5035 -9.295 -9.482 -7.151 -9.482 -9.0795 -8.5775 -6.891 -8.085501 -7.949501 -8.8015 -8.473001 -7.2335 -5.8005 -7.594001 -6.3135 -10.404 -9.8675 -8.8365 -9.375501 -7.963 -8.217501 -6.348001 -6.7945 -8.348001 -8.455501 -6.991 
-7.9935 -8.35 -7.958001 -10.5225 -10.625 -10.6895 -9.601501 -9.659 -10.761 -9.844501 -10.6875 -10.2375 -8.0895 -10.2925 -9.164001 -9.2465 -7.2335 -9.7005 -10.757 -10.404 -10.7705 -10.7635 -10.688 -10.3615 -8.422 -8.922501 -8.005501 -8.415001 -8.737 -8.455501 
-8.3575 -8.360001 -10.5745 -10.6255 -10.738 -10.7135 -10.663 -10.7615 -10.7665 -10.7535 -10.7835 -10.246 -10.3095 -10.351 -9.657001 -9.2465 -10.5035 -10.76 -10.779 -10.7705 -10.7925 -10.769 -11.674 -10.4885 -8.943501 -9.0585 -8.685 -8.746 -8.737 
-2.3345 -3.4625 -6.5515 -3.0415 0 -1.4985 -3.995 -2.742 -4.241 -4.179 -2.5195 -1.4985 -5.0405 -1.7565 -1.4985 -3.7075 -2.872 0 -3.851 -1.7695 -3.922 -1.934 -1.4985 -4.8935 -1.7565 -1.4985 -3.7075 -4.983 0 -2.5685 -4.221 -2.742 -2.489 -4.9345 
-5.532001 -8.896501 -9.739 -3.0415 -1.4985 -4.712 -6.501 -6.064 -6.6915 -6.057001 -3.1695 -6.252001 -6.302 -2.4195 -4.6235 -6.675 -2.872 -3.851 -4.0015 -4.5985 -4.558 -2.6125 -5.717501 -5.6105 -2.4195 -4.6235 -7.178 -4.983 -2.5685 -7.6415 -6.748 -3.301 -5.9115 
-10.4765 -12.6866 -9.739 -4.5735 -4.712 -6.863 -9.986 -8.7675 -7.2785 -6.546 -8.217 -6.6625 -6.8855 -5.468501 -6.900001 -6.675 -6.02 -4.0015 -7.359 -6.31 -5.195 -7.095 -5.923501 -6.117001 -5.468501 -7.854001 -7.178 -7.8745 -7.6415 -9.8465 -7.072001 -6.622 
-14.3568 -12.6866 -11.4218 -8.081 -6.863 -10.354 -12.6895 -9.3645 -8.082001 -11.8789 -8.779 -7.3915 -8.755501 -7.739501 -6.900001 -10.1505 -6.032001 -7.359 -7.5335 -6.946001 -7.978001 -7.2625 -6.3275 -8.087001 -8.936501 -7.854001 -9.842001 -13.3157 -9.8465 -10.167 -9.2425 
-14.3568 -14.3694 -14.9293 -9.488001 -10.354 -13.0575 -13.2865 -10.435 -13.6791 -12.4409 -9.3195 -9.165001 -11.4015 -7.739501 -10.4035 -10.1615 -9.842001 -7.5335 -8.370501 -10.4845 -8.0845 -7.7735 -8.426001 -12.1856 -8.936501 -10.6335 -15.2832 -15.5207 -10.167 -12.3375 
-2.3345 -4.1555 -3.222 -3.7075 -2.229 -5.1795 -3.995 -3.768 -4.092 -2.5195 -1.4985 -3.7075 -2.229 -4.7885 -3.892 -4.983 -4.4305 0 -2.872 -3.383 -8.094001 -4.4845 -4.4305 -2.5685 -1.4985 -3.8245 -3.681 -1.934 -1.4985 -3.995 
-8.246 -5.6 -7.655 -5.5255 -6.7015 -7.947001 -7.6705 -9.168 -5.989 -3.1695 -4.6235 -5.5255 -6.6485 -7.573501 -10.3165 -8.946001 -4.4305 -2.872 -5.6705 -13.2014 -13.2025 -9.491001 -6.5225 -3.7015 -5.1915 -6.1385 -5.219 -2.6125 -4.712 
-10.411 -10.647 -8.437 -8.56 -9.5115 -12.0127 -13.3783 -11.6372 -6.8335 -5.905 -5.9985 -8.5205 -9.9455 -14.4328 -14.2795 -8.946001 -7.723001 -5.6705 -15.9795 -18.3099 -18.209 -11.5382 -7.7325 -7.335 -7.7345 -7.432 -5.9205 -6.1055 
-15.458 -11.429 -11.7621 -11.6124 -14.0202 -17.7205 -15.8475 -12.4817 -8.5245 -7.155 -8.531 -12.9177 -16.8862 -18.3958 -14.2795 -12.3991 -10.76 -15.9795 -21.088 -23.3164 -20.2562 -12.7482 -11.6276 -8.378 -8.7065 -7.746 -9.099001 
-16.24 -14.7541 -14.8145 -16.1211 -19.728 -20.1897 -16.692 -14.1727 -9.356 -9.633 -12.9626 -19.8584 -20.8492 -18.3958 -17.7326 -15.4361 -21.069 -21.088 -26.0945 -25.3636 -21.4662 -16.6433 -12.6706 -9.1995 -9.222 -10.442 
-2.5045 -1.4985 -2.95 -3.7075 -3.9515 -1.4985 -3.995 -1.934 -1.7695 -1.4985 -10.1165 
-3.1915 -3.9285 -6.4545 -8.4975 -5.8425 -4.712 -5.975 -4.0395 -2.7955 -12.7088 
-4.5155 -8.654 -12.5191 -10.028 -9.154 -6.419001 -9.5155 -5.3685 -14.241 
-9.047001 -14.9398 -14.0496 -10.394 -10.195 -9.93 -10.5245 -17.1616 
-15.5486 -16.4703 -14.4156 -11.435 -14.4642 -11.0348 -22.3176 
