-4.759 
n/a 
n/a 
n/a 
n/a 
-4.759 
n/a 
n/a 
n/a 
n/a 
-4.759 
n/a 
n/a 
n/a 
n/a 
-4.759 
n/a 
n/a 
n/a 
n/a 
-5.834 -3.522 0 -8.27 0 -4.5635 
-10.575 -3.522 -8.27 -8.27 -4.5635 
-10.575 -12.5554 -8.27 -13.2603 
-19.6084 -12.5554 -13.2603 
-19.6084 -17.5457 
-4.0885 -5.3935 0 -8.35 -4.3615 
-10.985 -5.3935 -8.35 -13.2271 
-10.985 -14.8123 -13.2271 
-20.4038 -19.6894 
-25.2809 
-3.699 -2.9775 0 -4.3615 -3.594 -2.3345 -5.1845 -4.9225 
-7.56 -2.9775 -4.3615 -7.1765 -5.6065 -7.449 -9.13 
-7.56 -8.066501 -7.1765 -9.946 -11.4194 -11.9015 
-13.2148 -11.1041 -9.946 -15.7589 -15.8719 
-16.2524 -13.8736 -15.7589 -20.2114 
-4.156 -4.867 0 -5.1845 -3.1385 -4.3615 
-10.089 -4.867 -5.1845 -7.4095 -7.9135 
-10.089 -11.015 -7.4095 -12.5609 
-16.237 -13.24 -12.5609 
-18.462 -18.3914 
