-4.759 
n/a 
n/a 
n/a 
n/a 
-4.759 
n/a 
n/a 
n/a 
n/a 
-4.759 
n/a 
n/a 
n/a 
n/a 
-4.759 
n/a 
n/a 
n/a 
n/a 
-2.264 -2.5685 -4.033 0 -3.3255 -1.4985 -3.535 -4.519 -3.325 -1.4985 -3.1715 -4.886 -1.4985 -3.535 -3.6825 -4.52 -2.4945 -4.536 -2.0935 -4.219 -3.4025 0 
-4.5375 -5.286 -4.033 -3.3255 -3.8945 -4.255 -8.863501 -7.2215 -3.898 -3.994 -7.516 -6.605 -4.255 -7.384501 -6.7555 -5.824 -6.039001 -5.771501 -6.009 -8.985001 -3.4025 
-6.6315 -5.286 -6.866 -3.8945 -6.7675 -9.331 -11.8244 -7.684 -6.3585 -8.421 -9.0295 -8.96 -7.764 -9.182 -7.921 -8.2605 -7.0635 -10.322 -11.4556 -8.985001 
-6.6315 -7.91 -7.5 -6.7675 -12.2795 -12.4797 -12.2869 -9.975 -10.2185 -10.5035 -11.4653 -12.7424 -9.624001 -10.4595 -10.3225 -9.377 -11.8558 -15.7686 -11.4556 
-9.130001 -8.625501 -10.7232 -12.2795 -15.4282 -12.9422 -14.5779 -14.283 -12.301 -12.9393 -15.2477 -14.6024 -11.0029 -12.861 -11.439 -14.1697 -17.3024 -15.7686 
-1.934 -2.5685 -1.4985 -4.763 -3.325 -1.4985 -4.7315 -1.4985 -3.535 -4.52 -2.4945 -3.917 -2.3345 -1.4985 -4.0885 -4.219 -3.0695 -4.066 -1.7695 -1.4985 -3.291 -3.8225 -4.219 0 
-4.244 -3.7015 -6.128 -8.2305 -3.898 -6.2285 -6.3535 -4.255 -7.769 -5.824 -5.7075 -5.3355 -3.233 -4.856 -8.918 -7.409501 -6.131001 -4.6735 -2.7955 -3.9665 -7.7725 -8.7745 -4.219 
-5.3815 -7.255 -9.972 -8.757501 -9.5275 -7.884 -8.835501 -8.175501 -9.1075 -7.8915 -6.6465 -5.7085 -6.863 -9.820001 -12.6237 -11.0956 -6.6835 -5.648 -4.9985 -8.449 -13.0651 -8.7745 
-8.358001 -11.315 -10.4985 -14.506 -11.2096 -10.347 -12.8838 -9.472001 -11.2262 -8.8055 -7.0995 -9.605 -12.085 -13.5349 -16.3098 -11.6481 -7.4835 -8.499001 -9.455 -13.9468 -13.0651 
-12.6322 -11.8415 -16.247 -16.1881 -13.6726 -14.3953 -14.1803 -11.5953 -12.1402 -9.23 -11.1544 -14.9086 -15.7999 -17.221 -16.8623 -12.4481 -10.7025 -13.1345 -14.9954 -13.9468 
-1.4985 -9.708501 -2.0935 -3.237 -4.219 0 -1.4985 -3.535 -3.6825 -3.917 -6.956 -3.1715 -3.499 
-11.0145 -10.7665 -4.7925 -7.943501 -4.219 -1.4985 -4.255 -7.384501 -8.0905 -10.703 -10.9575 -7.267 
-12.0725 -14.7631 -9.2135 -7.943501 -5.9465 -4.255 -7.764 -12.3865 -15.4161 -14.7045 -15.053 
-16.0691 -19.1841 -9.2135 -9.72 -8.745501 -7.764 -12.913 -19.7121 -19.4176 -18.8 
-20.4901 -19.1841 -10.7505 -12.519 -12.5017 -12.913 -20.2386 -23.7136 -23.5131 
-2.264 -2.5685 -4.518 -1.4985 -3.699 -3.6825 -4.5345 -2.0935 -5.3485 -3.4025 -2.4945 -4.536 -2.3345 -3.535 -4.519 -3.325 -3.1715 -3.5435 -2.0935 -1.4985 -3.291 -3.237 -4.219 0 
-4.5375 -6.443 -5.7695 -5.264 -8.0815 -7.401 -6.384501 -6.756001 -8.806001 -5.3825 -6.039001 -5.47 -6.5485 -8.863501 -7.2215 -5.966 -5.3835 -5.7 -2.9725 -3.9665 -7.0795 -7.943501 -4.219 
-9.3365 -7.481501 -9.321 -9.284 -12.2056 -9.712501 -11.5348 -9.433001 -10.674 -10.0965 -6.9255 -9.992001 -12.4156 -11.8244 -9.723001 -8.5605 -7.3215 -6.399 -4.972 -7.581501 -10.3615 -7.943501 
-10.522 -11.2904 -13.7144 -13.8325 -14.5171 -14.921 -14.2118 -11.4514 -15.388 -10.6945 -11.9615 -16.3291 -15.3765 -14.3259 -12.2015 -10.4265 -8.002001 -8.271001 -8.6675 -10.4105 -10.3615 
-14.3309 -15.6838 -18.2629 -16.144 -19.7256 -17.598 -16.2302 -16.1654 -15.986 -15.7305 -18.2986 -19.29 -17.878 -16.8044 -14.0675 -11.107 -9.632501 -12.6623 -10.634 -10.4105 
