-4.759 
n/a 
n/a 
n/a 
n/a 
-4.759 
n/a 
n/a 
n/a 
n/a 
-4.759 
n/a 
n/a 
n/a 
n/a 
-4.759 
n/a 
n/a 
n/a 
n/a 
-4.467 -3.397 -2.229 -9.422001 -1.7565 -15.413 
-6.741 -6.1885 -12.271 -12.2245 -17.89 
-9.218 -17.6605 -15.0754 -31.118 
-21.5094 -19.7995 -33.5779 
-23.6484 -38.302 
-3.519 -1.7565 -12.16972 -3.8 -1.7565 -3.16 -7.343 0 -11.6925 
-4.6225 -14.87542 -15.96972 -7.2145 -5.1555 -11.117 -7.343 -10.4945 
-18.51782 -18.67542 -19.38422 -11.1863 -14.0925 -11.117 -18.4673 
-22.31782 -22.08992 -23.35602 -20.1233 -14.0925 -22.2413 
-25.73232 -26.06172 -32.29302 -20.1233 -25.2168 
-8.936001 -8.192 -6.6335 -12.16972 -2.3345 -2.8635 -8.829 
-17.2378 -15.1119 -19.53942 -14.50422 -5.531 -10.4945 
-24.1577 -28.01782 -21.87392 -17.70072 -13.6632 
-37.06362 -30.35232 -25.07042 -25.83292 
-39.39812 -33.54882 -33.20262 
-1.4985 -3.519 -1.7565 -5.015 -4.735 -1.7565 -15.413 
-4.426001 -4.6225 -7.487 -9.094 -5.5405 -17.89 
-4.847001 -11.005 -13.142 -10.039 -23.6355 
-11.8862 -16.7382 -13.4515 -28.3081 
-17.2972 -16.9247 -31.6188 
