-4.759 
n/a 
n/a 
n/a 
n/a 
-4.759 
n/a 
n/a 
n/a 
n/a 
-4.759 
n/a 
n/a 
n/a 
n/a 
-4.759 
n/a 
n/a 
n/a 
n/a 
-1.4985 -4.7885 -4.35 -1.7565 -1.4985 -3.7075 -2.742 -4.449 -1.756 -1.4985 -4.959 -4.1845 -3.9875 -2.742 -5.432 -4.3415 -4.729 -1.7695 -3.7905 -5.7115 0 
-5.282001 -6.498 -5.3865 -2.4195 -4.6235 -6.513 -6.069 -6.0495 -3.0405 -6.127 -6.343 -8.244 -7.3415 -6.493 -8.737 -6.671 -7.0725 -4.482 -9.558001 -5.7115 
-6.845 -6.939001 -6.2025 -5.468501 -6.744 -9.093 -7.4455 -7.8795 -7.4985 -7.6615 -10.717 -12.0726 -11.3221 -10.396 -9.475 -8.772501 -9.601501 -10.078 -9.558001 
-7.153 -7.335001 -8.6265 -8.076 -9.217501 -9.7725 -8.863501 -12.4885 -9.1875 -12.2797 -14.5456 -16.0532 -15.2251 -11.134 -10.704 -11.6079 -15.3627 -10.078 
-7.454 -9.306001 -11.7004 -10.3885 -9.842001 -11.2575 -13.5551 -14.1775 -13.9185 -16.1083 -18.5262 -19.9562 -15.9631 -12.363 -13.5394 -17.3691 -15.3627 
-3.851 -1.7695 -1.4985 -4.547 -1.7565 -1.4985 -4.7885 -3.355 -1.4985 -4.959 -4.1845 -3.8825 -3.9875 -2.4265 -2.742 -3.4625 -1.7695 -5.7115 0 
-4.0015 -2.7955 -5.4925 -5.206501 -2.4195 -5.282001 -7.1815 -5.598001 -6.127 -6.343 -8.626501 -7.461 -6.162 -4.095 -5.367001 -5.0775 -7.457001 -5.7115 
-4.5775 -6.739501 -5.726 -5.702001 -6.1885 -7.2965 -8.921 -10.5325 -7.6615 -11.8798 -12.5334 -9.619501 -8.0225 -6.586 -6.4995 -10.4765 -7.457001 
-7.5595 -6.8915 -6.2075 -9.193001 -8.460001 -9.055 -14.0703 -12.067 -13.4425 -15.7867 -14.6919 -11.5238 -10.354 -7.960001 -12.4023 -10.4765 
-7.633 -7.3625 -9.766001 -11.5411 -10.4265 -14.2569 -15.6048 -17.848 -17.3494 -17.9452 -16.5962 -13.8553 -11.728 -13.8808 -12.4023 
-3.1435 -4.105 -4.8515 -2.742 -4.449 -1.756 -1.4985 -5.082 -3.9875 -2.742 -3.4625 -1.7695 -5.7115 -3.2615 -3.1435 -5.3755 -5.738 0 
-6.797501 -8.3995 -7.39 -6.069 -6.0495 -3.0405 -6.407001 -9.127001 -7.3415 -5.367001 -5.0775 -7.457001 -9.0585 -5.7295 -7.592 -10.2285 -5.738 
-10.185 -11.1516 -10.064 -7.4455 -7.8795 -7.8025 -10.0775 -12.8352 -9.85 -6.4995 -10.4765 -10.4945 -11.6809 -10.9174 -12.892 -10.2285 
-12.9371 -13.8256 -10.627 -8.863501 -12.7925 -11.633 -13.8207 -15.3437 -11.0647 -12.4023 -13.9956 -13.4327 -16.8688 -16.2174 -12.892 
-15.6111 -14.3886 -12.045 -13.8591 -16.623 -15.3762 -16.3292 -16.5584 -16.9675 -15.9214 -16.9338 -18.6206 -22.1688 -16.2174 
-2.3335 -3.634 -1.7565 -4.1985 -5.3745 -1.756 -3.9875 -1.7565 -6.502501 0 
-5.976501 -4.6955 -5.948501 -10.575 -8.263 -6.0845 -5.377501 -7.0905 -6.502501 
-7.6885 -9.452001 -12.6078 -13.4635 -13.0171 -7.356 -11.6577 -7.0905 
-12.5876 -16.6477 -15.4963 -18.2176 -14.2886 -13.764 -11.6577 
-19.7833 -19.5362 -20.2504 -19.4891 -20.6966 -13.764 
