-4.759 
n/a 
n/a 
n/a 
n/a 
-4.759 
n/a 
n/a 
n/a 
n/a 
-4.759 
n/a 
n/a 
n/a 
n/a 
-4.759 
n/a 
n/a 
n/a 
n/a 
-2.5045 -3.76 -3.2785 -4.269 -3.152 -4.493 -1.756 -3.3935 -4.874 -1.934 -1.4985 -3.593 -1.7565 -4.889 -4.8115 -2.3335 -4.0875 -3.5015 -2.5045 -5.817 -1.934 -3.8735 0 
-3.8195 -7.507 -8.029501 -6.461 -5.593 -5.8585 -5.537 -7.742001 -5.694 -2.6125 -4.9895 -4.507 -6.831501 -6.759501 -7.0965 -5.637 -5.143 -5.249 -7.755501 -8.003 -4.885 -3.8735 
-7.513 -10.1635 -9.589001 -7.504 -6.381001 -8.5435 -8.8785 -8.2735 -6.5475 -5.707 -6.0465 -7.9025 -8.8625 -8.252001 -9.078501 -6.0175 -6.1605 -10.66 -9.144001 -9.080501 -4.885 
-10.163 -10.7565 -10.2105 -7.8435 -8.766001 -9.0505 -9.4055 -9.515 -10.118 -6.815001 -9.298 -10.2925 -10.5124 -9.855 -9.2535 -7.112 -11.5999 -12.0485 -10.0225 -9.080501 
-10.756 -11.378 -10.4605 -10.304 -9.280001 -9.6105 -10.2995 -13.1275 -10.3405 -10.4035 -11.7134 -11.9424 -12.1154 -9.960001 -9.9065 -12.693 -12.9884 -12.927 -10.0225 
-3.5315 -3.281 0 -2.8845 -5.817 -4.3185 -4.889 -4.8115 0 -3.851 -1.7695 -1.4985 -4.3185 -4.889 -4.8115 -1.934 -5.817 -1.7565 -5.787 0 -3.8735 -3.2785 -4.269 -4.493 -1.756 -3.3935 -4.269 -4.874 0 
-5.5535 -3.281 -2.8845 -8.8655 -11.0917 -8.502001 -6.759501 -4.8115 -3.851 -4.0015 -2.7955 -5.545 -8.502001 -6.759501 -6.611 -6.944 -9.568001 -6.899001 -5.787 -3.8735 -7.5915 -8.029501 -7.4075 -5.8585 -5.537 -6.8955 -7.379 -4.874 
-5.5535 -4.911 -8.8655 -14.4478 -15.2752 -11.8341 -6.759501 -9.1395 -4.0015 -4.5775 -7.092501 -10.4119 -11.8341 -7.510001 -9.933001 -10.151 -10.735 -6.899001 -6.7005 -7.5915 -12.7705 -10.316 -8.4115 -8.5435 -9.177 -10.1425 -7.379 
-6.539 -10.553 -14.4478 -18.6313 -18.6073 -11.8341 -11.8419 -9.185 -4.5775 -9.016001 -12.1576 -13.744 -12.5846 -10.115 -13.2356 -11.318 -10.735 -8.4165 -10.304 -12.7705 -15.057 -11.3316 -11.4363 -13.1797 -12.4764 -10.1425 
-10.674 -16.1353 -18.6313 -21.9634 -18.6073 -16.9165 -11.8874 -9.6595 -9.016001 -14.2003 -15.4897 -14.4945 -15.1896 -13.493 -14.4026 -11.318 -12.2525 -12.2616 -15.7536 -15.057 -16.0726 -14.3564 -16.0725 -16.4791 -12.4764 
-3.5315 -3.281 0 -4.6165 -4.889 -4.8115 -4.0875 -1.934 -7.27 0 -3.2785 -3.1385 -3.152 -4.493 -1.756 -3.3935 -2.7415 -4.874 -1.934 -1.4985 -4.889 -4.8115 -4.0875 -1.934 -7.27 -1.934 -5.787 0 
-5.5535 -3.281 -4.6165 -10.265 -6.759501 -8.203 -6.2065 -8.4545 -7.27 -3.2785 -6.8915 -5.219 -5.593 -5.8585 -5.537 -6.976501 -6.175 -5.694 -2.6125 -5.8525 -6.759501 -8.203 -6.2065 -8.4545 -9.220501 -6.695 -5.787 
-5.5535 -8.7575 -10.265 -12.1355 -9.567 -11.174 -13.2418 -8.4545 -10.468 -6.8915 -8.5325 -6.315001 -6.381001 -8.5435 -8.951 -10.7824 -6.83 -6.5475 -7.543 -7.963 -9.567 -11.174 -13.2418 -9.661 -10.1905 -6.695 
-11.964 -14.5418 -12.1355 -14.943 -12.6958 -18.2093 -13.2418 -11.7339 -14.081 -8.5325 -8.8215 -6.867001 -8.766001 -12.9537 -12.8043 -11.4374 -7.261 -9.3835 -8.785501 -10.099 -12.6958 -18.2093 -14.4483 -10.9156 -10.1905 
-17.7483 -16.4123 -14.943 -18.0718 -19.7311 -18.2093 -16.5212 -15.3469 -15.722 -8.8215 -9.4355 -8.9335 -13.3366 -16.807 -13.4593 -11.8684 -10.3225 -9.842501 -11.0953 -13.5242 -19.7311 -19.4158 -15.7029 -10.9156 
-3.5315 -3.281 0 -2.8845 -5.817 -4.537 -5.5435 0 -2.5045 -3.76 -3.2785 -4.269 -4.493 -1.756 -3.3935 -4.874 -1.934 -4.889 -5.5435 -1.934 -9.245001 -1.7565 -9.0755 -1.934 -3.8735 0 
-5.5535 -3.281 -2.8845 -8.8655 -9.1975 -7.911 -5.5435 -2.5045 -3.8195 -7.507 -8.029501 -7.4075 -5.8585 -5.537 -7.742001 -5.694 -7.1155 -6.920501 -6.994501 -10.7335 -11.2559 -10.335 -9.72 -4.885 -3.8735 
-5.5535 -4.911 -8.8655 -10.4115 -9.436001 -7.911 -7.567 -3.8195 -7.513 -10.1635 -10.316 -8.4115 -8.5435 -8.8785 -8.2735 -8.4115 -7.807501 -7.68 -16.584 -12.7444 -19.8344 -10.9795 -14.2346 -4.885 
-6.539 -10.553 -10.4115 -10.4985 -9.436001 -9.863001 -8.809501 -7.513 -10.163 -12.5656 -11.3316 -11.4363 -9.0505 -9.4055 -11.4764 -9.0235 -8.923 -17.5865 -18.5949 -21.3229 -20.4789 -15.4941 -14.2346 
-10.674 -12.099 -10.4985 -10.4985 -11.4666 -11.1749 -12.9402 -10.163 -12.5651 -13.5812 -14.3564 -11.9433 -9.6105 -12.9482 -12.0884 -9.399501 -19.2953 -19.5974 -27.1734 -21.9674 -24.9935 -15.4941 
