-4.759 
n/a 
n/a 
n/a 
n/a 
-4.759 
n/a 
n/a 
n/a 
n/a 
-4.759 
n/a 
n/a 
n/a 
n/a 
-4.759 
n/a 
n/a 
n/a 
n/a 
-1.4985 -5.1845 -5.74 -6.0655 -2.8645 -5.324 -12.16972 -12.16972 -5.3535 -3.5015 -1.934 -7.835001 -2.5045 -5.3885 
-6.5205 -5.7465 -10.7495 -7.972 -7.4235 -19.06672 -24.33944 -17.52322 -9.332001 -4.704 -10.4855 -10.533 -7.3385 
-7.317 -10.749 -12.656 -12.7054 -22.01062 -31.23644 -29.69294 -21.50172 -10.6907 -13.7563 -13.1835 -15.367 
-12.9253 -12.6555 -17.3894 -27.29252 -34.18034 -36.58994 -33.67144 -22.86042 -19.743 -16.4543 -18.0175 
-14.8318 -17.3889 -31.97652 -39.46224 -39.53384 -40.56844 -35.03014 -31.91272 -22.441 -21.2883 
-6.557 -3.5435 -3.319 -1.7565 -2.9805 -4.4925 -5.3885 -7.471 -1.934 -2.9805 -10.0425 -8.445001 -3.941 
-8.731501 -7.0775 -4.165 -6.1285 -9.290501 -9.8085 -13.8273 -9.297501 -5.9345 -14.4254 -18.4875 -13.1178 
-12.5029 -8.4335 -9.193501 -12.2161 -14.6295 -18.5193 -15.6538 -13.5508 -17.3274 -22.8704 -23.1603 
-13.8589 -13.9194 -15.4101 -17.5551 -23.3403 -20.3458 -19.9071 -24.9437 -25.7724 -27.5432 
-19.3448 -20.136 -20.7491 -26.2659 -25.1668 -24.5991 -31.3 -33.3887 -30.4452 
-6.557 -3.5435 -2.8645 -4.0835 -1.8085 -4.4925 -2.0935 -3.4155 -4.2245 -7.5605 -3.9615 -7.175 0 -5.3885 
-8.731501 -5.259501 -5.8155 -5.547 -5.835 -6.614 -5.571 -6.626 -10.543 -12.358 -9.8615 -7.175 -5.3885 
-10.089 -8.253 -6.362 -8.8345 -7.3015 -10.2325 -9.4505 -13.4699 -15.3405 -18.258 -9.8615 -7.346 
-13.0825 -8.8985 -10.0705 -9.896501 -11.2696 -14.112 -16.8546 -18.2674 -21.2405 -18.258 -10.3025 
-13.728 -12.719 -11.2563 -14.1246 -15.1491 -21.5161 -21.6521 -24.1674 -21.2405 -18.699 
-3.5435 -4.673 -1.8085 -8.445001 -3.545 -2.5045 -7.175 -1.7695 -3.3785 -1.4985 -3.941 -2.7455 -3.595 
-8.075001 -6.5125 -10.233 -12.7218 -5.7765 -9.228001 -10.2595 -4.1685 -4.6165 -5.133 -7.207001 -5.5125 
-9.692 -15.6528 -14.6002 -14.9533 -12.6964 -11.9755 -12.6585 -5.3175 -8.564501 -8.920501 -9.828001 
-18.8791 -20.02 -16.8317 -21.8732 -15.4439 -14.3745 -13.8075 -9.169001 -12.5948 -11.7313 
-23.2463 -22.2515 -23.7516 -24.6207 -17.8429 -15.5235 -17.659 -13.4331 -15.4056 
