-4.759 
n/a 
n/a 
n/a 
n/a 
-4.759 
n/a 
n/a 
n/a 
n/a 
-4.759 
n/a 
n/a 
n/a 
n/a 
-4.759 
n/a 
n/a 
n/a 
n/a 
-3.1435 -4.541 -6.982 -2.186 -4.043 -3.9225 -1.4985 -5.383 -5.2365 0 -1.756 -2.4265 -2.186 -3.074 -1.4985 -3.098 -4.3305 -3.3155 -4.502 -6.1825 -2.8645 -3.1125 -4.5295 -3.995 -2.229 -4.6985 -2.186 -5.749 -3.6065 -2.5195 -3.45 -1.7565 -1.4985 -2.8965 -5.2365 0 -3.7875 -3.1125 -5.0535 -2.3345 -1.4985 -4.4115 -1.7565 -3.3435 -1.7695 -4.3185 -3.1255 0 -3.046 -4.8095 0 -3.677 0 -2.4265 -2.8645 -2.871 -3.8665 -4.3645 0 -1.4985 -4.4515 0 -1.4985 -3.098 -3.6885 -4.3645 -1.7565 -1.8085 -5.383 -4.3305 -1.934 -1.4985 -4.365 -3.2 
-7.4495 -9.935501 -9.003 -5.535501 -6.651501 -4.463 -6.5035 -7.2375 -5.2365 -1.756 -3.949 -3.292 -4.156 -4.6505 -4.123 -7.5315 -7.039001 -8.803 -6.500501 -8.752001 -3.5345 -5.8625 -8.834 -5.324 -6.2995 -6.187 -7.0575 -6.427 -4.897 -5.1315 -4.638 -2.4195 -3.928 -6.56 -5.2365 -3.7875 -5.2785 -6.363 -6.262 -3.233 -4.787 -4.7565 -4.4105 -5.263 -5.4715 -8.516001 -3.1255 -3.046 -7.5895 -4.8095 -3.677 -3.677 -2.4265 -4.1435 -5.417 -7.1565 -7.3595 -4.3645 -1.4985 -5.0235 -4.4515 -1.4985 -4.123 -6.9045 -8.034 -6.9915 -3.2595 -6.989 -7.4835 -6.2615 -2.6125 -5.4465 -5.4195 
-10.476 -10.472 -10.5985 -7.0645 -7.347001 -9.0645 -7.7545 -7.2375 -6.247 -3.949 -4.7355 -4.91 -5.301001 -6.5855 -7.652 -9.299001 -10.4185 -9.778001 -8.942 -9.477 -6.2535 -10.609 -10.004 -6.49 -7.533501 -10.259 -7.4 -7.1175 -6.1525 -6.138 -5.178 -4.976501 -7.377501 -6.56 -8.793501 -5.2785 -8.7565 -7.319 -6.8765 -6.138 -4.837 -8.1555 -6.3605 -9.812 -9.535001 -8.516001 -6.9045 -7.5895 -7.5895 -9.144501 -3.677 -6.933001 -4.1435 -6.6825 -9.2475 -9.371 -7.3595 -6.8755 -5.0235 -5.0235 -6.087501 -4.123 -7.4235 -9.8855 -9.83 -8.5455 -7.91 -8.4705 -9.2255 -6.753 -6.366 -5.913 
-10.6485 -10.6165 -10.618 -7.75 -9.935 -9.559 -7.7545 -8.378 -8.7795 -4.7355 -6.5235 -6.0905 -6.8945 -9.769 -9.3055 -10.477 -10.439 -10.4625 -9.6455 -10.487 -10.66 -10.6665 -10.665 -7.841001 -10.564 -10.3565 -7.689 -8.311501 -6.703 -6.656 -7.02 -8.085001 -7.377501 -9.908 -10.078 -8.7565 -9.505501 -7.943 -8.3915 -6.18 -8.267 -10.2535 -10.286 -10.488 -9.535001 -10.5865 -10.4675 -7.5895 -12.4073 -9.144501 -6.933001 -8.4245 -6.6825 -10.015 -9.728001 -9.371 -8.8855 -8.6055 -5.0235 -6.4355 -8.688001 -7.4235 -9.901001 -10.537 -10.536 -10.5535 -9.22 -9.634501 -9.4455 -7.7765 -6.6505 
-10.696 -10.636 -10.6375 -10.0955 -9.976001 -9.559 -8.687 -10.3965 -9.388 -6.5235 -7.5255 -7.4325 -9.828 -10.392 -10.4765 -10.492 -10.5685 -10.5925 -10.5355 -10.6905 -10.6825 -10.7015 -10.6875 -10.5745 -10.582 -10.514 -9.6685 -8.705501 -7.2115 -7.981 -9.6805 -8.085001 -10.434 -10.601 -10.5485 -9.505501 -9.886001 -9.595501 -8.429501 -9.605 -10.2745 -10.494 -10.494 -10.488 -10.5875 -10.617 -10.4675 -12.4073 -12.4073 -12.5655 -8.4245 -11.4399 -10.015 -10.172 -9.728001 -9.5235 -9.046 -8.6055 -6.4355 -8.941 -10.543 -9.901001 -10.5365 -10.5745 -10.5735 -10.571 -10.1 -9.91 -10.21 -7.78 
-2.9905 -1.7565 -3.1495 -3.7825 -5.2365 0 -1.4985 -3.995 -2.186 -4.0005 -4.4755 -2.9905 0 -2.356 -3.1435 -4.7885 -4.35 -3.7875 -3.93 -5.7565 -3.9665 -1.756 -4.692 -3.519 -4.8215 -5.284 -3.9555 0 
-3.6185 -3.914 -5.8665 -8.1035 -5.2365 -1.4985 -4.712 -5.7465 -6.332001 -6.375 -5.912 -2.9905 -2.356 -4.6055 -6.983 -6.498 -6.899501 -7.184 -9.205501 -6.969501 -5.324 -6.0395 -7.446501 -8.17 -9.8205 -9.226001 -3.9555 
-6.2915 -6.585001 -9.381001 -8.1035 -6.8535 -4.712 -6.1195 -9.639501 -7.861001 -9.517 -5.912 -4.899 -4.6055 -8.5155 -8.692 -8.934 -9.878 -12.5953 -10.3165 -8.2945 -9.2145 -9.191 -12.7793 -13.2728 -13.8479 -9.226001 
-8.474001 -10.0185 -9.381001 -9.623 -8.851501 -6.1195 -9.994501 -11.3865 -11.313 -9.517 -7.055 -7.2365 -8.5155 -10.3675 -11.2512 -12.0539 -15.2893 -13.7063 -11.8443 -10.553 -12.684 -14.6752 -17.8821 -17.3002 -13.8479 
-12.0065 -10.0185 -11.2855 -11.699 -9.790001 -9.994501 -11.6815 -14.8385 -11.313 -10.7154 -10.4505 -11.4503 -10.3675 -12.9267 -14.3711 -17.4652 -16.4003 -15.2341 -14.1028 -14.6175 -18.1682 -19.778 -21.9095 -17.3002 
-1.934 -2.3615 -3.7825 -5.2365 0 -3.995 -2.8645 -3.43 -1.7565 -3.383 -3.299 -4.625 0 -2.4265 -2.8645 -3.383 -3.299 -8.673 -3.9665 0 -2.4265 -2.8645 -4.0205 -5.27 -3.89 -1.756 -3.9555 -1.934 -5.5085 
-3.539 -6.319 -8.1035 -5.2365 -3.995 -6.472 -4.9155 -4.9095 -5.5535 -5.179 -5.621 -4.625 -2.4265 -4.1435 -5.9505 -5.179 -13.3216 -9.696 -3.9665 -2.4265 -4.1435 -6.3605 -7.732 -10.1945 -5.46 -5.41 -6.1985 -7.8095 
-6.784 -11.7268 -8.1035 -8.002001 -6.472 -8.795501 -6.9985 -7.7175 -6.686 -7.6705 -5.621 -7.364 -4.1435 -6.944 -7.3465 -15.5082 -14.3446 -9.696 -6.217501 -4.1435 -7.5525 -10.022 -13.2071 -11.8753 -9.781 -7.619 -12.6196 
-13.2096 -11.7268 -10.0885 -10.041 -8.795501 -11.0025 -10.8971 -8.891001 -8.826 -7.6705 -8.486 -8.732 -6.944 -8.378 -17.9465 -16.5312 -14.3446 -11.9888 -7.771501 -7.5525 -10.673 -15.5799 -14.8879 -16.1963 -12.106 -14.3307 
-13.2096 -13.7118 -12.7771 -12.4897 -11.0025 -14.9011 -12.0706 -11.883 -8.826 -9.929501 -9.972501 -11.7851 -8.378 -19.0614 -18.9695 -16.5312 -16.6374 -13.5428 -11.4891 -10.673 -16.2309 -17.2607 -19.2089 -18.5213 -18.8177 
-1.934 -1.4985 -3.7825 -5.2365 -2.4945 -3.383 -3.301 -9.2065 -3.519 
-2.6125 -4.8035 -8.1035 -6.852 -4.732 -4.6415 -13.6781 -10.4265 
-6.117001 -8.896 -9.2215 -8.897 -6.205 -15.2112 -14.8981 
-10.7175 -10.155 -11.4643 -10.7186 -17.2895 -16.4312 
-11.9765 -12.3978 -13.2859 -21.8031 -18.5095 
