-4.759 
n/a 
n/a 
n/a 
n/a 
-4.759 
n/a 
n/a 
n/a 
n/a 
-4.759 
n/a 
n/a 
n/a 
n/a 
-4.759 
n/a 
n/a 
n/a 
n/a 
-3.0415 -2.3335 -2.5195 -2.3615 -3.1435 -5.0835 -1.4985 -3.93 -4.0745 -2.5045 -3.0835 -1.934 -3.676 0 -4.685 -2.5195 -2.3615 -1.4985 -5.5225 -4.194 -2.5195 -4.748 -1.7695 -4.1855 -1.4985 -3.8385 -3.4425 -2.186 -2.5045 -4.4925 0 -3.9465 0 -4.45 -1.756 -1.4985 -6.133 -2.229 -1.934 -2.3615 -3.5015 -2.925 -5.104 -2.985 -3.213 -2.5045 -2.1715 -4.0225 -4.1435 
-4.132 -5.569 -4.4095 -6.6095 -9.558001 -6.349501 -5.065001 -9.127501 -6.124 -5.9195 -5.265 -4.7985 -3.676 -4.685 -5.093 -4.4095 -4.913 -6.413501 -9.794001 -6.661 -6.7815 -6.468 -6.322001 -5.757 -4.778501 -5.629 -5.4195 -4.660501 -7.9515 -4.4925 -3.9465 -3.9465 -4.45 -6.2155 -3.0405 -8.1455 -7.982 -4.573 -3.539 -5.2225 -6.155 -9.8015 -7.1475 -5.142 -5.092 -5.4595 -4.8435 -8.064 
-7.476 -7.2405 -8.657001 -13.6526 -10.8514 -9.783001 -10.0475 -11.2744 -9.906 -7.9575 -8.2615 -4.7985 -8.262001 -5.093 -6.587 -6.8825 -10.092 -10.66 -12.3494 -10.76 -7.0715 -8.190001 -7.5695 -9.495001 -6.640501 -7.078001 -7.0005 -10.6735 -7.9515 -7.6555 -3.9465 -6.7705 -6.2155 -7.007 -9.623 -10.233 -10.712 -6.246 -6.392 -7.5385 -13.3009 -12.1824 -9.646 -6.872 -8.943 -7.8365 -9.055501 
-8.859 -11.8198 -15.7165 -14.946 -14.2849 -14.9967 -12.1944 -15.0564 -12.0888 -11.3092 -8.2615 -9.361501 -8.5495 -6.587 -7.613 -12.1677 -14.5773 -13.2154 -16.4484 -11.05 -8.285501 -9.302501 -11.5263 -10.6355 -7.9125 -8.573501 -13.1001 -10.6735 -11.7253 -7.6555 -6.7705 -7.4835 -7.007 -14.3693 -11.7801 -13.1128 -12.385 -9.033501 -8.465 -14.865 -15.6818 -14.6809 -11.5088 -10.6602 -11.4558 -12.2409 
-13.6385 -18.8793 -17.0099 -18.3795 -19.4986 -17.1436 -15.9764 -17.2392 -15.4405 -11.3092 -13.2217 -9.384501 -10.419 -7.613 -13.0068 -16.653 -17.1327 -17.3144 -16.7384 -12.264 -9.3835 -13.3069 -12.6668 -11.9075 -9.684001 -14.8203 -13.1001 -14.4473 -11.7253 -9.22 -7.4835 -8.173 -14.3693 -16.5264 -14.6599 -14.7858 -15.1725 -11.2797 -15.7909 -17.2459 -18.1803 -16.5437 -15.297 -13.173 -15.8602 
-2.5045 -1.8085 -3.777 -1.7565 -2.3615 0 -3.676 -3.423 -4.3455 -3.1435 -3.8685 -1.7565 -4.629 -3.264 -2.871 -1.934 -3.1435 -4.591 -3.034 -2.3585 -4.115 -1.4985 -4.591 -3.543 -4.0225 0 -2.4265 -2.8645 -3.1125 -4.629 -2.5045 -1.8085 -4.86 -2.5195 -4.748 -4.732 -4.1855 0 -2.872 -2.6165 -3.1015 -1.4985 -4.1645 -2.4945 -4.4925 0 -3.9465 0 -4.45 -1.756 -4.7625 -4.2315 -2.645 -1.934 -4.591 -3.543 -4.0225 -3.1575 -3.676 0 
-3.3625 -4.3955 -4.411 -3.523 -2.3615 -3.676 -7.051001 -7.041 -6.0455 -5.8975 -4.9575 -6.9375 -7.782001 -5.1405 -4.8125 -4.335 -7.3275 -7.4315 -3.972 -5.3715 -4.8635 -5.955501 -7.49 -5.2925 -4.0225 -2.4265 -4.1435 -3.5345 -8.564501 -7.0105 -3.3625 -5.9505 -8.087 -6.7815 -9.018 -8.410501 -4.1855 -2.872 -4.245 -5.976 -4.7205 -5.534 -5.7405 -8.3785 -4.4925 -3.9465 -3.9465 -4.45 -6.2155 -6.8325 -9.790501 -7.518001 -4.7605 -6.3535 -7.49 -5.2925 -7.3755 -7.257501 -3.676 
-4.4445 -4.6235 -5.6815 -3.523 -7.3065 -7.051001 -10.361 -8.382501 -7.577 -7.695001 -9.568501 -9.805 -8.415 -6.4965 -7.377 -8.812 -9.880501 -8.434 -6.222 -6.38 -9.2445 -8.719001 -8.458 -5.2925 -6.5435 -4.1435 -4.755 -8.8465 -10.375 -7.9155 -6.929 -9.0675 -12.5412 -9.342 -12.8411 -8.410501 -7.0255 -4.245 -7.118001 -7.622 -8.6855 -6.9665 -12.2775 -8.3785 -7.6555 -3.9465 -6.7705 -6.2155 -7.3555 -12.5221 -13.2506 -10.151 -9.348001 -8.729501 -8.458 -7.774 -11.9723 -7.257501 
-4.6725 -5.863 -5.6815 -8.723001 -10.155 -10.361 -11.7025 -9.869 -8.958 -12.539 -12.82 -10.1625 -8.6405 -8.193001 -12.2162 -11.4604 -10.9282 -10.4505 -6.7415 -10.4505 -11.8972 -9.992001 -8.458 -7.469 -8.2415 -4.755 -10.286 -10.564 -11.4776 -11.833 -10.233 -13.6693 -15.1017 -13.1747 -12.8411 -10.442 -8.6245 -7.118001 -8.569 -11.7706 -9.444 -13.6645 -12.2775 -12.0707 -7.6555 -6.7705 -7.4835 -7.3555 -13.2493 -15.9822 -15.8836 -14.9949 -10.3485 -9.621 -10.7495 -12.5386 -11.9723 
-5.8735 -5.863 -10.4505 -11.7777 -13.6296 -11.7025 -13.189 -11.1344 -14.0142 -15.7905 -13.1775 -10.543 -10.382 -13.8178 -14.8646 -12.5081 -12.9447 -10.97 -10.5865 -13.1032 -13.1702 -9.992001 -11.0283 -8.971001 -8.963 -10.286 -12.0035 -11.8028 -15.3951 -15.137 -14.8138 -16.2298 -18.9344 -13.1747 -14.8726 -12.041 -11.8181 -8.569 -12.7884 -12.5291 -16.1574 -13.6645 -15.9697 -12.0707 -9.22 -7.4835 -8.656 -13.2493 -16.7094 -18.6152 -20.7275 -15.9954 -12.7694 -11.9857 -15.5141 -12.5386 
-3.676 -3.7085 -3.1435 -3.0835 -3.5015 -1.934 -1.4985 -3.188 -2.0935 -1.934 -1.4985 -4.1645 -7.686 -1.4985 -4.0885 -3.5015 -2.186 -2.6165 -3.1015 -3.1435 -3.5205 -1.934 -1.4985 -3.8935 -3.6395 -1.934 -2.871 -4.0225 -1.934 -1.4985 -3.158 -4.748 -1.7695 -1.934 -1.4985 -3.498 -1.7565 -4.1855 -1.4985 -4.1645 -2.4945 -3.6245 -5 -1.934 -1.4985 -3.213 -3.8935 -1.934 -2.871 -4.0225 -3.3155 -1.934 -4.4925 0 -3.9465 0 -4.45 -1.756 -4.7625 
-7.8285 -6.2585 -5.1475 -5.07 -4.704 -2.6125 -3.619 -5.476501 -4.7945 -2.6125 -5.534 -12.044 -9.06 -4.856 -7.7535 -5.481 -3.5105 -5.976 -6.089 -4.573 -5.900001 -2.6125 -4.9325 -6.6525 -5.4175 -4.2805 -5.214 -5.999 -2.6125 -4.178 -7.0495 -6.468 -4.9225 -2.6125 -4.0295 -4.005 -6.055501 -5.757 -5.534 -5.7405 -5.2145 -7.778 -7.1405 -2.6125 -4.3955 -7.753 -5.45 -4.2805 -5.214 -7.4265 -5.559 -5.852 -4.4925 -3.9465 -3.9465 -4.45 -6.2155 -6.8325 
-9.513 -9.43 -8.386001 -6.239501 -5.1615 -4.377 -5.6895 -8.5375 -5.225501 -7.2605 -13.7655 -13.3845 -11.8625 -8.413 -10.2755 -7.027 -6.995 -9.170501 -8.1805 -6.724 -6.5305 -5.716001 -7.460501 -8.1185 -8.0725 -6.6025 -7.06 -6.623 -5.265 -8.117001 -9.066501 -10.6314 -5.7225 -5.101 -4.188 -7.835001 -7.264501 -9.904 -6.9665 -8.566001 -8.797001 -9.975 -7.826 -5.6925 -9.2165 -9.529 -8.13 -6.6025 -8.764501 -9.82 -9.1945 -5.852 -7.6555 -3.9465 -6.7705 -6.2155 -7.3555 
-13.0401 -10.005 -9.4265 -6.546 -6.3265 -6.238501 -8.738001 -9.18 -9.632001 -16.056 -14.903 -16.8631 -16.2285 -10.5425 -11.8215 -10.3475 -10.4185 -11.3544 -10.7147 -7.3465 -10.054 -8.695001 -9.047501 -10.9495 -10.5325 -8.545 -7.706 -9.082 -8.588 -9.804501 -13.4649 -11.4314 -7.833 -6.413 -7.852001 -8.644501 -11.7285 -11.4153 -9.498 -12.4587 -11.189 -10.707 -11.41 -10.1465 -11.0811 -12.2878 -10.4675 -10.1145 -11.3962 -13.3731 -9.1945 -8.936001 -7.6555 -6.7705 -7.4835 -7.3555 
-13.6151 -11.6793 -9.634001 -8.4285 -7.6575 -9.344001 -9.382 -13.7641 -19.0581 -17.0545 -18.3816 -21.0395 -18.358 -12.0885 -15.142 -13.771 -12.6024 -13.8886 -11.3372 -10.621 -13.0534 -10.459 -11.9809 -13.4095 -12.475 -9.3085 -9.545501 -12.6064 -10.4035 -14.2925 -14.2649 -13.5419 -9.282001 -9.6365 -8.647 -13.2457 -13.2398 -13.9468 -13.5163 -14.8507 -11.921 -14.291 -15.864 -12.3855 -13.8399 -14.6253 -14.2637 -12.7462 -14.9493 -13.3731 -12.6889 -8.936001 -9.22 -7.4835 -8.656 
-3.299 -4.591 -8.155001 -2.3345 -1.4985 -3.4975 -4.1645 -2.186 -1.4985 -3.188 -4.1925 -1.756 -2.847 -2.871 -3.5015 0 -4.4925 0 -4.5325 -9.660501 -3.9465 -5.169 -2.9965 -7.9195 -8.155001 -3.8935 
-6.711 -13.9386 -10.9165 -3.233 -4.3125 -6.4145 -6.4565 -3.339 -3.619 -8.079 -6.3165 -4.6065 -4.4675 -5.183 -3.5015 -4.4925 -4.4925 -4.5325 -15.2968 -13.6098 -9.5765 -7.541 -10.9076 -16.5451 -12.4755 
-16.4532 -16.7001 -11.815 -5.433 -7.802501 -8.49 -7.738 -4.9385 -8.3815 -10.143 -9.5795 -5.632 -8.1475 -5.183 -8.6155 -4.4925 -8.853001 -15.2968 -19.2461 -19.2398 -11.9783 -15.5621 -19.5332 -20.8656 
-19.2147 -17.5986 -14.015 -9.649501 -9.8915 -9.5865 -10.0675 -10.0005 -10.523 -13.6774 -10.7674 -9.9175 -8.1475 -11.0694 -8.6155 -8.853001 -19.9739 -19.2461 -24.8761 -21.6416 -19.9994 -24.1877 -23.8537 
-20.1132 -19.7986 -18.2315 -11.9473 -10.988 -12.2134 -14.9569 -12.142 -14.0574 -14.8653 -15.0529 -9.9175 -14.8003 -11.0694 -13.3106 -19.9739 -23.9232 -24.8761 -27.2779 -29.6627 -28.625 -28.5082 
