-4.759 
n/a 
n/a 
n/a 
n/a 
-4.759 
n/a 
n/a 
n/a 
n/a 
-4.759 
n/a 
n/a 
n/a 
n/a 
-4.759 
n/a 
n/a 
n/a 
n/a 
-1.934 -4.642 -4.153 -7.680501 -5.2725 -6.864 0 
-6.748 -6.7015 -9.794001 -13.7482 -12.8881 -6.864 
-8.505501 -13.0661 -16.1173 -21.3638 -12.8881 
-15.1049 -19.3894 -23.7329 -21.3638 
-21.4282 -27.005 -23.7329 
-1.934 -4.642 -4.153 -9.352 -2.229 -3.973 -8.5035 0 
-6.748 -6.7015 -14.3876 -11.9702 -6.1285 -13.4929 -8.5035 
-8.505501 -17.6597 -17.0058 -15.8697 -16.1214 -13.4929 
-19.6985 -20.2779 -20.9053 -25.8626 -16.1214 
-22.3167 -24.1774 -30.8982 -25.8626 
-3.5455 -9.84 -2.925 -5.2725 -7.4885 0 
-14.7063 -13.4325 -7.0965 -13.5126 -7.4885 
-18.4078 -17.34 -15.5358 -13.5126 
-22.3153 -25.7793 -15.5358 
-30.7546 -25.7793 
-9.434 -3.9955 -3.2295 -8.171 -1.934 -4.642 -4.153 
-13.6203 -6.51 -12.5555 -9.703501 -6.748 -6.7015 
-16.1348 -16.1776 -14.088 -14.7541 -8.505501 
-25.8024 -17.7101 -19.1386 -16.5116 
-27.3349 -22.7607 -20.8961 
