-4.759 
n/a 
n/a 
n/a 
n/a 
-4.759 
n/a 
n/a 
n/a 
n/a 
-4.759 
n/a 
n/a 
n/a 
n/a 
-4.759 
n/a 
n/a 
n/a 
n/a 
-3.1435 -2.186 -4.6165 -3.585 -1.934 -5.1845 -3.6885 0 
-6.7615 -6.428 -6.6025 -5.26 -6.564 -7.323501 -3.6885 
-11.1691 -9.282001 -8.309501 -10.575 -8.119 -7.323501 
-14.0231 -11.1014 -13.8861 -12.2854 -8.119 
-15.8425 -16.678 -15.5965 -12.2854 
-2.4265 -2.186 -1.8085 -4.6165 -3.585 -1.934 -5.1845 
-3.292 -3.164 -5.5055 -6.6025 -5.26 -6.564 
-4.4005 -6.5975 -6.915 -8.309501 -10.575 
-7.7885 -7.366 -8.411 -13.8861 
-8.401 -8.792001 -14.02 
-2.3615 -2.186 -2.664 -3.8465 -2.9705 -2.186 -5.113 -3.325 -3.9595 -1.934 -5.1845 
-3.5005 -3.8555 -5.6595 -6.2665 -3.89 -6.3745 -7.903501 -7.7415 -5.166 -6.564 
-4.8275 -6.883 -7.3225 -6.977 -7.808001 -8.684001 -12.7144 -8.743 -10.3285 
-7.910501 -8.149 -7.9315 -10.597 -10.2085 -13.9297 -13.7159 -14.0505 
-9.189501 -8.887 -11.7591 -12.9975 -15.4542 -14.9312 -19.0234 
-2.3615 -2.186 -2.664 -4.5545 -3.8465 -5.113 0 
-3.5005 -3.8555 -5.4025 -7.26 -8.9805 -5.113 
-4.8275 -6.224501 -7.652 -12.8698 -8.9805 
-7.005 -8.14 -13.517 -12.8698 
-8.874001 -13.9678 -13.517 
