-4.759 
n/a 
n/a 
n/a 
n/a 
-4.759 
n/a 
n/a 
n/a 
n/a 
-4.759 
n/a 
n/a 
n/a 
n/a 
-4.759 
n/a 
n/a 
n/a 
n/a 
-3.4765 -3.929 -2.9805 -5.5305 -3.982 -2.0935 -4.129 -2.3615 -3.8275 -7.025 
-4.589 -5.378 -7.069 -9.203501 -6.37 -6.0435 -6.2225 -5.965 -11.046 
-5.891 -9.561001 -10.281 -9.496501 -9.83 -7.3675 -8.9805 -13.9303 
-10.3405 -12.792 -11.4828 -10.261 -11.744 -9.411001 -17.047 
-13.5715 -13.9938 -12.2473 -12.9784 -13.7875 -17.5643 
-2.8195 -3.5765 -4.4175 -2.3335 -3.4765 -2.7835 -3.982 -2.186 -2.6165 -4.175 -1.934 -4.3905 -1.4985 -4.257 -1.4985 -4.238 -4.0195 -2.0935 -1.4985 -3.8275 -2.186 -3.982 0 
-6.059 -9.346001 -5.0185 -5.155 -4.429 -7.584001 -6.2965 -3.5105 -5.7335 -4.3135 -6.117 -5.1855 -5.0245 -6.1835 -5.117001 -5.931001 -5.5855 -2.9725 -4.726 -5.669 -7.015 -3.982 
-13.0415 -9.841001 -7.6775 -5.9275 -9.080501 -8.554001 -7.8435 -6.7225 -5.8715 -7.513 -6.7765 -9.045 -6.769001 -10.66 -6.173 -7.617001 -6.5175 -6.304 -6.430501 -10.634 -7.015 
-13.5365 -12.5534 -8.181 -10.118 -10.111 -9.972001 -10.426 -6.7915 -9.177501 -8.1785 -10.361 -11.1841 -11.4575 -11.716 -7.788001 -8.196001 -9.058001 -8.0695 -11.7083 -10.634 
-16.2489 -13.0569 -12.3637 -11.1485 -11.529 -12.6511 -10.4635 -9.910501 -9.6505 -11.9628 -12.5001 -15.8726 -12.5135 -13.331 -8.321501 -10.1985 -11.0709 -13.5267 -11.7083 
-5.1215 -1.7565 -2.3615 -2.8195 -5.1465 -4.099 -2.3335 -3.982 -3.098 -3.9535 -2.3615 -4.5305 -3.8465 -3.0835 
-8.835501 -3.523 -5.6985 -8.46 -9.554001 -5.113 -6.815001 -7.3945 -6.739 -5.943501 -7.0565 -6.358001 -7.271501 
-10.389 -7.053 -12.2356 -13.1515 -9.9525 -8.941501 -9.889501 -10.4675 -8.558001 -9.992001 -8.0975 -10.1855 
-13.919 -13.8377 -16.9271 -13.55 -13.8716 -12.303 -12.9625 -12.2865 -12.8713 -11.3646 -11.9892 
-20.7037 -18.5292 -17.3256 -17.4691 -17.2331 -15.376 -14.7815 -16.5998 -14.2439 -15.2563 
-2.8195 -5.1465 -3.2795 -4.968 -2.3335 -3.982 -9.028501 -2.4265 -7.736001 
-8.46 -8.667 -8.820001 -5.265 -6.815001 -13.7927 -10.4185 -10.159 
-12.2645 -14.6211 -8.9925 -9.3135 -17.6587 -15.1827 -18.5022 
-18.2186 -14.7936 -13.1892 -20.3074 -19.0487 -23.2664 
-18.3911 -18.9903 -24.1831 -21.6974 -27.1324 
