-4.759 
n/a 
n/a 
n/a 
n/a 
-4.759 
n/a 
n/a 
n/a 
n/a 
-4.759 
n/a 
n/a 
n/a 
n/a 
-4.759 
n/a 
n/a 
n/a 
n/a 
-2.5045 -3.543 -4.1865 -4.02 -4.46 -3.5905 0 -3.0365 -2.4945 -10.441 -3.1385 -3.8245 -3.147 0 
-5.323 -8.267 -6.987 -6.6655 -6.9675 -3.5905 -3.0365 -3.688 -13.081 -12.4385 -5.577001 -6.1295 -3.147 
-8.384001 -11.5447 -10.019 -8.356501 -6.9675 -6.6315 -3.688 -13.5748 -16.6861 -15.375 -7.68 -6.1295 
-11.8603 -14.5767 -11.71 -8.356501 -9.4285 -7.3765 -13.6838 -17.1011 -19.5448 -17.478 -7.68 
-14.8923 -16.2677 -11.71 -10.6595 -9.715 -17.5079 -17.1011 -19.9598 -21.6478 -17.478 
-2.5045 -3.543 -1.4985 -4.02 -4.46 -1.7565 -3.5905 0 -3.0365 -2.4945 -10.441 -3.1385 -3.8245 -3.147 0 
-5.323 -5.62 -4.914001 -6.6655 -5.8675 -5.706501 -3.5905 -3.0365 -3.688 -13.081 -12.4385 -5.577001 -6.1295 -3.147 
-5.8685 -9.534 -7.7155 -7.816 -8.418 -5.706501 -6.6315 -3.688 -13.5748 -16.6861 -15.375 -7.68 -6.1295 
-9.828 -10.599 -8.740001 -9.511001 -8.418 -7.9725 -7.3765 -13.6838 -17.1011 -19.5448 -17.478 -7.68 
-10.601 -11.6235 -9.8105 -9.511001 -9.496 -8.773001 -17.5079 -17.1011 -19.9598 -21.6478 -17.478 
-7.442 -1.7695 -6.318 -3.5905 -9.562 -3.1385 -3.511 -3.0365 
-7.468501 -9.0835 -11.2343 -13.6777 -12.8679 -5.979 -6.0405 
-15.2423 -14.1972 -21.3215 -16.9836 -15.7084 -7.6425 
-20.356 -24.2844 -24.6274 -19.8241 -17.3719 
-30.4432 -27.5903 -27.4679 -21.4876 
-3.9345 -1.7695 -4.1865 -3.5905 -4.02 -4.46 -10.441 -3.1385 -3.511 -3.147 0 
-3.94 -6.303 -9.107 -7.371 -6.6655 -14.603 -12.4385 -5.979 -5.9685 -3.147 
-7.909501 -11.7111 -13.0409 -8.335 -17.3203 -18.0203 -15.777 -7.7155 -5.9685 
-13.8758 -15.645 -14.0049 -19.179 -20.7376 -21.281 -17.5135 -7.7155 
-17.8097 -16.609 -24.8489 -22.5963 -23.9983 -23.0175 -17.5135 
