-4.759 
n/a 
n/a 
n/a 
n/a 
-4.759 
n/a 
n/a 
n/a 
n/a 
-4.759 
n/a 
n/a 
n/a 
n/a 
-4.759 
n/a 
n/a 
n/a 
n/a 
-1.934 -5.634501 0 -4.088 -4.6535 -3.8695 -4.422 -3.4985 -3.091 -4.1385 -3.5285 0 -5.3155 -1.934 -4.2775 -3.355 -1.7565 -3.8655 -1.756 -4.281 -2.4265 -2.5045 -2.688 -3.502 -4.4925 -1.756 -3.074 -4.7205 -2.4265 -2.0935 -4.559 0 
-7.1905 -5.634501 -4.088 -7.126 -6.8505 -6.479 -7.770501 -5.938 -7.877501 -7.078 -3.5285 -5.3155 -6.1435 -5.5535 -6.445 -3.725 -5.196 -5.2725 -6.2145 -6.483 -4.6185 -4.7545 -5.0815 -5.05 -5.864 -4.566 -6.6125 -6.618 -4.5565 -6.4575 -4.559 
-7.1905 -9.436001 -7.126 -10.254 -7.41 -10.259 -10.096 -10.9937 -11.4806 -7.078 -9.967001 -6.1435 -9.5165 -8.303 -6.5025 -7.348001 -6.4155 -9.547501 -7.210001 -8.067 -7.768001 -8.408 -5.102 -6.566 -8.365001 -8.3175 -8.6215 -8.3355 -9.153501 -6.4575 
-11.4964 -12.571 -10.254 -10.5035 -10.5635 -12.5845 -15.1517 -14.5968 -11.4806 -14.4761 -10.738 -9.5165 -12.3616 -8.3415 -9.345 -8.6505 -10.389 -10.2245 -8.860001 -11.2491 -11.8221 -8.458 -6.625 -8.894501 -12.3877 -10.2135 -10.5865 -10.127 -9.153501 
-14.6314 -15.699 -10.5035 -13.657 -12.889 -17.6402 -18.7548 -14.5968 -18.8787 -15.2471 -14.111 -12.3616 -12.4001 -11.1208 -10.3825 -12.6468 -11.066 -12.1925 -11.8715 -15.3032 -11.8721 -9.408 -8.941001 -13.2046 -14.2837 -12.1785 -12.378 -10.127 
-1.934 -5.634501 0 -3.4985 -5.128 -4.1385 -3.8655 -3.75 -5.5635 -2.9805 -4.0555 -3.0365 0 -4.281 -2.5045 -2.688 -3.502 -6.402 -5.5495 -2.9805 -5.192 -2.0935 -4.559 
-7.1905 -5.634501 -3.4985 -6.8025 -10.688 -5.6375 -7.356501 -9.906 -8.56 -5.4095 -7.014 -3.0365 -4.281 -5.893 -4.7545 -5.0815 -9.967 -13.0241 -8.568501 -6.4985 -6.165501 -6.4575 
-7.1905 -9.264501 -6.8025 -12.9313 -12.187 -9.628 -14.7785 -13.1423 -11.2484 -8.0065 -7.014 -7.8605 -5.893 -7.886001 -8.408 -10.159 -16.5891 -16.0431 -12.2335 -7.459001 -8.902 
-9.887501 -12.6293 -12.9313 -14.4303 -16.1775 -17.8182 -18.0148 -15.8307 -13.8454 -8.0065 -12 -9.945001 -7.886001 -12.1311 -13.2497 -16.7811 -19.6081 -19.7081 -13.194 -10.107 
-13.2919 -18.7581 -14.4303 -18.4208 -24.3677 -21.0545 -20.7032 -18.4277 -13.8454 -13.1943 -14.0845 -12.0428 -12.1311 -16.9728 -19.8718 -19.8001 -23.2731 -20.6686 -15.842 
-1.934 -5.634501 0 -8.394501 -3.8695 -6.627501 -3.251 -4.518 -1.7695 -1.4985 -4.3215 -1.7565 -4.489 -2.229 -3.641 -3.8875 -2.229 0 -1.756 -2.9805 -4.281 -2.3335 -3.5015 -2.5045 0 -2.688 -3.502 -8.226501 0 0 -1.756 -2.9805 -3.9535 -4.5715 -1.4985 -4.503 -2.264 -10.939 
-7.1905 -5.634501 -8.6485 -10.8455 -10.75 -9.501501 -6.1035 -6.717 -2.7955 -5.394 -5.7605 -6.212 -6.536 -5.811501 -6.986501 -6.4965 -2.229 -1.756 -4.3555 -6.6945 -7.359 -5.909 -5.7065 -2.5045 -2.688 -5.0815 -13.2271 -8.226501 0 -1.756 -4.3555 -5.607 -6.955501 -5.698 -5.8455 -7.044001 -10.985 
-7.1905 -14.3144 -11.0981 -18.6474 -13.624 -12.4864 -8.686001 -7.578 -6.734 -5.962501 -9.632001 -7.2985 -10.6095 -8.993 -9.932501 -6.4965 -4.366 -4.3555 -7.976 -8.9965 -8.973001 -7.981 -5.7065 -4.7545 -5.0815 -16.3838 -13.2271 -8.226501 -1.756 -4.3555 -6.976501 -8.202001 -8.293501 -10.8886 -8.5035 -16.2502 
-15.1024 -16.764 -18.6474 -21.5214 -16.6089 -15.0689 -9.299001 -10.504 -7.4185 -10.609 -11.0303 -11.7186 -13.791 -12.2084 -9.932501 -9.264501 -7.075 -7.976 -10.1035 -9.515501 -11.561 -7.981 -8.4725 -8.408 -16.3838 -16.3838 -13.2271 -10.0785 -4.3555 -6.976501 -9.145 -9.710501 -13.6925 -13.5466 -18.1761 
-17.552 -24.3133 -21.5214 -24.5063 -19.1914 -15.6819 -12.2526 -10.529 -12.179 -12.0073 -15.4504 -14.9001 -17.0064 -12.2084 -13.0981 -12.0057 -10.717 -10.1035 -10.4025 -12.4101 -11.561 -11.028 -12.6172 -19.4745 -16.3838 -16.3838 -15.0791 -12.678 -6.976501 -9.145 -10.8275 -15.1149 -16.3505 -23.2192 
-1.934 -4.569 -1.4985 -4.088 -4.6535 -3.8695 -4.422 -3.5455 -3.091 -4.1385 -4.533 -2.9805 -5.3155 -1.7695 -3.75 -1.7565 -3.8655 -1.756 -4.281 -2.3335 -3.892 -2.5045 -2.688 -3.502 -4.4925 -1.756 -3.985 -1.4985 -3.2895 -2.0935 -4.2775 -3.1715 0 
-5.777 -6.2165 -6.322001 -7.126 -6.8505 -6.479 -8.1215 -5.242001 -7.877501 -8.641001 -7.065 -6.712501 -7.637 -6.035 -5.188 -5.196 -5.2725 -6.2145 -7.359 -6.2355 -5.976 -4.7545 -5.0815 -5.05 -5.864 -5.3985 -5.375 -4.862 -5.6595 -6.4785 -7.104 -3.1715 
-6.8435 -11.3384 -8.0315 -10.254 -7.41 -9.401001 -9.05 -9.9455 -10.733 -11.4854 -10.328 -9.2185 -12.2911 -7.627501 -8.170501 -6.4155 -9.547501 -9.061001 -10.622 -8.038501 -9.1455 -8.408 -5.102 -6.566 -9.660501 -6.587 -10.031 -7.1365 -10.4945 -8.8 -7.104 
-12.2022 -13.0479 -11.2515 -10.5035 -9.77 -9.689501 -14.0357 -12.801 -13.5774 -14.7484 -13.016 -13.9224 -13.8836 -10.6652 -9.136001 -10.389 -12.511 -12.5276 -12.425 -11.3148 -12.8634 -8.458 -6.625 -10.6095 -11.1482 -11.3988 -12.5139 -12.3023 -12.816 -8.8 
-13.9117 -16.2679 -11.501 -12.8635 -9.9175 -14.6514 -16.8912 -15.6454 -16.8404 -17.4364 -17.7199 -15.5149 -16.9213 -11.6307 -13.0947 -13.3525 -15.9776 -14.3306 -15.7013 -15.0327 -12.9134 -9.408 -10.66 -12.0972 -15.96 -13.8817 -17.6797 -14.6238 -12.816 
