-4.759 
n/a 
n/a 
n/a 
n/a 
-4.759 
n/a 
n/a 
n/a 
n/a 
-4.759 
n/a 
n/a 
n/a 
n/a 
-4.759 
n/a 
n/a 
n/a 
n/a 
-5.757 -8.425501 -9.962501 0 -8.005 -5.9225 0 -5.5075 -5.4235 -2.4945 -3.699 -3.275 -1.934 -3.6825 
-10.5865 -19.7548 -9.962501 -8.005 -8.2255 -5.9225 -5.1385 -9.351501 -8.658 -5.304 -7.304501 -5.386 -6.5925 
-21.9158 -19.7548 -18.5597 -8.2255 -8.2255 -9.8465 -8.959001 -12.5733 -11.6803 -9.522501 -8.678 -10.4425 
-21.9158 -28.352 -18.7802 -8.2255 -12.4345 -13.7386 -12.9051 -15.9274 -15.8988 -11.1014 -13.9457 
-30.513 -28.5725 -18.7802 -12.4345 -16.3266 -17.6847 -15.9274 -20.1459 -17.4777 -16.3691 
-5.757 -10.5565 -7.4265 0 -8.005 -5.9225 0 -5.5075 -6.319 0 -12.16972 -2.4945 -3.45 -3.699 -3.1385 -3.0695 -5.0505 -2.985 -3.4025 0 
-10.674 -18.3234 -7.4265 -8.005 -8.2255 -5.9225 -5.1385 -10.1425 -6.319 -12.16972 -14.66422 -5.1125 -7.061 -6.513 -4.286 -7.774 -6.951 -6.5935 -3.4025 
-18.4409 -18.3234 -15.9079 -8.2255 -8.2255 -9.8465 -8.939 -8.939 -19.19472 -14.66422 -17.28222 -9.2185 -8.8945 -7.9545 -9.299 -8.6485 -11.1531 -6.5935 
-18.4409 -26.8048 -16.1284 -8.2255 -12.4345 -13.7186 -8.939 -22.36712 -21.68922 -17.28222 -21.38822 -11.1634 -9.8825 -13.1403 -10.1195 -13.36 -11.1531 
-26.9223 -27.0253 -16.1284 -12.4345 -16.3066 -13.7186 -22.36712 -24.86162 -24.30722 -21.38822 -23.33312 -12.1514 -15.1283 -13.9608 -14.6678 -13.36 
-3.1385 -3.0695 -4.3465 -3.8515 -2.985 -3.4025 -3.7965 -5.757 -6.5315 -7.4265 0 -8.005 -5.9225 0 -11.8265 -1.756 -12.16972 0 
-4.286 -5.789001 -6.533501 -6.3885 -6.5935 -8.678 -10.233 -7.743001 -9.661 -7.4265 -8.005 -8.2255 -5.9225 -10.1425 -11.644 -14.93432 -12.16972 
-7.052501 -8.162001 -8.234 -10.3812 -12.5854 -15.2549 -12.4226 -9.6675 -9.661 -15.9079 -8.2255 -8.2255 -13.647 -10.1775 -23.82242 -14.93432 
-9.647501 -9.436001 -12.4515 -16.3731 -19.1623 -17.4445 -14.3471 -9.6675 -18.3656 -16.1284 -8.2255 -16.3066 -14.4586 -23.68652 -23.68652 
-10.363 -13.7147 -18.4434 -22.95 -21.3519 -19.369 -14.3471 -18.3765 -18.5861 -16.1284 -16.3066 -17.0466 -28.83592 -24.05632 
-9.751 -4.5815 -2.4945 -3.074 -3.699 -5.571 -3.115 -3.595 
-10.533 -7.489 -4.4205 -5.729 -10.6134 -9.1855 -5.7225 
-13.4405 -9.476501 -6.581 -13.4602 -14.2279 -11.971 
-15.428 -11.6326 -14.012 -17.0747 -17.0134 
-17.5841 -19.0636 -17.6265 -19.8602 
