-4.759 
n/a 
n/a 
n/a 
n/a 
-4.759 
n/a 
n/a 
n/a 
n/a 
-4.759 
n/a 
n/a 
n/a 
n/a 
-4.759 
n/a 
n/a 
n/a 
n/a 
-3.934 -3.502 -4.2485 -3.9035 -5.569 -1.7695 -3.1495 -3.486 0 
-6.7605 -8.8695 -8.685 -10.3941 -9.606501 -4.7475 -5.711 -3.486 
-13.2376 -13.6878 -15.2906 -14.4316 -12.6471 -7.4675 -5.711 
-18.0559 -20.2934 -19.3281 -17.4722 -15.3671 -7.4675 
-24.6615 -24.3309 -22.3687 -20.1922 -15.3671 
-3.934 -3.502 -1.756 -7.626 -12.16972 -3.486 -2.5045 -2.4265 -2.5045 0 
-6.7605 -5.513 -9.453501 -20.34872 -15.65572 -4.737 -4.228 -4.6185 -2.5045 
-9.651501 -14.1061 -22.17622 -23.83472 -16.90672 -6.4025 -7.988 -4.6185 
-18.6356 -26.82882 -25.66222 -25.08572 -18.57222 -10.2435 -7.988 
-31.35832 -30.31482 -26.91322 -26.75122 -22.41322 -10.2435 
-3.934 -2.229 -3.502 -3.498 -1.756 -4.38 -2.186 -4.7 -4.418 0 
-5.555501 -5.944 -6.0145 -5.389 -6.185 -6.7035 -7.4925 -7.0635 -4.418 
-9.003 -7.462501 -7.834 -10.568 -8.334001 -10.389 -10.2766 -7.0635 
-11.0967 -8.948 -13.2022 -12.717 -12.1639 -13.1731 -10.2766 
-12.5822 -14.3992 -15.3512 -16.5469 -14.948 -13.1731 
-3.502 -4.207 -1.7565 -3.934 -2.186 -4.237 -3.4425 -5.569 -2.186 -3.074 -1.4985 -3.486 
-7.5645 -4.989 -5.16 -6.208 -6.992001 -8.768 -9.337 -9.2465 -4.156 -4.6505 -3.5655 
-7.661 -9.168501 -7.166 -11.5806 -12.0672 -14.7541 -13.2903 -11.2287 -5.301001 -6.828 
-11.9115 -11.6099 -12.7168 -16.6558 -18.0533 -18.7074 -15.2725 -12.3737 -7.327001 
-14.3529 -17.1607 -17.792 -22.6419 -22.0066 -20.6896 -16.4175 -14.3997 
