-4.759 
n/a 
n/a 
n/a 
n/a 
-4.759 
n/a 
n/a 
n/a 
n/a 
-4.759 
n/a 
n/a 
n/a 
n/a 
-4.759 
n/a 
n/a 
n/a 
n/a 
-1.934 -3.3785 -14.1175 -2.742 -2.489 -1.4985 -5.6045 -3.5495 -2.4285 -2.5235 -3.893 0 
-4.5895 -13.7695 -13.9945 -3.301 -3.9675 -6.920501 -6.7545 -5.734 -4.7745 -6.511001 -3.893 
-14.3469 -15.8674 -12.682 -4.8715 -9.4065 -7.389 -9.14 -8.066501 -9.633501 -6.511001 
-18.3583 -16.4264 -13.791 -10.7595 -9.476501 -9.703001 -11.6557 -13.4399 -9.633501 
-19.4679 -19.457 -21.9873 -10.8295 -12.9617 -12.2777 -17.0291 -13.4399 
-5.6045 -3.3785 -3.1335 -14.1175 -1.756 -3.074 -3.893 0 
-9.915501 -6.424 -14.6035 -12.983 -4.566 -8.0415 -3.893 
-12.961 -15.8837 -14.1245 -13.346 -8.933001 -8.0415 
-22.3487 -18.0922 -16.401 -17.7375 -8.933001 
-23.7292 -19.8321 -20.5544 -17.1519 
-14.1175 -2.4285 -3.893 -4.7715 -3.469 -1.934 -5.6045 -3.1335 0 
-13.206 -6.541501 -9.3545 -9.432501 -6.4565 -7.805501 -7.783501 -3.1335 
-13.4895 -12.3286 -14.1021 -12.9306 -13.1444 -10.096 -7.783501 
-20.3924 -17.0762 -17.6002 -19.6185 -15.4349 -10.096 
-25.0797 -20.5743 -24.2881 -21.909 -15.4349 
-5.6045 -3.8935 -4.251 -14.1175 -2.4285 -2.8705 -3.893 
-7.658501 -8.235001 -15.887 -13.206 -5.594501 -7.326 
-12.5222 -18.0773 -15.5915 -12.73 -9.867001 
-22.2925 -20.8178 -19.262 -19.2617 
-24.6935 -23.5575 -24.761 
