-4.759 
n/a 
n/a 
n/a 
n/a 
-4.759 
n/a 
n/a 
n/a 
n/a 
-4.759 
n/a 
n/a 
n/a 
n/a 
-4.759 
n/a 
n/a 
n/a 
n/a 
-2.3615 -3.452 -3.074 -3.3785 -6.4155 0 -7.593 0 -3.89 0 -4.3955 -3.074 -3.849 -2.0935 -3.8315 0 
-4.5465 -6.264 -5.841001 -9.998 -6.4155 -7.593 -7.593 -3.89 -3.89 -4.3955 -7.837501 -5.417 -5.268 -5.785501 -3.8315 
-6.9125 -10.1465 -13.1447 -9.998 -14.6683 -7.593 -11.8342 -3.89 -8.335 -7.837501 -9.790001 -6.752501 -9.660001 -5.785501 
-11.1118 -17.72 -13.1447 -18.422 -14.6683 -11.8342 -11.8342 -8.335 -11.973 -9.790001 -11.1837 -11.3493 -9.660001 
-18.6853 -17.72 -21.5687 -18.422 -18.9095 -11.8342 -16.2792 -11.973 -13.9255 -11.1837 -15.7805 -11.3493 
-1.4985 -3.594 -2.186 -2.7455 -4.54 0 -4.3955 -1.756 -3.321 -3.8315 -2.186 -3.7855 -4.394 0 
-5.2345 -6.1875 -4.686 -7.4135 -4.54 -4.3955 -5.759501 -4.0055 -8.004 -5.974 -4.9225 -8.2145 -4.394 
-7.4615 -8.3905 -9.5165 -7.4135 -9.351501 -5.759501 -8.237 -8.9475 -9.134 -9.272501 -8.5955 -8.2145 
-9.534 -13.562 -9.5165 -12.737 -10.8497 -8.237 -13.3194 -10.0285 -12.4971 -12.8655 -8.5955 
-14.7179 -13.562 -14.9798 -14.2352 -13.3272 -13.3194 -14.4004 -13.4978 -16.0901 -12.8655 
-5.298 -1.934 -2.3615 -3.452 -2.5045 -3.2615 -4.356 0 -4.3955 -3.321 -3.098 -3.8315 
-6.816 -3.539 -4.5465 -5.956 -6.62 -8.2735 -4.356 -4.3955 -7.539001 -6.0555 -7.096 
-8.353001 -5.7115 -6.634 -10.3285 -11.9322 -8.2735 -8.679001 -7.539001 -10.5425 -10.6089 
-9.844001 -7.6625 -10.7175 -15.6407 -11.9322 -13.1253 -11.9123 -10.5425 -15.0959 
-11.795 -11.6342 -16.0297 -15.6407 -16.784 -16.3586 -14.9158 -15.0959 
-1.934 -2.3615 -3.452 -2.925 -2.674 -4.3955 -1.756 -3.321 -3.8315 -2.674 -4.394 -4.6505 
-3.539 -4.5465 -6.564 -4.1785 -6.836 -5.759501 -4.0055 -8.004 -7.4195 -6.5145 -6.933 
-5.7115 -7.6215 -7.7085 -8.3035 -7.788 -8.237 -8.9475 -11.8728 -11.5804 -8.969501 
-8.033 -8.8785 -12.1597 -9.264 -10.3155 -13.3194 -12.8803 -16.0337 -14.0354 
-9.293 -13.4663 -13.1202 -11.8675 -15.3979 -17.2522 -17.0412 -18.4887 
