-4.759 
n/a 
n/a 
n/a 
n/a 
-4.759 
n/a 
n/a 
n/a 
n/a 
-4.759 
n/a 
n/a 
n/a 
n/a 
-4.759 
n/a 
n/a 
n/a 
n/a 
-3.5455 -1.4985 -3.0835 -2.6615 -3.5785 -1.7565 -5.0275 0 -9.110001 -6.0245 -1.8085 -4.4285 -1.7565 -2.985 -3.469 -3.9665 -1.7695 -4.319 -3.7015 -4.1265 
-3.91 -3.535 -5.863 -5.114 -4.9835 -7.117001 -5.0275 -6.757 -13.9287 -7.807 -5.2695 -4.6405 -3.9355 -7.9255 -9.0725 -5.6315 -4.9595 -5.442 -7.293 
-5.313 -6.1895 -7.444 -7.061501 -9.391001 -7.117001 -10.152 -14.2059 -15.9884 -11.4826 -5.427 -6.5375 -8.829 -14.1362 -10.335 -8.113501 -6.451 -10.1425 
-7.452001 -7.5135 -7.5755 -11.8004 -9.391001 -10.5065 -17.8149 -15.9884 -19.664 -11.6401 -7.3925 -11.9252 -15.2887 -15.3987 -13.557 -9.283501 -10.6085 
-8.324 -7.599501 -13.2678 -11.8004 -10.5685 -18.7568 -19.5974 -19.664 -19.8215 -13.6056 -12.9322 -18.3849 -16.5512 -18.6207 -14.727 -13.5436 
-1.4985 -3.0835 -2.6615 -3.5785 -1.7565 -5.0275 0 -9.110001 -3.43 -4.4285 -1.7565 -3.1435 -4.795 -1.7695 -4.319 -2.356 -4.1265 
-3.535 -5.863 -5.114 -4.9835 -7.117001 -5.0275 -6.757 -10.8115 -9.2215 -4.6405 -4.124 -6.9375 -5.956 -4.9595 -5.885 -7.023001 
-6.1895 -7.444 -7.061501 -9.391001 -7.117001 -10.152 -10.082 -16.1887 -9.731501 -6.536 -7.77 -8.150001 -7.7225 -6.728 -10.2645 
-7.5135 -7.5755 -11.8004 -9.391001 -10.5065 -13.691 -16.1887 -16.6987 -11.6126 -9.674001 -9.062 -9.755 -9.5065 -11.4933 
-7.599501 -13.2678 -11.8004 -10.5685 -14.6329 -19.7977 -16.6987 -18.5798 -14.7506 -11.0852 -10.76 -11.5406 -14.4042 
-1.934 -1.4985 -3.0835 -2.6615 -3.5785 -1.7565 -5.0275 0 -9.110001 -7.304 -2.985 -4.358 -5.6785 -1.7695 -4.319 -3.7015 -4.1265 0 
-2.6125 -3.535 -5.863 -5.114 -4.9835 -7.117001 -5.0275 -6.757 -15.2082 -9.883 -7.4225 -9.281 -7.239 -4.9595 -5.442 -7.293 -4.1265 
-4.5575 -6.1895 -7.444 -7.061501 -9.391001 -7.117001 -10.152 -15.4854 -18.0644 -14.3205 -12.8265 -11.0069 -8.6845 -6.451 -10.1425 -7.293 
-7.0925 -7.5135 -7.5755 -11.8004 -9.391001 -10.5065 -19.0944 -18.0644 -22.5019 -19.7245 -14.5524 -12.4524 -9.7845 -10.6085 -10.1425 
-7.8325 -7.599501 -13.2678 -11.8004 -10.5685 -20.0363 -21.6734 -22.5019 -27.9059 -21.4504 -15.9979 -13.5524 -13.986 -10.6085 
-2.925 -2.4945 -3.8275 -2.356 -4.1265 -2.0935 -2.6615 -3.5785 -2.3085 -5.0275 0 
-3.7675 -7.451 -5.674 -7.023001 -6.571 -5.1415 -5.114 -5.7225 -8.42 -5.0275 
-8.48 -9.4075 -8.8725 -9.104 -9.217501 -7.042 -7.7495 -12.8752 -8.42 
-10.609 -12.695 -11.0187 -11.9421 -10.718 -8.663501 -15.0096 -12.8752 
-13.8965 -14.8412 -13.8568 -13.4426 -12.3395 -15.8946 -15.0096 
