-4.759 
n/a 
n/a 
n/a 
n/a 
-4.759 
n/a 
n/a 
n/a 
n/a 
-4.759 
n/a 
n/a 
n/a 
n/a 
-4.759 
n/a 
n/a 
n/a 
n/a 
-3.691 -2.186 -1.8085 -3.8175 -4.542 -1.934 -2.5685 -2.3615 -3.47 0 
-5.832 -3.164 -4.55 -6.564 -6.7155 -4.244 -4.833 -6.84 -3.47 
-6.71 -5.452 -6.659 -8.113501 -9.306001 -6.277501 -9.72 -6.84 
-8.548 -7.194 -8.1955 -10.4425 -11.4341 -11.4123 -9.72 
-9.966001 -8.969501 -10.621 -12.5706 -16.5689 -11.4123 

n/a 
n/a 
n/a 
n/a 
-1.934 -3.188 -3.8935 -3.518 -3.691 -3.074 -4.26 -4.3035 -3.9825 0 
-5.387 -6.960501 -6.956 -8.311501 -6.934 -6.7245 -9.285 -6.444 -3.9825 
-8.4005 -10.2045 -12.1069 -11.8577 -10.494 -12.4883 -11.5863 -6.444 
-11.8519 -15.3554 -15.6531 -15.4177 -16.2578 -14.7896 -11.5863 
-17.0028 -18.9016 -19.2131 -21.1815 -18.5591 -14.7896 
-3.691 -2.186 -2.664 -3.699 -1.934 -1.4985 -3.188 -3.518 -3.8935 -1.7565 -3.1495 -4.8465 0 
-5.832 -3.8555 -4.654 -5.35 -2.6125 -3.619 -7.135 -7.514501 -4.8605 -3.914 -7.1875 -4.8465 
-7.469 -5.2675 -8.33 -6.0295 -4.377 -7.6745 -10.5975 -8.387501 -7.035 -7.549 -7.1875 
-8.9005 -9.0375 -9.146 -7.8105 -9.1745 -11.414 -11.4705 -10.6095 -9.627 -7.549 
-12.8449 -9.911 -10.9558 -13.0338 -13.1006 -12.287 -13.6925 -13.2015 -9.627 
