-4.759 
n/a 
n/a 
n/a 
n/a 
-4.759 
n/a 
n/a 
n/a 
n/a 
-4.759 
n/a 
n/a 
n/a 
n/a 
-4.759 
n/a 
n/a 
n/a 
n/a 
-3.524 -2.8845 -3.598 
-4.616 -6.946 
-8.8955 
n/a 
n/a 
-4.8315 -8.2285 -2.8845 -5.494 0 0 
-13.721 -9.7355 -8.4 -5.494 0 
-15.228 -15.251 -8.4 -5.494 
-20.7435 -15.251 -8.4 
-20.7435 -15.251 
-2.645 -2.264 -3.524 -2.8845 -5.009 
-4.63 -4.855 -4.616 -8.6385 
-8.4515 -8.057501 -10.7175 
-11.6006 -14.6196 
-18.1627 
-2.645 -3.524 -2.8845 -4.763 
-6.5495 -4.616 -8.572001 
-8.059 -10.76 
-14.3286 
n/a 
