-4.759 
n/a 
n/a 
n/a 
n/a 
-4.759 
n/a 
n/a 
n/a 
n/a 
-4.759 
n/a 
n/a 
n/a 
n/a 
-4.759 
n/a 
n/a 
n/a 
n/a 
-7.0225 -2.4285 -3.676 0 -2.186 -3.849 0 -2.4265 -4.6805 -1.7565 -4.994 -3.468 -1.756 -2.264 -4.2815 -3.1715 -1.756 -2.4265 -2.186 -4.2815 -4.6605 
-8.6675 -7.118001 -3.676 -2.186 -4.8565 -3.849 -2.4265 -5.954 -4.722 -6.2935 -6.4315 -4.7175 -4.4925 -6.604 -7.75 -4.562 -3.949 -3.292 -6.1155 -9.803501 
-13.214 -7.118001 -5.5015 -4.8565 -4.8565 -5.7185 -5.954 -6.0135 -8.487 -8.697001 -7.599501 -7.3575 -9.055 -10.513 -9.213501 -7.056001 -4.7355 -7.305 -12.7859 
-10.6705 -8.695001 -8.691 -4.8565 -7.183001 -10.1225 -6.0135 -9.701 -10.2225 -9.5655 -10.064 -12.3468 -13.0548 -11.9765 -12.0027 -7.662001 -8.722 -14.21 
-11.9585 -11.9741 -8.691 -7.183001 -12.405 -10.271 -9.701 -11.4747 -11.2852 -12.0266 -15.1591 -16.3466 -14.5183 -14.7657 -12.6087 -11.8113 -15.7452 
-7.0225 -2.4285 -3.4225 -3.468 -1.7565 -3.676 -2.186 -1.8085 -3.9675 -4.9715 -1.7565 -4.994 -3.468 
-8.6675 -6.641 -3.628 -4.7385 -4.4345 -5.5015 -3.164 -6.421 -8.711 -5.005001 -6.2935 -6.4315 
-13.0215 -6.775 -5.001 -5.0245 -6.1445 -6.3355 -7.691 -9.591001 -8.72 -8.643001 -8.697001 
-10.9905 -8.608001 -5.036 -7.189 -7.1755 -8.753501 -9.844001 -9.602 -10.564 -11.2733 
-12.416 -8.670501 -7.199 -7.961 -9.678 -11.1599 -9.847501 -11.709 -13.1943 
0 -7.0225 0 -2.4285 -3.676 0 -2.8645 -3.304 -3.468 -1.756 -2.871 -3.4225 -4.7315 -1.756 -3.4225 -3.9675 0 
-5.066 -5.066 -2.4285 -7.118001 -3.676 -2.8645 -6.786 -5.782001 -4.7175 -4.514 -6.7445 -9.3015 -5.8825 -5.866 -5.6005 -3.9675 
-4.9465 -8.425 -7.118001 -7.118001 -5.929501 -6.786 -9.1495 -6.464 -7.228001 -8.918 -12.8159 -10.9065 -8.8155 -8.675501 -5.6005 
-7.5875 -10.6705 -7.118001 -9.498501 -9.5635 -9.1495 -9.8055 -9.457001 -10.275 -14.9666 -14.4209 -13.8395 -13.1034 -8.675501 
-10.3815 -10.3815 -9.498501 -13.1871 -9.8915 -9.8055 -12.9755 -12.7098 -17.0536 -16.5716 -17.3539 -18.1274 -13.1034 
-2.4265 -2.186 -4.251 -3.849 -2.5045 -7.0225 -2.4285 -3.676 -1.756 -2.4265 -2.186 -1.8085 -3.9675 -1.7565 -3.304 -3.468 -1.756 -2.664 -3.4225 -3.8145 0 
-3.292 -5.193 -7.170001 -6.305 -8.043501 -8.6675 -7.118001 -5.0365 -3.949 -3.292 -3.164 -6.421 -4.4555 -5.1575 -5.782001 -4.7175 -4.3655 -7.759501 -8.679001 -3.8145 
-6.011 -7.628 -9.074501 -11.544 -11.198 -13.214 -8.5755 -7.192 -4.7355 -4.4005 -7.691 -7.5345 -8.870501 -7.465001 -6.464 -7.491 -9.5205 -12.8258 -8.679001 
-8.5745 -9.509001 -15.158 -15.1255 -14.4225 -12.128 -10.1675 -7.883 -5.92 -8.663 -9.006001 -10.543 -9.630001 -8.411501 -9.660501 -13.0508 -14.629 -12.8258 
-10.4935 -16.7579 -18.1501 -18.2706 -14.7945 -13.431 -10.7095 -8.9045 -10.597 -10.2085 -12.1923 -11.3025 -10.6365 -11.9104 -15.4281 -18.1593 -14.629 
