-4.759 
n/a 
n/a 
n/a 
n/a 
-4.759 
n/a 
n/a 
n/a 
n/a 
-4.759 
n/a 
n/a 
n/a 
n/a 
-4.759 
n/a 
n/a 
n/a 
n/a 
-7.033 -4.2335 -4.9345 -2.925 -4.8095 -3.518 -2.742 -2.489 -4.3905 -2.9705 -2.742 -4.834 -1.4985 -3.8245 -4.6205 -1.934 -1.4985 -3.995 -1.934 -3.7375 -3.748 -3.277 0 
-12.1117 -8.84 -7.476 -9.946001 -7.136001 -6.2615 -3.301 -5.3785 -7.545 -4.601501 -6.282001 -5.57 -5.1915 -8.63 -7.081 -2.6125 -4.712 -5.975 -6.299 -6.765 -5.8405 -3.277 
-16.7182 -11.4947 -14.7384 -12.2725 -9.0045 -6.738501 -6.176001 -8.1285 -8.829 -7.8715 -6.871 -9.05 -10.322 -11.3241 -7.7255 -6.1055 -6.419001 -11.0286 -10.1765 -7.5595 -5.8405 
-19.3729 -18.7571 -17.0649 -14.141 -9.119 -8.8065 -8.866 -9.127001 -12.312 -8.410501 -10.467 -14.1379 -13.3527 -11.9686 -11.4981 -7.848001 -11.6666 -14.9061 -10.4035 -7.5595 
-26.6353 -21.0836 -18.9334 -14.2555 -11.8846 -11.5025 -9.473001 -12.6558 -12.851 -12.0687 -15.5549 -17.1686 -13.9972 -15.7412 -13.2406 -13.528 -15.5441 -15.1331 -10.4035 
-2.5045 -4.2335 -4.6925 0 -1.4985 -4.8095 -2.9705 -5.1 -2.5195 -4.2335 0 -2.4945 -5.231 0 -3.0415 -2.3335 0 -2.8965 -5.126 -2.742 -4.209 -1.934 -1.4985 -3.291 -3.7375 -3.748 -3.277 0 
-7.071501 -9.7375 -4.6925 -1.4985 -6.0585 -7.331 -6.4575 -7.783501 -6.5635 -4.2335 -2.4945 -6.359 -5.231 -3.0415 -4.132 -2.3335 -2.8965 -6.719 -7.51 -5.923 -5.686 -2.6125 -3.9665 -5.318 -6.765 -5.8405 -3.277 
-13.1505 -9.7375 -6.1495 -6.0585 -8.652 -10.264 -9.455501 -12.2043 -6.5635 -5.851 -6.359 -6.359 -8.1485 -4.132 -4.132 -5.295 -6.719 -9.084001 -8.561501 -7.042 -6.499 -4.871 -5.3335 -9.177 -7.5595 -5.8405 
-13.1505 -11.3025 -11.4335 -8.652 -11.7492 -13.262 -14.0009 -12.2043 -8.626 -10.1765 -6.359 -9.696001 -8.627501 -4.132 -6.694 -8.886001 -9.084001 -10.1885 -10.7595 -7.692 -8.0305 -5.8175 -9.192501 -9.217501 -7.5595 
-14.7155 -16.5865 -14.027 -11.7492 -14.7472 -17.8074 -14.0009 -14.2668 -13.0885 -10.1765 -9.696001 -10.3245 -8.627501 -6.694 -10.4755 -11.6082 -10.1885 -12.3865 -11.4095 -8.5445 -8.861 -9.8395 -9.220501 -9.217501 
-2.5045 -5.2735 -3.0465 -4.9345 -3.0365 -2.742 -2.489 -3.689 -4.8095 0 -3.0415 -3.851 -1.7695 -2.3615 -3.681 -2.8965 -3.8245 -5.1755 -3.135 -4.5445 -3.277 -3.2615 -2.925 -2.742 -3.0465 -4.9345 0 
-7.8645 -9.146501 -7.356501 -7.502501 -4.668 -3.301 -5.3055 -7.5315 -4.8095 -3.0415 -7.167 -4.0015 -3.736 -7.137 -6.739 -6.6505 -6.3815 -8.036501 -8.050501 -7.8535 -5.1005 -5.355 -4.3725 -4.8155 -7.356501 -4.9345 
-12.1607 -13.8129 -9.863001 -8.827001 -4.759501 -6.154 -9.7585 -7.5315 -7.713 -7.167 -7.2455 -6.14 -8.745001 -10.7025 -9.793501 -7.859 -9.057 -13.2626 -10.2985 -9.978001 -6.9785 -8.393001 -6.228001 -8.489 -7.356501 
-16.8271 -16.3194 -11.3823 -8.952001 -7.021 -10.074 -9.7585 -9.6425 -12.1519 -7.2455 -8.79 -10.66 -12.5729 -13.757 -12.405 -10.4035 -14.4241 -15.5106 -12.423 -12.0684 -10.476 -10.1385 -9.7075 -8.489 
-19.3336 -17.8387 -11.5073 -11.3585 -10.0885 -10.074 -11.9423 -14.1394 -12.2304 -8.79 -13.5404 -14.4879 -15.6274 -16.3685 -14.9495 -15.7706 -16.6721 -17.6351 -14.5134 -15.5659 -12.2215 -13.7322 -9.7075 
-2.5045 -1.4985 -4.2335 -2.4945 -5.568 -1.4985 -4.8095 -4.0925 -2.3345 -1.4985 -4.2335 -5.2845 -1.756 -4.7475 -2.8965 -3.8245 -5.1755 -2.742 -3.7905 -4.196 -5.7335 -1.934 -1.8085 -3.7375 -3.748 -3.277 0 
-3.583 -5.605 -5.851 -7.4215 -6.603001 -6.0585 -8.609 -5.414001 -3.233 -5.605 -9.0015 -6.826 -5.337 -8.219001 -6.6505 -6.3815 -7.586 -5.126 -6.6825 -9.651501 -6.862 -3.2685 -3.8995 -6.765 -5.8405 -3.277 
-7.56 -6.8235 -10.757 -8.909 -11.661 -9.171 -9.2215 -5.9585 -7.6115 -9.6975 -10.1195 -9.007 -8.872 -12.1844 -7.859 -9.129001 -9.650001 -7.7415 -10.5225 -10.5995 -8.2945 -5.2225 -6.8105 -7.5595 -5.8405 
-8.587501 -11.9499 -12.2445 -14.1036 -14.7735 -9.6245 -9.672501 -9.826 -11.9652 -11.4731 -12.6465 -12.9048 -12.8792 -13.3929 -10.6095 -11.261 -12.3147 -11.8873 -11.4705 -12.032 -9.194501 -8.434 -7.703001 -7.5595 
-13.8113 -13.4374 -17.4391 -17.2161 -15.227 -9.982501 -13.54 -14.1797 -13.7408 -14.0001 -16.5443 -16.912 -14.0877 -16.1434 -12.7415 -13.9257 -16.4605 -12.8353 -12.903 -12.932 -10.5645 -8.672001 -7.703001 
