-4.759 
n/a 
n/a 
n/a 
n/a 
-4.759 
n/a 
n/a 
n/a 
n/a 
-4.759 
n/a 
n/a 
n/a 
n/a 
-4.759 
n/a 
n/a 
n/a 
n/a 
-3.2615 -9.503 -3.8275 -1.756 -1.4985 -8.367001 -3.8275 -1.934 -4.7475 0 -3.8735 -4.3035 -1.7695 -2.674 -1.8085 -4.094 -4.177 -2.356 -4.948 -4.0375 0 
-10.84 -11.136 -5.1855 -3.0405 -8.6665 -9.352 -5.2615 -5.938 -4.7475 -3.8735 -8.839001 -4.6755 -3.8225 -3.63 -5.571 -7.495001 -4.944 -7.2685 -5.375 -4.0375 
-12.1515 -9.8535 -6.0845 -9.277 -9.729 -9.7165 -8.741 -5.938 -8.5515 -8.839001 -8.993501 -7.0395 -4.546 -7.271 -7.8625 -7.834501 -9.5315 -8.278001 -5.375 
-13.295 -10.253 -11.825 -10.568 -10.442 -10.6045 -8.741 -9.670501 -14.1038 -8.993501 -11.3661 -7.6955 -8.047501 -8.693501 -8.1175 -12.6142 -10.306 -8.278001 
-13.8445 -14.9648 -12.0605 -11.4915 -10.8195 -10.3765 -12.5657 -15.323 -14.2583 -11.3661 -12.0221 -10.5535 -9.388 -8.979501 -12.9698 -13.3887 -10.306 
-3.2615 -1.4985 -7.674 -3.8275 -1.756 -1.4985 -3.8275 -3.458 -3.8735 -1.756 -4.4935 -2.3335 -4.0875 -3.5015 -1.934 -4.869 -3.8735 -3.9535 -4.216 -3.639 -4.177 -2.356 -4.948 -4.0375 0 
-4.032 -8.557 -10.0725 -5.1855 -3.0405 -4.726 -6.105 -6.666 -5.3865 -5.9875 -7.18 -5.637 -5.143 -4.704 -6.114 -8.983001 -7.9925 -7.0575 -7.9445 -6.318 -4.944 -7.2685 -5.375 -4.0375 
-10.8115 -11.259 -10.452 -6.0845 -6.264 -6.6875 -8.1505 -6.711 -6.399 -8.099 -9.748501 -6.0175 -5.692 -8.952001 -10.0995 -13.3766 -10.3745 -11.2842 -10.0995 -6.6615 -9.5315 -8.278001 -5.375 
-11.8415 -10.901 -10.9645 -7.786 -7.9865 -9.248501 -8.1675 -7.071001 -8.573501 -9.887 -9.853001 -6.4845 -9.176001 -13.0977 -14.6197 -15.7586 -14.6012 -13.4392 -10.287 -11.4384 -10.306 -8.278001 
-12.0904 -11.7439 -12.7998 -9.802 -10.586 -9.252001 -8.210501 -8.932 -9.9195 -9.9045 -11.0166 -10.0775 -13.4391 -17.6179 -17.0017 -19.9853 -16.7562 -13.6267 -15.0639 -12.2129 -10.306 
-3.2615 -1.4985 -3.8275 -3.458 -3.8005 -1.756 -3.8735 0 -1.934 -4.7475 -8.367001 -3.8275 -3.8735 -3.74 -1.7695 -4.3455 -1.8085 -3.301 -4.177 -2.356 -1.4985 -4.948 -4.0375 0 
-4.032 -4.726 -6.105 -6.5525 -5.2495 -5.724 -3.8735 -1.934 -5.938 -10.8465 -9.352 -8.128 -8.377 -4.2995 -4.706 -5.1635 -4.019 -6.469501 -4.944 -3.1615 -5.4175 -5.375 -4.0375 
-6.0085 -6.6875 -8.4425 -6.632 -6.166 -5.724 -5.938 -5.938 -10.4215 -11.367 -10.607 -13.0459 -9.104 -6.927001 -5.576 -7.0585 -6.6085 -6.7135 -5.627 -6.857 -5.654 -5.375 
-8.414001 -9.279 -8.4655 -7.8225 -6.166 -7.2085 -8.9515 -10.37 -10.5725 -11.582 -15.3205 -13.7729 -11.8757 -7.5195 -7.365 -8.0425 -6.829 -7.3435 -8.476 -6.988 -5.654 
-11.3409 -9.294001 -9.648001 -7.8225 -7.6055 -10.6465 -13.4851 -10.4645 -12.5843 -16.7275 -16.1397 -16.5446 -12.4682 -8.9755 -8.303 -8.1675 -7.4575 -10.7325 -8.5325 -6.988 
-3.2615 -10.1975 -3.8275 -1.756 -3.2615 -8.367001 -3.8275 -1.934 -4.7475 -3.8735 -3.918 -4.948 -4.0375 
-13.548 -13.128 -5.1855 -4.788 -9.473001 -9.352 -5.2615 -5.938 -8.5515 -8.146 -9.723001 -5.375 
-17.4235 -15.736 -7.706 -12.278 -12.0335 -9.7165 -8.741 -9.670501 -13.4108 -14.5126 -10.271 
-20.0315 -18.2565 -15.691 -14.5141 -13.4055 -10.6045 -12.5657 -14.63 -19.7774 -15.0606 
-22.552 -26.2415 -17.7555 -15.8861 -14.177 -14.2012 -17.5252 -20.9966 -20.3254 
