-4.759 
n/a 
n/a 
n/a 
n/a 
-4.759 
n/a 
n/a 
n/a 
n/a 
-4.759 
n/a 
n/a 
n/a 
n/a 
-4.759 
n/a 
n/a 
n/a 
n/a 
-1.934 -3.8665 -3.5855 -9.819 -2.186 -4.668 -3.3425 
-5.6585 -6.0415 -14.6165 -12.1596 -5.629 -9.1885 
-7.364 -17.6605 -16.9571 -15.6026 -11.0149 
-19.4648 -20.0011 -20.4001 -20.9885 
-21.8054 -23.4441 -25.786 
-5.4525 -5.5725 -3.534 -2.4945 -3.3425 -1.934 -3.8665 -3.5855 
-12.1 -8.279 -6.6315 -4.8005 -6.1265 -5.6585 -6.0415 
-14.8065 -13.0495 -9.943001 -7.097 -9.992001 -7.364 
-19.577 -16.361 -12.3113 -11.3195 -12.2285 
-22.8885 -18.7293 -16.5338 -13.556 
-4.481 -2.186 -3.2955 -1.934 -3.948 -4.578 -1.934 -3.8665 -3.5855 0 
-6.576 -4.348001 -4.2285 -5.024 -7.123 -6.135 -5.6585 -6.0415 -3.5855 
-8.2075 -5.3545 -6.741 -8.0365 -8.725 -9.073 -7.364 -6.0415 
-8.519001 -7.724 -10.0271 -9.5795 -12.036 -11.7335 -7.364 
-10.3885 -11.2081 -11.5701 -12.8797 -14.6965 -11.7335 
-3.3715 -3.319 -5.4525 -1.934 -3.8665 -3.5855 0 
-7.602501 -9.625 -7.315001 -5.6585 -6.0415 -3.5855 
-14.5557 -11.4875 -11.6467 -7.364 -6.0415 
-16.4182 -15.8192 -13.3522 -7.364 
-20.7499 -17.5247 -13.3522 
