-4.759 
n/a 
n/a 
n/a 
n/a 
-4.759 
n/a 
n/a 
n/a 
n/a 
-4.759 
n/a 
n/a 
n/a 
n/a 
-4.759 
n/a 
n/a 
n/a 
n/a 
-3.0365 -2.4945 -2.645 -4.187 -4.587 -3.557 -1.934 -6.899 -3.8375 -3.4425 
-3.688 -4.6775 -6.745501 -9.322001 -7.496 -4.4175 -8.8275 -11.117 -6.544 
-5.477 -9.7775 -11.9665 -12.5128 -7.841001 -11.5568 -13.3081 -13.8235 
-9.9055 -15.2691 -15.1573 -12.8578 -15.3251 -16.0374 -16.0146 
-15.4797 -18.4599 -15.5023 -20.3419 -19.8057 -18.7439 
-1.934 -4.0745 -1.7695 -4.628 -5.939 -4.481 -2.4265 -2.645 -3.2295 -1.7695 -4.587 -4.889 0 
-7.2185 -5.6095 -6.618001 -5.9615 -11.5646 -6.9525 -5.172 -6.2145 -4.92 -6.5705 -10.7495 -4.889 
-8.3125 -11.0582 -7.9525 -11.6481 -14.0361 -10.6036 -8.643001 -8.6555 -10.3965 -13.2796 -10.7495 
-13.9404 -12.3927 -13.8785 -14.1196 -17.6872 -14.0746 -10.7025 -14.2434 -17.1056 -13.2796 
-15.2749 -18.3187 -16.35 -17.7707 -21.1582 -16.1341 -16.2904 -20.9525 -17.1056 
-2.0935 -4.913 -4.628 -6.739501 -5.213 -3.6885 -3.893 -1.7565 -4.587 -2.186 -1.934 -2.3615 -3.873 
-6.132 -9.918 -10.6215 -12.5985 -9.363001 -5.689 -4.1785 -5.7435 -6.913001 -4.0835 -3.539 -6.005 
-11.6634 -15.4905 -16.4805 -16.7485 -11.4343 -5.7245 -8.848001 -7.710001 -8.871501 -6.0515 -6.9595 
-17.2359 -21.3495 -20.6305 -18.8198 -11.4698 -10.031 -10.8989 -9.498 -11.0235 -9.2925 
-23.0949 -25.4995 -22.7018 -18.8553 -15.7763 -12.0819 -12.6869 -11.9274 -14.2645 
-3.034 -2.7295 -4.0745 -1.4985 -3.4425 -1.7565 -4.628 -4.743 -2.229 -3.8375 0 -4.587 -2.4945 -4.246 -3.557 -3.147 0 
-4.536 -6.06 -5.278 -4.4545 -4.5535 -6.107501 -4.7515 -6.5015 -5.8415 -3.8375 -4.587 -6.225 -5.529 -9.723001 -5.4905 -3.147 
-7.2135 -6.5425 -8.7585 -5.141 -8.711 -6.281001 -6.5135 -10.647 -5.8415 -7.9715 -6.225 -8.726001 -11.4338 -11.7233 -5.4905 
-7.582 -9.795501 -9.196501 -9.9175 -8.7965 -7.419001 -10.733 -10.647 -10.396 -9.672001 -8.726001 -15.2164 -13.4341 -11.7233 
-10.981 -10.567 -14.2558 -10.557 -10.3225 -11.7753 -10.733 -15.2015 -12.6049 -12.173 -15.2164 -17.2167 -13.4341 
