-4.759 
n/a 
n/a 
n/a 
n/a 
-4.759 
n/a 
n/a 
n/a 
n/a 
-4.759 
n/a 
n/a 
n/a 
n/a 
-4.759 
n/a 
n/a 
n/a 
n/a 
-4.767 -4.153 -6.864 -2.229 -3.8405 -9.71 0 
-5.9645 -9.5205 -8.205501 -6.798501 -14.5529 -9.71 
-11.798 -11.044 -13.6572 -17.8389 -14.5529 
-13.3215 -16.4957 -24.6976 -17.8389 
-18.7732 -27.5361 -24.6976 
-11.844 -3.8405 -4.8745 -5.2915 -1.7565 -5.674 -4.153 0 
-14.0676 -8.511001 -6.959001 -5.807 -7.660501 -7.0195 -4.153 
-16.1331 -10.7575 -7.331 -12.718 -8.894 -7.0195 
-18.3796 -11.1295 -14.2268 -13.9515 -8.894 
-18.7516 -18.0253 -15.4603 -13.9515 
-2.855 -4.184 -4.153 -4.365 -3.8405 -5.0235 
-5.956 -5.8855 -8.5935 -9.1215 -8.982 
-7.8745 -10.485 -13.597 -14.3114 
-12.667 -15.4885 -18.7869 
-17.6705 -20.6784 
-2.4265 -2.186 -1.4985 -4.8745 -5.2915 -1.7565 -2.855 -4.184 -4.153 0 
-3.292 -3.339 -6.132 -6.959001 -5.807 -5.1705 -5.956 -5.8855 -4.153 
-4.5995 -8.3805 -7.9175 -7.331 -10.6095 -7.835501 -7.8745 -5.8855 
-9.848001 -9.3665 -8.205501 -12.1183 -13.2745 -9.666 -7.8745 
-10.834 -9.509501 -13.0826 -14.7833 -15.105 -9.666 
