-4.759 
n/a 
n/a 
n/a 
n/a 
-4.759 
n/a 
n/a 
n/a 
n/a 
-4.759 
n/a 
n/a 
n/a 
n/a 
-4.759 
n/a 
n/a 
n/a 
n/a 
-1.4985 -4.015 -1.7565 -3.691 -3.074 -3.5795 -1.934 -2.3615 0 
-5.1595 -5.291 -4.930501 -6.934 -5.372 -5.5965 -3.539 -2.3615 
-8.26 -9.883 -8.022 -10.0675 -7.521501 -7.079 -3.539 
-13.0262 -13.0065 -11.2973 -12.2598 -8.486 -7.079 
-16.1497 -16.2818 -13.4896 -13.2243 -8.486 
-2.4265 -4.0935 -4.2085 -4.503 -1.7565 -3.2895 -1.756 -5.551 
-5.351 -9.009501 -6.9575 -6.027 -5.3275 -4.799 -6.249 
-10.292 -12.0255 -7.0245 -6.7235 -6.277 -6.296 
-13.308 -12.0925 -7.0295 -6.869 -6.8485 
-13.375 -12.0975 -7.045001 -6.8945 
-2.4265 -4.0935 -4.2085 -4.503 -1.7565 -3.2895 -1.756 -5.551 0 
-5.351 -9.009501 -6.9575 -6.027 -5.3275 -4.799 -6.249 -5.551 
-10.292 -12.0255 -7.0245 -6.7235 -6.277 -6.296 -6.249 
-13.308 -12.0925 -7.0295 -6.869 -6.8485 -6.296 
-13.375 -12.0975 -7.045001 -6.8945 -6.8485 
-2.3615 -3.932 -1.4985 -4.248 -1.756 -3.2895 
-6.927 -5.7975 -5.2845 -5.447 -5.792 
-8.479 -9.828001 -6.719501 -7.5535 
-12.6133 -11.0588 -8.670501 
-13.8441 -13.0098 
