-4.759 
n/a 
n/a 
n/a 
n/a 
-4.759 
n/a 
n/a 
n/a 
n/a 
-4.759 
n/a 
n/a 
n/a 
n/a 
-4.759 
n/a 
n/a 
n/a 
n/a 
-8.576 -8.831 -4.0385 -1.4985 -8.731 0 -1.756 -11.128 -12.16972 -3.074 -3.926 -1.4985 -3.3195 -1.756 -3.634 0 
-10.985 -13.2685 -5.3245 -10.3285 -8.731 -1.756 -13.8926 -23.29772 -15.24372 -7.0325 -5.622 -4.7185 -4.768 -5.9605 -3.634 
-15.4225 -14.5545 -14.5975 -10.3285 -10.4265 -13.8926 -26.06232 -26.37172 -19.20222 -7.805501 -8.954 -6.0305 -10.214 -5.9605 
-16.7085 -23.8275 -14.5975 -12.024 -22.5631 -26.06232 -29.13632 -30.33022 -19.97522 -11.3281 -10.304 -11.7951 -10.214 
-25.9815 -23.8275 -16.293 -24.1606 -34.73282 -29.13632 -33.09482 -31.10322 -23.49782 -12.6781 -16.0686 -11.7951 
-2.9805 -4.96 -3.3195 -1.756 -3.793 -2.0935 -9.278501 -2.9705 -2.7415 -3.881 -2.3345 -9.401 0 
-6.9405 -7.348 -4.768 -5.6215 -6.099 -12.363 -12.8322 -4.512 -5.344501 -4.5275 -11.08 -9.401 
-8.514501 -8.4695 -9.183001 -7.559 -17.1533 -15.9167 -14.3737 -6.8555 -5.7685 -14.04 -11.08 
-9.685501 -13.1687 -11.0625 -19.0049 -20.707 -17.4582 -16.7172 -7.339001 -15.9132 -14.04 
-14.4335 -15.0482 -22.5084 -22.5586 -22.2485 -19.8017 -17.2007 -17.6669 -15.9132 
-2.9805 -4.96 -4.9635 -3.3195 -1.7695 -8.731 -2.9705 -2.7415 -3.881 -2.3345 -12.16972 0 
-6.9405 -10.6095 -7.807 -5.492001 -11.4827 -11.1415 -4.512 -5.344501 -4.5275 -14.83482 -12.16972 
-12.5764 -13.453 -9.925 -15.889 -13.8932 -12.683 -6.8555 -5.7685 -17.79482 -14.83482 
-15.4199 -15.571 -20.4092 -18.2995 -15.4347 -15.0265 -7.339001 -19.66802 -17.79482 
-17.5379 -26.0552 -22.8197 -19.841 -17.7782 -15.51 -21.42172 -19.66802 
-2.9805 -4.96 -4.9635 -3.3195 -1.7695 -9.278501 -2.9705 -2.7415 -3.881 -2.3345 -12.16972 0 
-6.9405 -10.6095 -7.807 -5.492001 -12.0302 -12.8322 -4.512 -5.344501 -4.5275 -14.83482 -12.16972 
-12.5764 -13.453 -9.925 -16.4365 -15.5839 -14.3737 -6.8555 -5.7685 -17.79482 -14.83482 
-15.4199 -15.571 -20.9567 -19.9902 -17.1254 -16.7172 -7.339001 -19.66802 -17.79482 
-17.5379 -26.6027 -24.5104 -21.5317 -19.4689 -17.2007 -21.42172 -19.66802 
