-4.759 
n/a 
n/a 
n/a 
n/a 
-4.759 
n/a 
n/a 
n/a 
n/a 
-4.759 
n/a 
n/a 
n/a 
n/a 
-4.759 
n/a 
n/a 
n/a 
n/a 
-5.3885 -2.186 -3.1715 -1.7565 -6.557 -1.756 -6.623 -4.5525 -4.4665 -3.2875 
-7.7415 -6.5675 -4.207 -7.653501 -8.2015 -8.736 -11.9813 -9.6435 -7.0655 
-12.4848 -7.1785 -8.633501 -8.8885 -15.5615 -14.5295 -17.0723 -10.555 
-13.0958 -12.5392 -9.835501 -16.2753 -21.355 -19.6205 -17.9838 
-18.4565 -13.7412 -17.3019 -22.0688 -26.446 -20.532 
-5.3885 -1.756 -5.1845 -5.74 -3.8385 -3.2875 -1.7565 -3.8735 -2.229 -4.4145 -3.6135 -3.2875 0 
-7.176001 -7.0085 -5.7465 -10.3545 -8.142501 -4.3315 -5.112 -5.3655 -5.9795 -8.2885 -5.8555 -3.2875 
-8.422001 -7.5095 -10.3815 -14.6585 -9.106501 -7.6775 -6.120501 -8.406 -9.536501 -10.9405 -5.8555 
-8.4235 -12.3855 -14.6855 -15.6225 -12.6341 -9.594501 -9.504001 -12.9284 -12.3455 -10.9405 
-14.3437 -16.6895 -15.6495 -19.1501 -14.5511 -13.3218 -14.3822 -15.7374 -12.3455 
-5.3885 -2.186 -1.4985 -3.9515 -1.7565 -5.1845 -5.74 -1.756 -2.186 -1.4985 -4.4145 -4.1735 -3.2875 -1.934 -3.8735 
-7.7415 -3.339 -5.059 -5.368 -6.580501 -5.7465 -7.346 -3.986 -3.339 -4.8425 -6.417 -6.08 -5.248 -4.885 
-8.509001 -6.498 -5.839 -8.7735 -6.961501 -7.3525 -9.086 -5.37 -6.2495 -6.645 -7.466001 -6.471 -7.7875 
-9.276501 -6.727 -9.0115 -8.795 -8.0565 -9.0885 -10.3165 -7.948 -7.1955 -7.712 -7.7355 -8.729 
-9.462501 -9.668501 -9.024501 -9.8365 -9.372001 -10.341 -12.8945 -8.416 -8.093 -7.76 -9.349501 
-6.557 -2.229 -3.9515 -5.3885 -2.186 -1.4985 -4.4485 -4.4685 -7.2025 -1.7565 -3.8735 
-9.0895 -5.671 -8.9895 -7.7415 -3.339 -5.4305 -9.221001 -12.8684 -8.396 -5.112 
-12.7391 -10.476 -10.6885 -8.509001 -7.06 -10.322 -17.9961 -14.0619 -12.1393 
-17.5441 -12.175 -11.456 -12.6706 -12.2577 -19.4551 -19.1896 -17.8052 
-19.2431 -12.9425 -15.6176 -17.8683 -21.3908 -20.6486 -22.9329 
