-4.759 
n/a 
n/a 
n/a 
n/a 
-4.759 
n/a 
n/a 
n/a 
n/a 
-4.759 
n/a 
n/a 
n/a 
n/a 
-4.759 
n/a 
n/a 
n/a 
n/a 
-3.5715 -6.9045 -3.152 -4.493 -3.5005 -3.2495 -3.5385 -1.756 -3.54 -3.152 -4.874 -3.034 -4.257 -6.0305 -1.4985 -3.1385 -3.0695 -5.7565 -1.7695 -2.688 -3.4425 -1.934 -9.3085 
-10.314 -10.697 -5.593 -7.3945 -6.004001 -5.703 -4.657 -5.1005 -6.3735 -6.21 -6.619 -7.997001 -9.043501 -7.017 -4.2575 -4.286 -7.263 -6.202 -4.698 -6.302501 -5.188 -10.041 
-13.139 -12.375 -7.665 -8.6735 -7.9385 -6.779 -7.619 -7.3905 -8.602501 -7.321 -9.625501 -13.1507 -9.595 -9.856501 -5.1225 -8.341001 -7.602 -7.976 -8.6555 -7.9045 -13.789 
-14.826 -14.289 -8.832001 -9.494 -8.904501 -8.313 -10.142 -8.8155 -9.4575 -10.9277 -15.639 -13.7022 -12.5881 -10.5565 -9.239 -8.7685 -9.211 -12.4663 -10.0375 -16.6061 
-16.74 -15.456 -9.609501 -10.0175 -10.1815 -11.2274 -11.567 -9.5085 -13.2346 -16.9412 -16.1905 -16.6953 -13.2881 -14.673 -9.597001 -10.6215 -14.3119 -13.8483 -19.1183 
-1.934 -3.5715 -3.06 0 -3.8445 -3.1385 -3.5005 -3.2495 -3.5385 -3.152 -4.493 -1.934 -1.8085 -4.99 -4.299 -4.005 -2.3345 -4.0415 -2.264 -1.4985 -3.1385 -5.7565 -2.5195 -9.3085 -12.16972 -3.892 0 
-5.0835 -5.5925 -3.06 -3.8445 -6.215 -5.9425 -6.004001 -5.703 -5.624 -5.593 -5.1865 -3.2685 -6.138 -7.229 -8.7755 -5.1035 -6.269 -7.038 -2.9195 -4.2575 -7.9635 -6.703 -10.8215 -21.62342 -16.06172 -3.892 
-7.9515 -5.5925 -7.781501 -6.215 -7.872 -7.668 -7.9385 -7.3175 -7.319 -6.176001 -6.1955 -7.697001 -7.813 -12.2661 -10.375 -8.799 -9.887001 -7.680501 -6.283 -9.4125 -8.5865 -15.4526 -23.13642 -25.51542 -16.06172 
-7.9515 -10.2325 -10.064 -7.872 -8.721001 -8.443501 -8.691501 -8.3895 -7.8395 -6.913001 -8.791 -8.35 -13.3101 -13.8656 -14.3275 -12.8994 -10.5295 -10.233 -11.8116 -9.909 -17.6051 -27.76752 -27.02842 -25.51542 
-13.0555 -12.515 -11.721 -8.721001 -9.479 -9.121501 -9.063001 -9.002 -8.279 -9.2845 -8.9095 -14.0459 -14.9096 -17.8181 -18.4279 -13.5419 -13.082 -16.1044 -12.3081 -19.1906 -29.92002 -31.65952 -27.02842 
-3.5715 -10.763 -9.184501 -4.9225 -8.613501 -2.3345 -4.744 0 -4.493 -2.5645 -4.9225 0 -5.228 -2.461 -3.5005 -2.341 -5.1475 
-13.1305 -20.6831 -14.4234 -14.5502 -9.326501 -6.856501 -4.744 -4.493 -7.4855 -8.4195 -4.9225 -5.228 -8.044001 -6.781 -6.433001 -7.6945 
-25.4198 -27.077 -24.0511 -15.2632 -14.0657 -6.856501 -6.656501 -7.4855 -13.7771 -8.4195 -10.688 -8.044001 -12.7444 -9.099001 -12.1609 
-30.6587 -36.7047 -24.7641 -20.0024 -14.0657 -10.223 -9.078001 -13.7771 -13.7771 -14.4178 -13.504 -12.7444 -15.0624 -14.9429 
-40.2864 -37.4177 -29.5033 -20.0024 -17.4322 -12.7403 -16.1412 -13.7771 -19.7754 -17.2338 -18.2044 -15.0624 -20.9063 
-10.417 -9.3085 0 -3.45 -3.1385 -3.0695 -5.7565 -1.7695 -12.16972 -3.4425 -4.257 -3.43 -2.664 -8.583501 -4.299 -2.264 -3.1385 -1.934 -2.3335 -3.2495 -3.5385 -2.356 -3.8445 -1.7565 -3.277 -3.152 -4.424 -1.756 -3.54 -3.152 -7.8255 
-18.9188 -9.3085 -3.45 -5.45 -4.286 -7.263 -6.202 -14.92142 -15.61222 -8.040501 -7.7015 -5.286 -12.4659 -13.2761 -5.322001 -5.6355 -4.522 -4.359 -5.653501 -5.703 -5.081 -5.705501 -5.6185 -4.25 -5.6945 -8.638 -5.9015 -5.1005 -6.3735 -9.441501 
-18.9188 -12.9037 -5.45 -6.0005 -8.341001 -7.602 -20.07752 -18.36392 -20.21022 -11.7334 -9.1455 -16.0455 -17.1585 -14.2991 -8.465 -7.160501 -6.782001 -7.832 -8.375501 -7.3635 -9.042 -7.413001 -6.753 -5.802001 -10.281 -9.6975 -8.3055 -7.3905 -12.7638 
-22.514 -14.9037 -6.0005 -10.1675 -8.7685 -21.85672 -23.52002 -22.96192 -23.90312 -13.1774 -20.1876 -20.7381 -18.1815 -17.4421 -9.818001 -9.609501 -10.688 -10.7488 -9.7165 -11.4857 -10.4505 -8.578001 -7.816 -10.2865 -11.3405 -12.1015 -9.082001 -13.9474 
-24.514 -15.4542 -10.1675 -10.7095 -23.10082 -25.29922 -28.11802 -26.65482 -25.34712 -24.2195 -24.8802 -21.7611 -21.3245 -18.7951 -12.4092 -13.5513 -13.6048 -12.0898 -14.3709 -12.8942 -10.7715 -9.779401 -12.5565 -11.346 -13.7445 -12.878 -16.2247 
