-4.759 
n/a 
n/a 
n/a 
n/a 
-4.759 
n/a 
n/a 
n/a 
n/a 
-4.759 
n/a 
n/a 
n/a 
n/a 
-4.759 
n/a 
n/a 
n/a 
n/a 
-3.851 -1.7695 -3.441 -4.2895 -3.849 -3.982 -3.959 -3.251 -4.518 -2.664 -3.8675 -3.9225 -4.2315 -1.756 -3.152 -4.6185 -1.7695 -4.7995 -3.222 -3.8275 0 
-4.0015 -5.784 -6.002501 -8.189501 -6.7625 -5.6075 -6.652 -6.1035 -6.1695 -5.2005 -6.542 -6.2445 -5.332 -5.002501 -5.948501 -4.987 -5.770501 -8.760501 -6.807 -3.8275 
-6.8465 -7.423 -9.836 -11.213 -7.12 -8.09 -8.800501 -7.364501 -6.5295 -7.496 -8.3135 -7.04 -7.85 -7.398001 -6.0325 -9.3795 -9.312501 -12.4001 -6.807 
-7.4275 -11.5739 -12.8595 -11.5705 -9.542001 -10.5975 -9.935 -7.665 -9.774 -8.829 -8.9355 -9.408 -10.1805 -7.452001 -10.5035 -13.2315 -12.9823 -12.4001 
-11.5872 -14.5974 -13.217 -13.9925 -12.0777 -11.732 -10.326 -11.2089 -9.9615 -9.38 -11.7593 -11.8187 -10.25 -12.0458 -14.3555 -16.9013 -12.9823 
-1.756 -3.0415 -3.982 -3.959 -3.2345 -3.3715 -4.582 -2.871 -3.894 -1.756 -4.9585 -3.959 -3.2795 0 -1.4985 -4.2605 -4.3195 -4.6475 -1.7695 -3.584 -3.8275 0 
-4.454 -8.123501 -5.6075 -7.303 -6.465 -7.846001 -7.7845 -7.148001 -5.115 -6.2715 -10.523 -7.8975 -3.2795 -1.4985 -4.8355 -7.485001 -7.485 -6.733 -4.382 -7.9295 -3.8275 
-9.573001 -9.620501 -9.0235 -10.586 -11.3743 -11.5611 -12.4155 -8.289001 -9.865001 -11.9124 -14.4615 -7.8975 -5.16 -4.8355 -7.660501 -8.786501 -9.805 -9.38 -8.565001 -7.9295 
-10.178 -13.2589 -12.4069 -15.4953 -15.0894 -16.1921 -13.5565 -13.2986 -15.5059 -15.8509 -14.4615 -9.901501 -8.837001 -7.660501 -8.9305 -11.2417 -12.69 -13.8004 -8.565001 
-14.4646 -16.6423 -17.3162 -19.2104 -19.7204 -17.3331 -18.5661 -18.9395 -19.4444 -15.8509 -16.4655 -13.5785 -11.94 -8.9305 -11.4119 -14.1267 -17.1104 -13.8004 
-3.851 -1.7695 -1.4985 -4.267 -4.225 -5.454 -4.4275 -3.222 -3.458 -3.345 -3.769 0 -1.756 -4.159 -5.9135 -1.7565 -3.3715 -3.959 -3.45 -3.959 -3.074 -2.674 -1.7695 -5.72 -1.934 -1.4985 -3.8275 0 
-4.0015 -2.7955 -5.119 -7.5895 -8.6675 -8.1815 -5.144 -6.785 -5.9115 -6.0655 -3.769 -1.756 -5.6255 -9.737501 -6.974 -4.845 -5.699 -7.4645 -6.0255 -6.743 -4.7925 -3.787 -6.245501 -6.035501 -2.6125 -4.726 -3.8275 
-4.5775 -6.3425 -8.3915 -12.7716 -11.694 -8.192 -6.8075 -9.4425 -8.652 -6.0655 -5.308001 -5.6255 -11.7066 -10.8118 -10.151 -7.134501 -9.069 -8.621 -8.688 -7.7185 -5.869 -8.3685 -6.492001 -6.935 -5.815001 -4.726 
-8.459001 -9.5495 -13.8228 -15.7981 -11.7045 -9.314001 -9.467501 -12.4126 -8.652 -8.144001 -9.453501 -11.7066 -12.7809 -13.9888 -12.4405 -10.6215 -10.554 -10.586 -9.570001 -9.1055 -10.7795 -8.76 -7.478001 -10.598 -5.815001 
-11.8164 -15.146 -16.8493 -15.8086 -12.8265 -12.1908 -12.4496 -12.4126 -10.025 -12.4631 -15.9102 -12.7809 -15.9579 -16.2783 -15.9275 -12.1065 -12.519 -11.468 -10.9524 -14.058 -11.171 -9.703 -11.2292 -10.598 
-3.851 -1.7695 -1.4985 -4.582 -3.43 -3.458 -1.4985 -3.982 -3.959 -2.0935 -2.985 -4.3325 -3.441 -1.756 -3.851 -1.7695 -3.383 -4.2595 -3.38 -5.9135 0 -3.17 -1.7565 -3.45 -3.959 -3.152 -4.6185 -1.7695 -4.7995 -1.934 -1.4985 -3.8275 0 
-4.0015 -2.7955 -6.146 -7.0845 -6.013 -4.063 -4.566 -5.6075 -5.923 -4.3315 -6.657001 -7.894 -4.7645 -5.9215 -4.0015 -5.849 -5.3595 -8.23 -8.262501 -5.9135 -3.17 -4.179 -4.322 -6.0255 -6.2895 -5.948501 -4.987 -5.770501 -7.002001 -2.6125 -4.726 -3.8275 
-4.5775 -7.449 -7.981 -8.041 -6.601501 -6.752 -7.0455 -7.506001 -7.732 -8.253 -10.757 -8.9475 -9.0445 -6.246 -7.2715 -8.071 -9.364 -13.6227 -8.262501 -9.2665 -4.179 -6.096 -6.8215 -8.163 -8.712501 -6.0325 -9.3795 -7.642001 -7.657001 -5.815001 -4.726 
-9.408 -9.024 -8.737 -8.474 -9.6855 -8.7985 -9.022 -9.2405 -11.9265 -12.4824 -11.8105 -13.7149 -9.5445 -9.495501 -9.7165 -12.0511 -14.9421 -13.6227 -11.9205 -10.055 -6.096 -8.442 -8.858001 -10.159 -8.7655 -10.5035 -10.3425 -8.137001 -10.322 -5.815001 
-10.689 -10.1385 -9.12 -11.7978 -11.6198 -10.9632 -10.76 -13.7394 -16.1559 -13.5359 -16.5779 -14.2149 -12.9698 -11.9275 -13.7558 -17.6292 -14.9421 -17.2807 -12.709 -12.1562 -8.442 -10.111 -10.9132 -10.2015 -13.3319 -11.4665 -10.8375 -11.0092 -10.322 
