-4.759 
n/a 
n/a 
n/a 
n/a 
-4.759 
n/a 
n/a 
n/a 
n/a 
-4.759 
n/a 
n/a 
n/a 
n/a 
-4.759 
n/a 
n/a 
n/a 
n/a 
-2.9805 -4.3195 -1.4985 -3.0835 -3.616 -4.7115 -1.934 -1.4985 -2.791 -1.7695 -4.2985 -5.2655 -4.7015 -3.9225 -1.4985 -3.1385 
-5.4865 -5.1515 -3.535 -6.23 -8.123001 -6.485 -2.6125 -4.3645 -4.3355 -4.9165 -9.414001 -7.837 -6.891001 -4.463 -4.2575 
-6.313 -5.8475 -6.4985 -9.354 -9.769001 -7.0855 -4.900001 -6.2235 -7.272 -9.6885 -10.3425 -9.606501 -7.628001 -6.471 
-6.955 -7.464 -9.4125 -11.4822 -10.202 -9.437 -6.814 -8.995001 -12.4356 -10.7406 -12.8448 -10.245 -8.884001 
-8.394 -9.8985 -11.5611 -11.9152 -12.5535 -11.674 -9.471001 -14.1356 -13.4877 -13.2429 -13.4833 -11.501 
-1.7695 -3.7905 -1.4985 -3.2825 -3.6975 -3.616 -5.0955 -3.9225 -1.4985 -4.3665 
-4.482 -4.969 -3.712 -7.191 -7.561501 -8.283501 -7.173 -4.463 -5.585 
-5.547 -6.7665 -8.144501 -12.1728 -10.586 -10.7144 -9.406501 -8.280001 
-7.1095 -11.6748 -13.3203 -15.1973 -13.6239 -12.9479 -13.3835 
-12.1362 -16.8506 -16.3448 -18.2352 -15.8574 -16.9249 
-3.676 -2.229 -3.0835 -3.616 -5.0955 -1.7695 -3.0465 -4.3125 -3.1385 -3.2015 0 
-4.593 -4.6705 -6.23 -8.283501 -7.119 -3.683 -7.067 -8.2235 -6.717501 -3.2015 
-6.3895 -6.969 -9.592501 -9.582001 -8.974501 -7.7775 -11.5844 -11.9309 -6.717501 
-7.6685 -10.8223 -9.762 -10.623 -13.293 -12.4455 -15.2918 -11.9309 
-12.3214 -10.9918 -10.6645 -15.9597 -17.961 -16.1529 -15.2918 
-2.9805 -2.7415 -1.4985 -3.0835 -3.616 -3.6385 -1.7695 -4.2985 -1.4985 -5.8675 -2.5195 -1.4985 -4.3665 0 
-4.004 -4.063 -3.535 -6.23 -5.9235 -5.49 -4.9165 -5.75 -6.887501 -8.34 -3.1695 -5.585 -4.3665 
-5.390501 -5.12 -6.4985 -7.7865 -7.455 -8.160501 -6.17 -9.878 -10.0475 -8.888 -7.59 -5.585 
-6.419001 -7.435 -7.8325 -8.0185 -10.298 -8.318501 -10.2425 -12.775 -10.3665 -13.4757 -7.59 
-8.177501 -8.6875 -8.047001 -10.609 -10.596 -13.57 -13.1395 -13.094 -14.9542 -13.4757 
