-4.759 
n/a 
n/a 
n/a 
n/a 
-4.759 
n/a 
n/a 
n/a 
n/a 
-4.759 
n/a 
n/a 
n/a 
n/a 
-4.759 
n/a 
n/a 
n/a 
n/a 
-1.934 -6.4185 -3.4795 0 -2.925 -2.4945 -4.4725 -1.934 -1.8085 -5.636 -2.3335 -1.934 -3.333 -1.7695 -4.888 -2.985 -3.519 0 -2.925 -2.8645 -1.7695 -4.8225 -2.5045 -3.345 -1.756 -5.609 -1.756 -2.925 -4.1665 -2.0935 -3.401 -2.95 0 
-7.367 -6.943 -3.4795 -2.925 -3.7675 -5.739 -5.511001 -3.2685 -6.900001 -6.773 -4.468 -3.9835 -4.022 -5.393 -6.162 -5.976501 -3.519 -2.925 -7.415501 -4.4755 -5.314 -7.827001 -5.07 -5.2935 -6.9515 -7.626 -4.2585 -6.585501 -4.934 -6.1185 -5.6745 -2.95 
-7.751 -6.943 -6.194 -3.7675 -6.976 -6.411 -6.342501 -8.374001 -7.4795 -9.436501 -5.9015 -4.0425 -6.9245 -6.711 -8.3795 -5.976501 -6.3805 -7.415501 -8.738501 -7.859 -8.248501 -9.625501 -7.377501 -8.245501 -9.783001 -9.5625 -8.1435 -7.005001 -9.0755 -8.9405 -5.6745 
-7.751 -8.775001 -7.1545 -6.976 -7.5205 -7.130001 -12.2134 -8.942 -10.334 -10.271 -5.981 -6.9285 -7.9985 -8.878 -8.3795 -7.895 -11.1332 -8.738501 -12.0938 -10.7575 -10.4105 -12.3264 -10.7211 -10.119 -11.7195 -13.4979 -8.682 -11.4491 -9.515 -8.9405 
-9.5675 -10.4425 -10.292 -7.5205 -8.2615 -13.2587 -12.7814 -11.8775 -11.1685 -10.5235 -8.690001 -7.9995 -10.0155 -8.878 -9.9505 -12.7857 -12.4562 -12.0938 -14.9923 -12.9195 -13.1114 -15.67 -12.5946 -12.0555 -15.6549 -14.0364 -13.3427 -11.8886 -9.515 
-3.5905 -3.59 0 -4.809 -8.2205 0 -3.819 -4.637 -3.0365 0 -2.8705 -4.816 -2.186 -6.9515 -1.934 -6.4415 -2.95 0 
-6.32 -3.59 -4.809 -13.9623 -8.2205 -3.819 -8.502001 -8.2925 -3.0365 -2.8705 -8.088501 -7.9385 -8.395 -9.2335 -9.099501 -10.1945 -2.95 
-6.32 -9.133501 -13.9623 -13.9623 -12.6499 -8.502001 -12.5355 -8.2925 -6.6355 -8.088501 -11.8384 -14.4027 -10.348 -16.5478 -13.2733 -10.1945 
-12.5771 -18.4236 -13.9623 -18.3917 -17.3329 -12.5355 -12.5355 -11.9745 -12.1643 -11.8384 -18.3026 -16.3557 -17.6623 -20.7216 -13.2733 
-21.8672 -18.4236 -18.3917 -23.0747 -21.3664 -12.5355 -16.2175 -17.5033 -15.9142 -18.3026 -20.2556 -23.67 -21.8361 -20.7216 
-1.934 -7.396501 -3.5905 -3.59 -2.925 -3.152 -4.413 -2.0935 -1.4985 -3.8405 -1.7695 -3.0465 -4.919 -6.326 -3.197 -3.401 -2.95 -1.7695 -3.0465 -2.985 -4.0965 -3.251 
-9.083501 -10.841 -6.32 -6.1945 -4.203 -6.355 -4.793 -2.9725 -4.7545 -5.658 -3.683 -9.291 -12.224 -9.744 -7.311501 -5.6745 -4.11 -3.683 -5.3095 -7.458 -7.618001 
-12.6456 -13.5705 -8.838 -7.504 -7.165 -6.646 -5.505 -5.4335 -6.7175 -7.7225 -9.963501 -16.8222 -15.642 -13.9803 -10.2755 -6.375501 -5.558 -5.7 -10.4265 -9.913 
-15.3751 -16.0885 -9.8485 -10.733 -7.371 -7.3305 -9.534 -7.546501 -9.228001 -14.3698 -17.5861 -20.2402 -19.8783 -16.9443 -10.532 -7.9115 -7.77 -10.9364 -12.8815 
-17.8931 -17.099 -13.0775 -10.939 -8.022 -11.4801 -10.3555 -10.6215 -16.1109 -21.9924 -21.0041 -24.4765 -22.8423 -17.2008 -12.068 -10.3345 -13.147 -13.3914 
-1.934 -1.4985 -6.4185 -3.959 -3.45 -4.4995 -3.7015 -1.7695 -3.277 0 -4.919 -1.7695 -3.345 -5.1515 0 -2.925 -5.358 -2.0935 -6.259 -1.7695 -3.519 -2.985 -4.1 
-2.6125 -6.940001 -10.784 -7.4645 -9.086 -8.439501 -7.22 -4.619 -3.277 -4.919 -6.7635 -4.692 -10.477 -5.1515 -2.925 -6.724 -5.943 -8.67 -8.196501 -4.951 -6.6305 -7.1315 
-7.176001 -12.2489 -14.2895 -13.4129 -13.3546 -12.2544 -9.734 -4.619 -8.387501 -6.7635 -9.771 -12.2986 -10.477 -7.924 -6.724 -7.258 -13.2965 -10.7533 -10.688 -7.053501 -11.32 
-13.3269 -15.7544 -20.2379 -17.6815 -17.1695 -14.7684 -9.734 -9.899 -9.513 -9.771 -17.7032 -12.2986 -13.2495 -11.848 -7.258 -14.7759 -15.3798 -13.2448 -12.7905 -12.1708 
-16.8324 -21.7028 -24.5065 -21.4964 -19.6835 -14.7684 -15.4832 -11.4539 -12.8707 -17.7032 -17.7032 -15.0711 -17.1735 -12.382 -14.7759 -16.8592 -17.8713 -15.3473 -17.9078 
