-4.759 
n/a 
n/a 
n/a 
n/a 
-4.759 
n/a 
n/a 
n/a 
n/a 
-4.759 
n/a 
n/a 
n/a 
n/a 
-4.759 
n/a 
n/a 
n/a 
n/a 
-4.7885 -4.1455 -1.7565 -3.995 -2.7415 -4.794 -2.3345 -6.257 -1.7565 -7.593 -2.5195 -1.4985 -4.1335 -3.074 -1.4985 -5.0485 -1.7565 -1.4985 -4.35 -2.186 -2.6165 -3.4765 0 -3.325 -1.4985 -4.1115 -2.4265 -2.186 -4.347 -2.7035 -4.323 -1.756 -3.325 -1.4985 -3.873 -3.1435 -6.364 -4.323 0 
-6.302001 -5.11 -5.423 -6.3075 -6.637 -5.291 -8.944 -7.430501 -10.2987 -11.6665 -3.1695 -5.455501 -7.796 -4.6505 -5.937 -5.682 -2.4195 -5.883 -5.8735 -3.5105 -4.9455 -3.4765 -3.325 -3.898 -4.843 -6.6315 -3.292 -5.555 -6.0845 -5.940001 -6.396501 -5.198 -3.898 -4.7405 -7.421 -9.330501 -8.456 -4.323 
-6.596 -7.788001 -8.0775 -9.943001 -7.5255 -10.733 -9.776001 -16.3315 -14.3722 -12.3165 -7.4045 -8.6315 -9.219 -8.803 -6.072501 -6.05 -6.745 -7.3555 -7.372001 -6.134501 -4.9455 -6.252501 -3.898 -6.178 -7.0055 -7.1555 -7.054 -7.341001 -8.448501 -8.2295 -8.773001 -5.9855 -7.2085 -7.955 -14.4173 -13.0245 -8.671 
-10.0995 -9.969001 -11.8278 -11.1579 -13.5117 -11.565 -18.8518 -20.405 -15.0222 -16.5515 -10.468 -10.025 -13.3845 -8.9055 -6.243001 -7.9275 -8.237 -8.687 -10.485 -6.134501 -8.2015 -6.7365 -6.178 -8.698001 -7.554 -9.818001 -8.814 -9.303 -10.3605 -10.7342 -10.75 -9.242001 -11.1522 -15.1677 -17.8748 -13.2735 
-12.9991 -13.9353 -13.0427 -17.1441 -14.3437 -20.6408 -22.9253 -21.055 -19.2572 -19.615 -11.8615 -14.1905 -13.487 -9.0165 -8.054001 -9.0165 -9.5045 -12.0212 -10.485 -9.189501 -8.746 -9.491 -8.698001 -9.401001 -10.6465 -11.6538 -10.2585 -11.4776 -12.8652 -12.7112 -14.0065 -13.3707 -18.3649 -18.6252 -17.8748 
-1.4985 -5.465 -2.186 -4.794 -2.5195 -1.4985 -5.637 -2.3345 -1.4985 -12.16972 -6.257 -1.756 -1.4985 -5.0485 -1.7565 -1.4985 -5.465 -5.069 0 -5.4835 -2.7035 -4.323 -3.325 -1.4985 -5.059 -1.756 -12.16972 -4.323 -2.264 -1.4985 -5.5025 0 
-6.377501 -6.901 -6.253 -5.6105 -3.1695 -6.3745 -7.9455 -3.233 -14.76202 -18.42672 -7.705 -3.0405 -5.937 -5.682 -2.4195 -6.377501 -9.3 -5.069 -5.4835 -7.4855 -5.940001 -8.166 -3.898 -5.9835 -6.0995 -14.93432 -16.49272 -6.975 -2.9195 -6.737 -5.5025 
-7.3715 -10.2925 -6.526501 -5.9935 -7.9435 -8.729 -9.0575 -16.76452 -21.01902 -19.87472 -8.643001 -7.214 -6.072501 -6.05 -7.158501 -9.6485 -9.3 -9.752001 -7.4855 -10.419 -9.7635 -8.703001 -8.258 -6.9355 -20.43382 -19.25732 -19.14472 -7.547001 -8.1035 -6.737 
-10.426 -10.3445 -6.735001 -9.9425 -9.699 -9.34 -22.75082 -23.02152 -22.46702 -20.81272 -10.5045 -7.353 -6.243001 -8.757501 -10.0445 -9.6485 -10.524 -10.5255 -10.419 -10.536 -9.908501 -10.223 -9.174 -21.31922 -24.75682 -21.90932 -19.71672 -10.348 -8.1035 
-10.455 -10.388 -10.316 -10.2735 -10.295 -23.18652 -29.00782 -24.46952 -23.40502 -22.67422 -10.5205 -7.5 -8.9385 -10.204 -10.0445 -10.5245 -10.5405 -10.542 -10.536 -10.5525 -10.483 -10.4845 -23.68592 -25.64222 -27.40882 -22.48132 -22.51772 -10.348 
-1.4985 -4.7885 -4.35 -1.756 -1.4985 -4.622 -3.9455 -2.186 -4.794 -2.3345 -1.4985 -12.16972 -4.6025 -3.321 0 -1.4985 -4.7885 -4.35 -2.186 -2.6165 -4.7255 -1.934 -2.5685 -1.4985 -3.5015 -2.4265 -2.186 -4.347 -6.614501 -3.325 -1.4985 -5.0895 -1.756 -6.364 -5.7335 -1.934 -3.873 0 
-5.282001 -6.498 -5.776 -3.0405 -5.221 -6.789001 -6.2145 -6.253 -5.291 -3.233 -14.76202 -16.77222 -7.778001 -3.321 -1.4985 -5.282001 -6.498 -5.8735 -3.5105 -6.759001 -6.599 -4.244 -3.7015 -4.737 -5.54 -3.292 -5.555 -8.8235 -10.143 -3.898 -5.684501 -6.39 -7.8905 -9.8575 -7.786501 -5.96 -3.873 
-6.845 -7.857 -6.4985 -6.6265 -7.2145 -8.13 -9.650001 -7.106501 -6.7595 -16.76452 -19.36452 -19.94772 -7.778001 -4.481 -5.282001 -6.845 -7.781001 -7.372001 -7.1125 -7.765501 -8.101501 -5.3815 -7.873 -6.8655 -6.4085 -7.054 -9.669001 -12.7164 -10.5205 -8.2725 -7.004001 -12.442 -12.456 -11.9405 -12.1131 -5.96 
-8.386001 -8.6125 -8.7425 -8.696 -8.3035 -11.7403 -10.762 -8.0655 -20.73302 -21.36702 -22.54002 -19.94772 -8.751501 -8.2155 -6.845 -8.0175 -9.717001 -9.913001 -8.115001 -8.783001 -8.943001 -9.0015 -10.1505 -7.661 -10.5125 -10.6735 -13.6951 -13.0939 -14.895 -9.312 -13.8466 -17.3641 -15.0089 -16.3763 -12.1131 
-8.910501 -9.446501 -10.057 -9.567 -11.9886 -12.8523 -11.721 -22.11762 -25.33552 -24.54252 -22.54002 -20.92122 -12.5408 -9.7635 -8.0175 -9.875 -12.2986 -10.9645 -8.9095 -9.828001 -12.8856 -11.4572 -10.946 -11.9046 -14.132 -14.6996 -14.0726 -17.4684 -15.9345 -16.3988 -18.3797 -19.6734 -19.3239 -16.3763 
-1.4985 -4.6735 -2.186 -3.1125 -5.8635 -2.5195 -1.4985 -3.2295 -3.9785 -3.433 -1.7565 -1.4985 0 -12.16972 0 0 -1.756 -1.4985 -4.9135 -1.7565 -1.4985 -3.2295 -9.3325 -2.6165 -3.4765 0 -3.325 -1.4985 -3.995 -2.264 -2.664 -3.784 -2.7035 -4.323 0 -2.264 -1.4985 -3.918 -6.364 -4.323 
-6.005501 -7.4075 -6.9115 -7.759501 -7.013 -3.1695 -5.705501 -7.725 -7.4395 -4.1845 -2.4195 -1.4985 -12.16972 -12.16972 0 -1.756 -3.0405 -6.191501 -5.9145 -2.4195 -5.705501 -13.717 -10.985 -4.9455 -3.4765 -3.325 -3.898 -4.712 -6.553 -4.4375 -4.8555 -6.573 -5.940001 -4.323 -2.264 -2.9195 -4.8715 -9.9475 -8.456 
-8.133501 -12.471 -11.7677 -8.569 -7.46 -7.2635 -9.93 -11.5394 -8.250501 -4.6515 -2.4195 -14.76202 -12.16972 -12.16972 -1.756 -3.0405 -7.612 -6.6285 -7.036 -6.6035 -16.8816 -15.3695 -13.314 -4.9455 -6.252501 -3.898 -7.189 -7.103001 -8.6625 -6.3655 -7.9715 -10.2985 -5.940001 -6.975 -2.9195 -6.2565 -10.8925 -12.977 
-13.3936 -17.3272 -12.5772 -8.9315 -12.0322 -11.6512 -13.7444 -12.3504 -8.735001 -4.6515 -15.87382 -14.76202 -12.16972 -13.92572 -3.0405 -7.612 -7.944 -7.4605 -11.849 -17.9268 -18.5341 -17.6985 -13.314 -8.2015 -6.7365 -7.189 -9.254001 -9.184501 -10.264 -8.9235 -12.0484 -10.2985 -8.733001 -7.547001 -6.2565 -12.3391 -14.4398 
-18.2498 -18.1367 -12.9397 -13.7225 -16.4199 -15.4656 -14.5554 -12.8349 -8.735001 -18.71782 -15.87382 -14.76202 -13.92572 -15.21022 -7.612 -7.944 -8.4975 -12.3739 -23.1723 -19.5793 -20.8631 -17.6985 -16.57 -8.746 -10.0815 -9.254001 -11.9689 -10.4115 -12.822 -13.4556 -12.0484 -13.0915 -9.328001 -11.337 -12.3613 -15.639 
