-4.759 
n/a 
n/a 
n/a 
n/a 
-4.759 
n/a 
n/a 
n/a 
n/a 
-4.759 
n/a 
n/a 
n/a 
n/a 
-4.759 
n/a 
n/a 
n/a 
n/a 
-3.0835 -4.317 -3.801 -3.9535 -2.5045 -2.3615 -3.59 
-6.991 -8.250501 -8.207001 -5.6505 -4.3105 -5.0215 
-10.6735 -13.1863 -10.155 -7.849 -8.087001 
-15.6093 -15.1343 -12.3535 -11.8557 
-17.5573 -17.3328 -16.3602 
-3.59 -2.9705 -3.0835 -3.9535 -1.4985 -3.801 -4.789 -1.934 -3.994 
-6.172 -6.568 -6.016 -5.435 -5.1485 -6.5085 -6.62 -5.238 
-9.423 -8.705501 -7.5035 -9.068501 -8.1495 -7.989501 -9.2065 
-11.7609 -10.4945 -10.5975 -12.3677 -10.092 -10.7616 
-13.5499 -13.5885 -14.4661 -14.3102 -13.2149 
-3.994 -2.229 -3.0835 -3.801 -6.2095 0 
-5.9595 -4.6705 -6.913 -9.708 -6.2095 
-7.4375 -7.893001 -13.6626 -9.708 
-11.2992 -15.2368 -13.6626 
-18.643 -15.2368 
-3.0835 -3.59 -2.9705 -4.5515 -4.273 -3.801 -1.934 -3.994 0 
-6.711 -6.172 -8.2995 -7.7285 -8.153 -6.047 -5.238 -3.994 
-9.182501 -12.0346 -11.6429 -10.382 -10.8944 -9.3885 -5.238 
-15.0545 -15.378 -14.2964 -13.1234 -14.2359 -9.3885 
-18.3979 -18.0315 -17.0378 -16.4649 -14.2359 
