-4.759 
n/a 
n/a 
n/a 
n/a 
-4.759 
n/a 
n/a 
n/a 
n/a 
-4.759 
n/a 
n/a 
n/a 
n/a 
-4.759 
n/a 
n/a 
n/a 
n/a 
-5.42 -3.383 -5.0405 -3.864 -4.134 -2.4945 0 -3.5505 -3.8975 -3.8935 0 -4.421 -3.8935 0 -3.5505 -1.756 -4.058 -3.686 0 -5.394 0 -3.674 0 -1.756 -4.3535 0 
-8.360001 -7.0175 -9.536501 -8.219 -5.3125 -2.4945 -3.5505 -7.54 -7.092 -3.8935 -4.421 -8.7805 -3.8935 -3.5505 -4.5495 -5.4065 -9.708 -3.686 -5.394 -5.394 -3.674 -3.674 -1.756 -5.934 -4.3535 
-12.3377 -11.8469 -13.9801 -9.709001 -5.3125 -6.868001 -7.54 -10.9771 -7.092 -8.8885 -8.7805 -8.7805 -7.057 -4.5495 -8.4135 -10.7175 -9.708 -10.151 -5.394 -9.16 -3.674 -5.2535 -5.934 -5.934 
-17.1671 -16.2905 -15.4701 -9.709001 -10.5035 -10.485 -10.9771 -10.9771 -12.6122 -14.1176 -8.7805 -12.2996 -8.4075 -8.4135 -15.1603 -10.7175 -16.2132 -10.151 -9.16 -9.16 -5.2535 -7.4675 -5.934 
-21.6107 -17.7805 -15.4701 -15.0098 -14.1205 -13.9221 -10.9771 -16.4973 -17.8413 -14.1176 -12.2996 -13.6501 -12.7537 -15.1603 -15.1603 -17.2227 -16.2132 -13.917 -9.16 -9.8855 -7.4675 -7.4675 
-3.17 -5.129 -3.6215 -3.958 -3.1015 -2.4945 -3.5505 -3.8935 0 -4.6525 -3.3035 0 -3.5505 -1.756 -4.372 -3.3035 0 -5.508 -4.0045 0 -3.674 -1.756 -4.3535 -4.415 0 
-6.284 -9.1455 -8.337501 -6.898 -5.858 -6.868001 -5.918 -3.8935 -4.6525 -8.4995 -3.3035 -3.5505 -4.5495 -5.263 -7.396501 -3.3035 -5.508 -7.724501 -4.0045 -3.674 -5.2535 -5.934 -8.134501 -4.415 
-9.5275 -13.9101 -11.5485 -9.194 -9.305 -9.421 -5.918 -9.774 -8.4995 -8.4995 -6.3955 -4.5495 -5.3765 -7.784 -7.396501 -8.859501 -7.724501 -7.724501 -8.126501 -5.2535 -7.4675 -9.193501 -8.134501 
-14.5627 -17.1211 -13.8445 -12.9226 -12.6438 -9.421 -12.3911 -13.621 -8.4995 -11.9877 -7.481 -5.3765 -7.7925 -7.784 -13.5317 -10.477 -7.724501 -12.2539 -8.295001 -7.4675 -10.5975 -9.193501 
-17.7737 -19.4171 -17.5731 -16.2614 -12.6438 -16.0383 -16.2381 -13.621 -11.9877 -13.0732 -8.0775 -7.7925 -7.7925 -14.2614 -15.1492 -10.477 -12.2539 -12.4224 -11.9948 -10.5975 -10.5975 
-3.1015 -4.614 -4.415 -2.4945 -3.5505 -3.681 -9.884001 0 -5.077 -3.8935 0 -3.5505 0 -3.729 -3.9195 0 -4.0045 0 -3.674 -1.756 -4.3535 
-7.512 -9.069 -6.329 -6.868001 -7.794001 -14.819 -9.884001 -5.077 -7.495501 -3.8935 -3.5505 -3.5505 -3.729 -5.707 -3.9195 -4.0045 -4.0045 -3.674 -5.2535 -5.934 
-12.3618 -11.209 -11.2647 -11.6925 -19.4886 -14.819 -15.2182 -7.495501 -7.495501 -7.057 -3.5505 -7.829 -5.707 -5.707 -8.1875 -4.0045 -8.126501 -5.2535 -7.4675 
-14.5018 -16.1447 -16.0892 -23.3871 -19.4886 -20.1532 -17.6367 -7.495501 -10.426 -7.057 -7.829 -9.5535 -5.707 -9.332001 -8.1875 -8.126501 -8.295001 -7.4675 
-19.4375 -20.9692 -27.7838 -23.3871 -24.8228 -22.5717 -17.6367 -10.426 -10.426 -12.4411 -9.5535 -9.5535 -9.332001 -9.332001 -10.389 -8.295001 -11.9948 
-3.1015 -3.299 -4.3435 -3.6215 0 -3.5505 -3.3855 -3.8935 0 -4.98 -3.8935 0 -3.5505 0 -4.812 0 -4.1575 0 -3.674 -1.756 -3.8325 -4.415 0 
-7.038 -7.291501 -9.144501 -3.6215 -3.5505 -6.394 -7.363 -3.8935 -4.98 -8.366 -3.8935 -3.5505 -3.5505 -4.812 -4.812 -4.1575 -4.1575 -3.674 -5.2535 -5.859 -8.5115 -4.415 
-11.5415 -12.5327 -9.144501 -7.496 -6.394 -9.84 -7.363 -9.654 -8.366 -8.366 -7.057 -3.5505 -6.184 -4.812 -8.670501 -4.1575 -8.333 -5.2535 -8.337001 -10.3345 -8.5115 
-16.7827 -12.5327 -12.994 -11.2419 -9.84 -9.84 -13.4183 -10.525 -8.366 -11.7303 -7.057 -6.184 -6.184 -8.670501 -8.670501 -8.333 -9.7045 -8.337001 -13.1801 -10.3345 
-16.7827 -16.3822 -16.7399 -14.6879 -9.84 -15.9427 -14.2893 -10.525 -11.7303 -11.7303 -10.7961 -6.184 -9.5655 -8.670501 -13.6334 -9.7045 -12.8994 -13.1801 -13.1801 
