-4.759 
n/a 
n/a 
n/a 
n/a 
-4.759 
n/a 
n/a 
n/a 
n/a 
-4.759 
n/a 
n/a 
n/a 
n/a 
-4.759 
n/a 
n/a 
n/a 
n/a 
-2.3615 -4.461 -2.742 -3.2345 -3.135 -3.8035 -1.934 -3.458 -4.1395 
-8.209001 -6.9835 -4.746 -5.433001 -5.843 -5.0955 -5.207 -7.431001 
-10.564 -9.075001 -7.001 -9.066501 -7.027 -9.032001 -9.295501 
-12.6555 -11.4386 -10.0995 -10.7605 -11.2469 -13.2179 
-15.0191 -14.5371 -11.7935 -14.9804 -15.4328 
-2.3615 -4.461 -3.9355 -1.7695 -3.458 -1.756 -3.737 -3.135 -3.8035 0 
-8.209001 -9.712501 -5.513 -6.380001 -5.906 -5.2025 -6.024 -5.843 -3.8035 
-13.6865 -11.3394 -10.7495 -8.755 -9.8225 -7.3545 -9.762001 -5.843 
-15.3134 -16.5759 -13.1245 -12.9067 -12.0995 -11.1765 -9.762001 
-20.5499 -18.9509 -17.2762 -15.1837 -15.9215 -11.1765 
-3.1495 -4.9085 -2.742 -3.5185 -6.771 -3.458 -2.8965 -4.0245 -4.9085 0 
-6.7625 -7.355 -5.4405 -9.3505 -8.4095 -6.816501 -7.456 -9.083 -4.9085 
-8.610001 -10.259 -10.757 -11.2728 -11.9358 -11.658 -12.7747 -9.083 
-11.6956 -15.5755 -12.6793 -14.7991 -16.7773 -16.9767 -12.7747 
-17.0121 -17.4978 -16.2056 -19.6406 -22.096 -16.9767 
-2.3615 -4.461 -2.742 -3.2345 -3.135 -3.8035 -3.9225 -3.6065 -4.1395 0 
-8.209001 -6.9835 -4.746 -5.433001 -5.843 -6.8855 -6.251 -7.238501 -4.1395 
-10.564 -9.075001 -7.001 -9.066501 -9.554001 -9.4315 -10.044 -7.238501 
-12.6555 -11.4386 -10.0995 -12.8631 -12.2418 -13.2583 -10.044 
-15.0191 -14.5371 -13.8961 -15.5509 -16.0686 -13.2583 
