-4.759 
n/a 
n/a 
n/a 
n/a 
-4.759 
n/a 
n/a 
n/a 
n/a 
-4.759 
n/a 
n/a 
n/a 
n/a 
-4.759 
n/a 
n/a 
n/a 
n/a 
-2.872 0 -3.383 -3.639 -1.7695 -3.135 -3.711 
-2.872 -3.383 -5.513 -4.539 -4.779 -6.2885 
-5.6705 -5.513 -5.7485 -7.328 -8.0645 
-7.776501 -5.7485 -8.441 -10.9219 
-8.121 -8.441 -12.0993 
-2.872 -3.3855 -2.742 -2.674 -3.8315 -2.356 -3.098 -3.7375 
-5.1005 -5.161 -4.275 -5.665 -5.4065 -5.195001 -6.5005 
-7.019001 -6.5415 -7.821001 -6.048 -8.432501 -7.844501 
-8.2775 -9.088501 -8.173 -8.952001 -11.5854 
-11.0839 -9.237 -11.2088 -12.3207 
-2.872 0 -3.135 -4.236 -3.4635 -1.934 -3.639 0 
-2.872 -3.135 -7.221 -8.337 -6.286 -5.5285 -3.639 
-5.309 -7.221 -11.8514 -11.5035 -10.7495 -5.5285 
-9.1125 -11.8514 -15.0179 -15.967 -10.7495 
-13.9735 -15.0179 -19.4814 -15.967 
-2.872 -2.925 -3.251 -3.8315 -2.356 -3.098 -5.6045 0 
-4.5305 -4.617 -6.072001 -5.4065 -5.195001 -8.951 -5.6045 
-6.3805 -7.471 -6.4165 -8.432501 -11.7162 -8.951 
-10.163 -8.073 -9.155001 -15.4571 -11.7162 
-10.8682 -10.7495 -16.2662 -15.4571 
