-4.759 
n/a 
n/a 
n/a 
n/a 
-4.759 
n/a 
n/a 
n/a 
n/a 
-4.759 
n/a 
n/a 
n/a 
n/a 
-4.759 
n/a 
n/a 
n/a 
n/a 
-3.0835 -3.819 -5.112 -3.7865 -3.992 -4.5855 -4.36 -4.3765 -3.9035 -2.7415 -3.9955 -2.3345 -3.598 -1.934 -2.3615 -5.116 -5.4845 0 -11.9815 0 -1.756 -3.074 -3.7555 -1.4985 -4.904 -1.7695 -4.5185 -5.298 -4.987 -3.7865 -3.6 0 
-5.9135 -9.1005 -9.143501 -7.557 -8.631001 -9.606501 -9.509501 -9.217001 -7.1215 -6.356 -5.7745 -5.995 -6.596001 -3.539 -8.972501 -9.456501 -4.2915 -12.6875 -12.6875 -1.756 -4.566 -5.929501 -4.843 -5.831 -5.465 -4.8135 -10.389 -11.1415 -8.645 -7.0305 -3.6 
-10.757 -13.7788 -13.7154 -13.422 -13.9214 -15.1412 -14.531 -12.6556 -9.745501 -6.6305 -10.411 -8.899 -8.503 -10.855 -13.3957 -9.356001 -17.7143 -12.6875 -15.0555 -4.566 -7.544001 -6.935 -8.35 -6.5575 -7.055501 -10.8912 -16.6859 -14.7995 -12.3548 -7.0305 
-15.4353 -18.3507 -19.5804 -18.7124 -19.4561 -20.1627 -17.9696 -15.2796 -9.823 -11.391 -13.315 -11.425 -16.2114 -15.2782 -13.3957 -22.9778 -17.7143 -15.0555 -17.857 -7.544001 -8.410001 -10.7495 -8.971001 -8.2095 -13.5892 -17.1881 -20.3439 -18.5093 -12.3548 
-20.0072 -24.2157 -24.8708 -24.2471 -24.4776 -23.6013 -20.5936 -15.3571 -14.5929 -14.295 -15.841 -19.1334 -20.6346 -15.2782 -27.0175 -22.9778 -20.0823 -17.857 -20.835 -8.410001 -12.4027 -11.3705 -10.361 -14.8782 -19.8861 -20.8461 -24.0537 -18.5093 
-5.0285 -1.4985 -3.0835 -5.509 -5.884 -4.181 -3.4765 -3.7855 -1.4985 -4.36 -4.3765 -3.9035 -1.7695 -3.8475 -1.7565 -3.598 0 -1.934 -2.3615 -5.116 -5.867001 -5.116 0 -14.61 0 -4.518 -3.074 -4.5915 -1.934 -1.4985 -4.759 -1.7565 -3.002 -1.8085 -2.7275 -4.987 -3.7865 -4.005 -1.934 -3.8655 -2.5045 -3.498 -1.7565 -1.4985 -3.158 0 
-7.35 -3.535 -8.2945 -12.3072 -9.506001 -6.584001 -8.054501 -4.709001 -5.1445 -9.509501 -9.217001 -5.9445 -5.786 -4.7705 -5.209 -3.598 -1.934 -3.539 -8.972501 -9.736 -8.057 -5.116 -12.8005 -12.8005 -4.518 -8.198501 -6.892 -7.415 -2.6125 -5.8915 -5.3575 -5.481 -4.4255 -4.324 -8.665501 -8.645 -8.182501 -4.808 -4.9135 -6.561501 -5.620501 -4.005 -2.4195 -4.178 -3.158 
-9.283501 -8.655001 -16.0075 -15.9292 -12.2136 -13.0016 -8.648001 -8.771001 -11.0092 -14.531 -11.4786 -10.647 -7.32 -7.3915 -5.209 -6.596001 -3.539 -10.855 -12.8532 -11.9575 -7.715 -17.5323 -12.1985 -18.2769 -8.198501 -12.4039 -9.941 -8.149 -7.0035 -6.23 -9.361501 -7.253 -6.423 -10.5975 -12.4367 -13.5068 -8.8255 -7.677001 -7.196 -10.1 -5.7345 -4.3765 -4.4755 -4.178 
-14.4703 -16.8924 -19.6295 -18.6368 -18.6312 -13.5951 -12.779 -14.8471 -16.0307 -16.7926 -16.1811 -12.181 -9.013 -7.3915 -8.5725 -8.503 -10.855 -14.7357 -13.3992 -9.359501 -20.4426 -17.6181 -18.3627 -22.2316 -12.4039 -15.4529 -10.7436 -12.8208 -7.271 -10.167 -11.4975 -9.506001 -12.9153 -14.3687 -17.2985 -14.1498 -11.8665 -9.772 -10.634 -10.183 -7.02 -5.59 -4.4755 
-22.7077 -20.5144 -22.3371 -25.0544 -19.2247 -17.7261 -18.8551 -19.8686 -18.2923 -21.4951 -17.7151 -13.874 -9.013 -12.913 -10.4505 -16.2114 -14.7357 -15.2817 -13.3992 -21.9471 -20.4426 -23.6965 -22.2316 -26.437 -15.4529 -16.2555 -15.4154 -13.0883 -11.4322 -12.5498 -13.7505 -16.1215 -16.6865 -19.2305 -17.9415 -17.1908 -13.9615 -13.2168 -10.717 -11.5969 -7.6375 -5.59 
-3.0835 -5.0285 -5.509 -5.6475 -3.992 -4.221 -4.36 -4.3765 -3.9795 -1.7695 -3.8475 -1.7565 -3.598 0 -4.138 -5.116 
-8.335 -11.6633 -12.0707 -10.784 -9.082001 -8.318501 -9.509501 -10.1 -5.853001 -5.786 -4.7705 -5.209 -3.598 -4.138 -10.3545 
-15.3782 -18.225 -17.2072 -15.874 -13.2725 -14.0048 -15.414 -11.9735 -10.0815 -7.32 -7.3915 -5.209 -9.124001 -10.3545 
-21.9399 -23.3615 -22.2972 -20.0645 -18.9588 -19.9093 -17.2875 -16.202 -12.0927 -9.013 -7.3915 -11.4668 -15.3611 
-27.0764 -28.4515 -26.4877 -25.7508 -24.8633 -21.7828 -21.516 -18.2132 -13.7857 -9.013 -15.8073 -17.7039 
-4.426 -1.7565 -1.4985 -3.0835 -4.7285 -4.1555 -3.147 0 
-5.47 -2.4195 -3.535 -6.042 -8.4455 -5.77 -3.147 
-5.9535 -4.6785 -6.335501 -9.523001 -9.541501 -5.77 
-8.021 -7.476501 -10.0095 -10.7035 -9.541501 
-9.983001 -11.3061 -11.3 -10.7035 
