-4.759 
n/a 
n/a 
n/a 
n/a 
-4.759 
n/a 
n/a 
n/a 
n/a 
-4.759 
n/a 
n/a 
n/a 
n/a 
-4.759 
n/a 
n/a 
n/a 
n/a 
-1.4985 -4.445 -5.5635 -1.4985 -4.432 -4.328 -1.756 -3.091 -4.373 0 
-5.0495 -7.452001 -6.9065 -5.268001 -4.899 -5.789 -4.2995 -6.539001 -4.373 
-7.9445 -8.447001 -8.361501 -5.504 -6.1825 -7.2235 -7.7755 -6.539001 
-8.485001 -10.272 -8.3645 -6.579 -7.5955 -9.3975 -7.7755 
-10.3334 -10.275 -8.722 -7.7755 -10.5325 -9.3975 
-1.4985 -4.432 -4.328 -1.756 -1.4985 -4.645 -3.499 -1.7565 -1.4985 -4.698 -2.186 -4.648 -2.3345 -1.4985 -7.195 -4.9405 
-5.268001 -4.899 -5.789 -3.0405 -6.227 -6.5045 -4.306 -2.4195 -5.740001 -6.544001 -6.078 -5.442 -3.233 -8.0085 -12.8075 
-5.504 -6.1825 -6.612 -7.6755 -7.417001 -7.072001 -4.5175 -6.387001 -7.474 -9.772 -6.6695 -5.5955 -9.316501 -14.0744 
-6.579 -7.03 -10.27 -8.9725 -7.6765 -7.256001 -7.533 -8.321501 -10.2535 -10.2255 -6.7535 -10.292 -15.464 
-7.184501 -10.476 -11.567 -9.254001 -7.820001 -9.104001 -9.9315 -10.5975 -10.5125 -10.339 -11.6868 -16.4395 
-4.432 -4.328 0 -5.0075 -2.4945 -4.648 -2.3345 -5.189 
-4.899 -4.328 -5.0075 -6.714 -6.1895 -5.442 -7.660501 
-4.899 -7.9645 -6.714 -8.406 -6.574501 -8.969501 
-8.2535 -9.661 -8.406 -8.578501 -9.838 
-10.142 -10.5455 -8.578501 -12.6224 
-4.432 -6.28 -1.756 -2.985 -4.4095 -3.5435 -3.917 -2.3345 -1.4985 -4.445 0 
-7.349501 -7.7695 -4.2025 -7.147501 -7.72 -7.947001 -5.3355 -3.233 -5.0495 -4.445 
-8.721001 -10.1855 -7.467 -10.7025 -12.6397 -9.325001 -5.7085 -5.9185 -5.0495 
-11.3806 -13.7534 -11.1756 -15.6222 -14.0177 -9.6685 -8.290001 -5.9185 
-14.9485 -17.462 -16.0953 -17.0002 -14.3612 -12.3774 -8.290001 
