-4.759 
n/a 
n/a 
n/a 
n/a 
-4.759 
n/a 
n/a 
n/a 
n/a 
-4.759 
n/a 
n/a 
n/a 
n/a 
-4.759 
n/a 
n/a 
n/a 
n/a 
-1.4985 -4.5665 -3.468 -3.152 -2.5685 -3.7875 -1.4985 -3.046 -4.519 
-5.3025 -7.816501 -6.2205 -5.2465 -6.6855 -5.007 -4.5205 -6.9185 
-8.802 -9.9975 -8.6415 -8.0675 -7.775 -8.513 -8.821501 
-11.4038 -12.4185 -11.5645 -9.243 -11.7754 -13.0706 
-13.8248 -15.3415 -12.74 -13.5478 -16.333 
-1.934 -3.1495 -6.403 -3.959 0 -4.4715 -2.5685 -1.4985 -4.248 -3.1385 -3.7555 -4.077 -1.934 -4.219 0 -3.5905 -3.6085 -3.2895 -1.756 -3.2015 -2.0935 -4.4225 -4.9295 -4.7195 
-4.5395 -10.2865 -11.9058 -3.959 -4.4715 -7.0795 -3.7015 -5.2845 -7.906 -6.461 -6.3905 -4.43 -6.5445 -4.219 -3.5905 -6.0135 -6.9895 -4.799 -4.5895 -4.357 -6.231 -9.323 -10.8528 
-12.1511 -15.5769 -11.9058 -7.616 -7.0795 -8.104 -7.6945 -9.052501 -11.5433 -8.3725 -6.7805 -8.4515 -6.5445 -8.995001 -6.0135 -9.9693 -9.545501 -8.0965 -5.6815 -7.849 -11.8565 -15.3869 
-17.4415 -15.5769 -15.5628 -10.842 -8.104 -12.3078 -11.7603 -12.952 -13.4548 -8.8915 -11.0982 -8.4515 -11.8787 -11.6262 -9.9693 -12.5253 -13.035 -8.814 -9.1485 -14.0635 -17.9204 
-17.4415 -19.2339 -18.7888 -11.8665 -12.3078 -16.3736 -15.6598 -14.8635 -13.9738 -13.2832 -11.0982 -14.3617 -14.5099 -15.582 -12.5253 -16.0148 -13.7525 -10.244 -15.4976 -20.1274 
-3.1495 -3.4225 -4.39 -2.8645 -3.7555 -1.4985 -4.219 -3.9955 -2.356 -1.4985 -4.248 -1.7565 -1.4985 -3.1385 -1.934 -1.4985 -4.5735 -3.6085 -3.1385 -2.356 -1.4985 -5.222 -3.6825 -3.2295 -3.0365 0 
-6.9615 -4.7525 -6.701 -5.647 -4.843 -5.129 -6.1235 -6.45 -3.1615 -5.2845 -4.8235 -2.4195 -4.2575 -4.522 -2.6125 -5.271 -7.8355 -6.699 -4.608 -3.1615 -5.7925 -5.799 -6.6775 -5.5585 -3.0365 
-8.912001 -6.842 -9.892 -6.856 -9.204 -6.9425 -8.475 -7.1075 -6.8455 -5.6755 -5.922 -5.013 -5.28 -5.087501 -6.335 -8.6055 -11.4482 -8.7085 -6.06 -7.3555 -6.1695 -9.035501 -8.682 -5.5585 
-11.2327 -10.034 -10.6015 -10.749 -11.1367 -9.3415 -9.189501 -11.3485 -7.143001 -6.559 -7.9805 -6.1235 -6.079 -8.761001 -9.341001 -12.4038 -13.4577 -9.894 -10.513 -7.739501 -9.246 -11.3276 -8.682 
-14.4247 -10.6025 -14.4945 -12.6817 -13.5357 -9.8345 -13.6147 -11.646 -8.210001 -8.153001 -9.5905 -6.642 -9.811501 -12.1322 -13.5177 -14.4133 -14.6432 -14.347 -10.897 -10.3885 -11.5453 -11.3276 
-2.5685 -3.1495 -3.959 -3.251 -4.519 -1.7695 -4.7995 -2.5685 -1.4985 -3.1385 -4.1545 -2.0935 -1.4985 -3.2895 -1.7565 -5.054 -4.065 -1.756 -3.2015 -2.0935 -3.9675 -4.877 -3.074 -4.938 -5.0365 
-4.8995 -5.772 -6.652 -8.2275 -6.3125 -5.770501 -6.868001 -3.7015 -4.2575 -7.364501 -5.2635 -2.9725 -4.862 -4.9075 -6.562 -9.3655 -5.851 -4.5895 -4.357 -7.3215 -10.958 -8.168 -6.831 -7.0195 
-7.421 -8.0205 -11.8911 -9.915501 -10.6215 -7.397001 -7.765501 -5.7305 -8.8405 -8.689001 -5.853 -6.205 -5.246 -10.0575 -11.5311 -11.3943 -9.969501 -5.6815 -9.915501 -15.1048 -14.249 -12.1058 -8.938001 
-9.4835 -13.3608 -13.5791 -14.1209 -12.248 -8.2685 -9.382001 -10.298 -9.797501 -9.314501 -7.3035 -6.328 -10.2035 -15.0266 -13.5599 -15.5128 -11.3991 -11.8222 -17.4714 -18.3958 -18.1868 -14.2128 
-14.8188 -15.0488 -17.7845 -15.7474 -13.1195 -9.771501 -14.0827 -11.255 -10.2785 -10.5235 -7.4605 -11.6803 -15.1726 -17.0554 -17.6784 -16.9424 -17.5398 -19.3781 -20.7624 -22.3336 -20.2938 
