-4.759 
n/a 
n/a 
n/a 
n/a 
-4.759 
n/a 
n/a 
n/a 
n/a 
-4.759 
n/a 
n/a 
n/a 
n/a 
-4.759 
n/a 
n/a 
n/a 
n/a 
-2.9805 -2.186 -4.1685 -3.2015 -2.0935 -1.4985 -3.8935 -4.8945 -2.5195 -2.8965 -4.048 -4.064 -1.7565 -5.3525 -2.264 -4.9655 -4.8945 
-4.1635 -5.75 -7.064001 -4.357 -2.9725 -4.9325 -8.059 -7.7255 -4.786 -5.153501 -7.781001 -4.3045 -6.5905 -5.4735 -6.606 -7.8525 
-7.22 -8.8575 -8.519001 -5.1745 -5.877 -9.986401 -11.6192 -9.679001 -6.035 -9.2355 -7.971001 -6.8395 -6.6695 -8.854501 -8.2495 
-10.6095 -9.822001 -9.2285 -8.2355 -11.4917 -13.5466 -13.5727 -11.5094 -9.637501 -9.5605 -9.651001 -6.899 -9.647 -10.6345 
-11.589 -10.637 -12.3395 -13.8916 -15.0519 -15.5001 -15.4031 -15.1119 -9.8505 -11.2721 -9.731001 -10.2425 -11.5694 
-4.567 -4.8685 -2.264 -4.9655 -3.264 -1.756 -4.2635 -4.236 
-8.517 -4.9965 -6.606 -9.303501 -4.919 -5.636 -8.555 
-8.629001 -8.766001 -11.749 -11.1461 -8.7665 -10.1635 
-12.5795 -13.985 -13.5916 -14.9936 -13.8082 
-17.7985 -15.8276 -17.4391 -20.0353 
-2.9805 -4.298 -3.091 -4.7815 -2.0935 -4.26 -4.6705 -4.048 -1.7695 -4.9655 -5.0015 0 
-6.9045 -7.0185 -6.7175 -6.8 -5.646501 -8.2325 -7.291 -5.8385 -7.216001 -8.797501 -5.0015 
-7.951001 -11.4062 -8.594501 -10.647 -9.488501 -9.3815 -8.974501 -12.0452 -11.359 -8.797501 
-12.5307 -13.2832 -12.6427 -14.489 -10.7325 -11.4748 -15.3968 -16.1882 -11.359 
-14.4077 -17.3314 -16.4847 -15.733 -12.8258 -17.8971 -19.5398 -16.1882 
-2.9805 -3.074 -4.168 -3.959 -1.934 -2.688 -3.638 -4.048 -1.7695 -4.2065 -5.214 -5.144 -2.264 -4.9655 -3.9185 
-4.8805 -6.1765 -8.623001 -5.039 -4.282 -5.807 -5.7875 -5.8385 -4.563 -7.9 -7.947501 -5.6865 -6.606 -7.028 
-7.911 -10.459 -9.045001 -6.761 -7.5 -7.414001 -7.376501 -7.815001 -7.7225 -11.618 -7.72 -7.346 -7.4 
-12.5369 -10.702 -11.0188 -8.629001 -8.871 -8.858001 -8.746 -9.663501 -8.484 -8.2165 -8.96 -7.6885 
-12.7799 -12.6758 -12.8868 -9.6495 -9.875501 -9.852501 -9.683001 -10.373 -8.496 -9.195001 -8.949 
