-4.759 
n/a 
n/a 
n/a 
n/a 
-4.759 
n/a 
n/a 
n/a 
n/a 
-4.759 
n/a 
n/a 
n/a 
n/a 
-4.759 
n/a 
n/a 
n/a 
n/a 
-4.455 -2.186 -1.8085 -4.936 -3.355 -1.7565 -7.2955 
-6.646001 -3.164 -7.6285 -5.4605 -3.725 -8.142 
-7.711501 -8.512501 -8.126 -5.481 -10.8249 
-13.2738 -8.672501 -8.1565 -12.9507 
-13.4338 -8.688001 -15.8172 
-4.455 -2.186 -4.1205 -2.5045 -1.4985 -3.699 -3.9825 -1.934 -4.698 0 
-6.646001 -5.007 -5.3175 -3.583 -5.264 -5.406 -4.624 -5.902 -4.698 
-9.6745 -6.317 -6.431 -7.596 -6.385 -5.6055 -8.929001 -5.902 
-11.4335 -7.1455 -9.543 -8.697001 -8.616 -10.532 -8.929001 
-12.262 -10.142 -10.6746 -11.07 -13.5817 -10.532 
-3.3855 -2.186 -4.1205 -2.5045 -3.301 -2.871 0 -5.7975 
-4.4785 -5.007 -5.3175 -5.116 -5.5955 -2.871 -5.7975 
-7.4665 -6.317 -7.954 -8.578501 -5.5955 -8.6425 
-8.9755 -8.9445 -11.2133 -8.578501 -11.622 
-11.7708 -12.3004 -11.2133 -14.8774 
-4.455 -2.186 -3.699 -3.355 -1.7565 -4.698 
-6.646001 -4.636 -5.462 -3.725 -5.5475 
-10.341 -8.2895 -5.5585 -8.604501 
-13.9945 -8.416 -10.1545 
-14.121 -12.9278 
