-4.759 
n/a 
n/a 
n/a 
n/a 
-4.759 
n/a 
n/a 
n/a 
n/a 
-4.759 
n/a 
n/a 
n/a 
n/a 
-4.759 
n/a 
n/a 
n/a 
n/a 
-1.934 -7.5075 0 -4.518 -3.7455 -3.641 -1.7565 -1.4985 -4.698 0 -4.156 -4.1585 -4.0375 0 
-8.632501 -7.5075 -4.518 -4.659 -6.9195 -5.198501 -2.4195 -5.740001 -4.698 -4.156 -5.718 -8.191 -4.0375 
-8.632501 -12.5629 -4.659 -8.5535 -9.311001 -5.768001 -6.387001 -5.740001 -8.653001 -5.718 -10.176 -8.191 
-13.8571 -12.7039 -8.5535 -11.7616 -9.909 -9.6315 -6.387001 -9.9975 -10.0965 -10.176 -10.176 
-13.9981 -16.5984 -11.7616 -12.3596 -13.8439 -9.6315 -10.5035 -11.5126 -14.5823 -10.176 
-4.915 -6.741 -3.401 -3.641 -3.7575 -1.7565 -4.698 -3.0365 -2.186 -4.518 -3.7455 0 
-10.802 -9.8855 -7.2475 -5.455501 -4.4575 -5.5475 -7.491001 -3.66 -7.198501 -4.659 -3.7455 
-13.9465 -13.9996 -8.436001 -6.054501 -8.915501 -8.252001 -8.0395 -9.272 -8.609 -4.659 
-18.0606 -15.1881 -8.5345 -10.3745 -11.8344 -8.8105 -13.8067 -9.666501 -8.609 
-19.2491 -15.2866 -13.4443 -13.6054 -12.3929 -14.6785 -14.2012 -9.666501 
-1.934 -8.64 -4.698 -3.502 -4.518 -3.7455 0 -3.8385 -3.4425 0 
-11.5804 -13.5292 -8.041 -9.0765 -4.659 -3.7455 -3.8385 -5.629 -3.4425 
-16.4696 -16.8722 -14.7901 -9.1835 -4.659 -7.9795 -5.629 -5.629 
-19.8126 -23.6213 -14.8971 -9.1835 -8.258 -9.941 -5.629 
-26.5617 -23.7283 -14.8971 -13.4505 -11.1721 -9.941 
-19.575 -3.7455 0 -3.8385 -3.7455 -1.7565 -1.4985 -4.726 -3.2 0 -2.9705 -2.186 -2.264 -1.4985 -3.641 -1.7565 -4.698 -1.934 -7.58 0 
-18.9775 -3.7455 -3.8385 -8.493501 -4.7725 -2.4195 -5.6165 -6.1545 -3.2 -2.9705 -3.89 -4.293 -2.9195 -4.644 -5.198501 -5.5475 -6.177001 -8.1075 -7.58 
-19.1531 -7.9795 -8.493501 -9.962001 -5.8215 -6.279 -6.5335 -6.1545 -5.3775 -3.89 -6.344 -4.966 -5.576 -6.088 -9.405001 -6.946 -13.3053 -8.1075 
-23.5817 -13.3865 -9.962001 -10.679 -8.271501 -7.1445 -6.5335 -8.194 -6.123 -6.344 -6.68 -7.363 -7.719 -10.4585 -11.2087 -14.1457 -13.3053 
-29.9413 -14.855 -10.679 -13.129 -10.4765 -7.1445 -8.628 -8.848001 -8.7885 -6.68 -8.576501 -9.375 -12.1917 -12.2622 -18.4084 -14.1457 
