-4.759 
n/a 
n/a 
n/a 
n/a 
-4.759 
n/a 
n/a 
n/a 
n/a 
-4.759 
n/a 
n/a 
n/a 
n/a 
-4.759 
n/a 
n/a 
n/a 
n/a 
-8.27 -2.674 -1.4985 -6.9985 -3.6885 -5.1845 -2.5045 -2.985 -4.121 -5.0485 -2.9705 -2.186 -4.263 -1.934 -2.645 -3.1575 -3.2495 -4.6945 -3.158 -3.5905 -6.1945 -1.756 -4.245 0 
-9.986501 -3.998 -7.8605 -8.377501 -7.816501 -8.093 -5.065001 -6.031 -6.243001 -7.443501 -3.89 -6.065001 -5.619 -4.899 -3.72 -5.224 -5.97 -6.795001 -4.382 -9.602 -7.5315 -5.618 -4.245 
-11.3105 -11.0014 -9.048 -10.199 -10.404 -9.673 -7.568501 -7.172501 -8.636001 -8.2145 -7.487 -6.3765 -8.820001 -5.348001 -5.3995 -7.1945 -7.9325 -7.262001 -10.8877 -11.3666 -10.468 -5.618 
-18.3139 -12.1889 -10.5435 -12.7865 -11.984 -10.149 -7.9125 -9.3675 -9.212501 -11.9393 -7.575 -9.752001 -9.6105 -6.9635 -7.2825 -9.920501 -8.1495 -14.2453 -12.6523 -14.3031 -10.468 
-19.5014 -13.6844 -13.131 -14.3665 -12.46 -10.177 -10.031 -9.8795 -12.9701 -12.0273 -11.0955 -10.2115 -11.4822 -9.137 -9.932501 -10.2475 -15.322 -16.0099 -15.5888 -14.3031 
-12.16972 -2.674 -2.985 -4.121 -5.0485 -3.6885 -2.5045 -5.1845 -2.9705 -2.186 -2.645 -1.7695 -4.6945 -3.158 -4.2045 -1.756 -2.4265 -4.6805 -1.7565 -6.05 -2.9705 -2.186 -3.074 -3.6955 -3.9485 -2.356 -2.4265 0 
-14.84372 -5.042 -6.031 -6.243001 -7.966001 -6.077001 -8.208 -8.8625 -3.89 -4.528 -4.9005 -7.6545 -6.795001 -6.795501 -5.816 -3.949 -5.954 -4.722 -7.662001 -8.719 -3.89 -4.156 -6.136 -5.815001 -4.311 -4.606501 -2.4265 
-17.21172 -8.5955 -7.172501 -8.078001 -10.1035 -10.733 -12.0962 -9.4305 -5.9515 -6.2505 -11.4185 -9.534 -11.3847 -7.8595 -7.955 -7.634501 -6.0135 -11.2785 -10.0125 -10.0545 -5.816 -9.303 -8.4975 -6.803 -6.2625 -4.606501 
-20.76522 -10.4265 -9.363001 -10.1545 -14.8353 -14.6212 -12.6642 -11.5386 -8.676001 -13.0329 -13.298 -14.5427 -12.4487 -9.953501 -11.9787 -7.726501 -12.8428 -13.629 -11.4878 -11.9805 -11.1388 -11.7083 -9.144 -7.901 -6.2625 
-22.59622 -12.617 -11.5135 -14.8745 -18.7235 -15.1892 -14.7723 -14.2631 -16.0218 -14.9124 -18.3067 -15.6067 -14.5427 -13.94 -12.0707 -14.5722 -15.1933 -15.1043 -13.4138 -17.3033 -13.5441 -12.3548 -10.5135 -7.901 
-8.27 -2.674 -2.645 -3.1575 -3.533 -3.277 -1.7565 -4.263 -4.953 -1.756 -4.245 -4.6555 -5.1845 -2.5045 -2.985 -4.121 -5.0485 0 
-9.986501 -4.9565 -3.72 -6.454 -6.4985 -4.296 -6.0955 -9.599501 -5.9905 -5.618 -9.809 -11.1308 -8.093 -5.065001 -6.031 -6.243001 -5.0485 
-12.269 -5.604 -6.692 -7.7145 -7.305501 -8.1155 -11.9186 -10.545 -8.5415 -11.5156 -16.5057 -14.0393 -9.673 -7.568501 -7.172501 -6.243001 
-12.9165 -8.417 -7.7445 -8.8555 -10.5865 -14.639 -12.8641 -13.096 -14.6627 -18.2123 -19.4142 -15.6193 -10.149 -7.9125 -7.172501 
-15.7295 -10.757 -8.871 -12.4143 -17.11 -15.5845 -15.4151 -19.2172 -21.3594 -21.1208 -20.9942 -16.0953 -10.177 -7.9125 
-7.771 0 -5.1575 0 -5.771 0 -6.9985 -3.6885 -5.1845 -2.9705 -2.186 -4.2045 -3.1575 -3.2495 -4.6945 -3.277 -2.186 -1.4985 -4.121 -5.0485 -1.7565 -8.27 
-7.771 -5.1575 -5.1575 -5.771 -5.771 -6.9985 -8.377501 -7.816501 -8.8625 -3.89 -6.352 -5.592 -5.224 -5.97 -5.913001 -5.6775 -3.339 -5.189 -6.243001 -6.717 -9.440001 
-13.6475 -5.1575 -11.9539 -5.771 -13.7989 -8.377501 -10.199 -10.75 -9.4305 -8.0625 -6.5965 -7.799 -7.1945 -6.7335 -8.014501 -6.8105 -6.504 -7.125501 -7.619 -15.0597 
-13.6475 -11.9539 -11.9539 -13.7989 -15.1779 -10.199 -13.1325 -11.318 -13.6496 -8.29 -8.852501 -10.674 -7.826001 -8.93 -9.2115 -9.619 -8.263 -7.8605 -16.4769 
-20.4439 -11.9539 -19.9818 -15.1779 -16.9994 -13.1325 -13.7005 -15.5371 -13.8771 -10.647 -12.0353 -10.741 -10.1895 -9.92 -12.0936 -11.8806 -8.3995 -17.1512 
