-4.759 
n/a 
n/a 
n/a 
n/a 
-4.759 
n/a 
n/a 
n/a 
n/a 
-4.759 
n/a 
n/a 
n/a 
n/a 
-4.759 
n/a 
n/a 
n/a 
n/a 
-3.2615 -1.4985 -3.498 -1.7565 -4.2875 -3.8275 -1.756 -4.948 -4.0375 -4.87 -3.676 -4.3195 -1.4985 -6.079 0 
-4.032 -4.0295 -4.005 -5.889501 -5.364501 -5.1855 -6.7125 -5.375 -9.436001 -9.9305 -7.579 -5.1515 -7.427501 -6.079 
-5.903501 -4.188 -8.188001 -7.076001 -6.680501 -8.949 -7.6965 -11.6133 -14.5403 -14.1471 -8.316501 -10.1635 -7.427501 
-5.923 -8.400001 -8.294001 -8.661501 -9.248501 -10.2645 -14.1338 -16.7176 -18.7569 -14.8846 -13.5873 -10.1635 
-9.284 -8.500501 -9.35 -11.2613 -10.486 -16.7018 -19.2381 -20.9342 -19.4944 -20.1554 -13.5873 
-3.034 -1.4985 -3.8275 -4.0555 -1.7695 -2.664 -3.498 -4.948 -4.0375 -4.4195 -3.539 -1.756 -3.676 -4.3195 -1.4985 -4.7195 -3.59 -2.264 -1.4985 -3.962 0 
-3.947 -4.726 -7.198 -4.7475 -4.185 -5.1155 -9.1 -5.375 -8.9715 -5.7145 -4.867001 -5.918 -7.579 -5.1515 -6.661 -9.043 -6.0415 -2.9195 -4.324 -3.962 
-6.7535 -7.609 -7.6935 -6.349 -5.6315 -11.5195 -10.3545 -10.341 -10.451 -7.0135 -9.427001 -8.745501 -8.316501 -10.575 -11.8831 -11.7491 -6.5845 -5.726 -4.324 
-8.228001 -8.1995 -8.047 -6.4995 -11.8935 -12.774 -15.6301 -11.8205 -12.0684 -12.0545 -12.4535 -9.838 -13.9988 -16.3179 -14.5892 -12.2921 -8.7425 -5.726 
-8.916 -8.546 -8.104 -13.1747 -13.148 -18.0496 -17.1096 -13.4379 -17.1094 -15.081 -13.546 -15.5203 -19.7417 -19.024 -15.1322 -14.4501 -8.7425 
-1.4985 -3.498 -1.7565 -4.2875 -3.8275 -1.756 -1.4985 -4.8475 -1.7565 -5.549 0 -4.0375 -1.7565 -4.948 -5.2645 -6.057 0 -3.43 -3.676 -1.8085 -4.0415 -3.519 0 
-4.0295 -4.005 -5.889501 -5.364501 -5.1855 -3.0405 -5.757501 -5.6715 -7.527501 -5.549 -4.0375 -5.415501 -6.2605 -6.851501 -7.0025 -6.057 -3.43 -7.145 -5.876 -5.514 -6.476 -3.519 
-4.188 -8.188001 -7.076001 -6.680501 -6.0845 -7.049 -5.8545 -8.8125 -7.527501 -8.465 -5.415501 -7.0105 -7.022501 -7.02 -7.0025 -9.526501 -7.145 -8.232 -9.686001 -8.027 -6.476 
-8.400001 -8.294001 -8.661501 -7.232 -8.3625 -7.087 -8.993501 -8.8125 -10.5325 -8.566 -7.0105 -7.0325 -7.038 -7.02 -10.647 -13.4383 -8.232 -12.6776 -12.2538 -8.027 
-8.500501 -9.35 -9.533001 -8.534 -8.366 -10.3616 -8.993501 -12.0691 -10.6335 -8.6615 -7.0325 -7.0455 -7.038 -10.66 -14.5588 -14.5253 -12.6776 -15.2454 -12.2538 
-3.2615 -1.4985 -4.2875 -3.8275 -4.0555 -1.7695 -1.756 -3.498 -1.756 -1.4985 -4.948 -4.0375 -5.4015 0 -2.4265 -4.3195 -3.908 -2.3335 -3.894 -2.4265 -2.7415 -1.4985 -2.985 -2.229 -2.9705 -2.186 -1.4985 -3.399 -4.0385 -3.519 
-4.032 -5.225 -5.364501 -7.198 -4.7475 -4.6875 -5.2565 -5.389 -3.0405 -5.4175 -5.375 -7.689001 -5.4015 -2.4265 -5.45 -6.143 -5.017 -6.257 -6.0455 -3.681 -4.063 -4.1115 -3.482 -5.875 -3.89 -3.339 -4.428 -7.7745 -6.646 
-7.198 -5.724501 -8.556001 -7.6935 -7.811 -7.7625 -7.636001 -6.453 -6.653 -5.654 -7.7035 -7.689001 -7.5845 -5.45 -6.286 -6.3765 -9.391001 -8.642 -6.959001 -4.946 -7.311 -4.1465 -6.978 -6.6775 -5.027 -5.852 -8.368 -9.465501 
-7.2815 -8.571501 -8.7635 -10.513 -8.754001 -8.726501 -8.710501 -9.9835 -6.7825 -7.7215 -7.7035 -9.4615 -9.7095 -6.286 -6.449 -10.757 -12.3214 -9.591001 -8.278501 -8.156 -7.3605 -7.028 -7.8125 -7.769 -7.3985 -9.525001 -9.972 
-10.2035 -8.775001 -12.1806 -10.559 -9.822001 -9.646001 -12.3528 -10.1595 -9.1965 -7.7215 -9.469001 -10.5445 -10.2725 -6.449 -10.8399 -13.6874 -13.2704 -10.9235 -11.6633 -8.214001 -9.802501 -7.8725 -8.922501 -10.322 -11.1507 -11.3476 
