-4.759 
n/a 
n/a 
n/a 
n/a 
-4.759 
n/a 
n/a 
n/a 
n/a 
-4.759 
n/a 
n/a 
n/a 
n/a 
-4.759 
n/a 
n/a 
n/a 
n/a 
-4.138 -1.7565 -3.432 -3.64 0 -3.956 -1.4985 -2.8965 -3.64 0 -1.756 -3.853 0 -4.315 -1.7565 -3.881 -3.686 -1.756 -3.818 -8.2995 0 
-5.1845 -5.5975 -6.837501 -3.64 -3.956 -5.458 -3.928 -5.858 -3.64 -1.756 -5.415 -3.853 -4.315 -5.0275 -5.6265 -7.4515 -5.359 -5.2945 -13.3473 -8.2995 
-9.781 -10.316 -6.837501 -8.0965 -5.458 -8.66 -7.025001 -5.858 -5.2805 -5.415 -5.415 -9.31 -5.0275 -10.459 -9.313001 -8.705001 -8.936501 -15.0988 -13.3473 
-14.5943 -10.316 -11.8678 -9.892 -8.66 -11.8662 -7.025001 -7.6195 -8.918 -5.415 -12.1454 -10.6415 -10.459 -14.1455 -10.376 -12.7463 -18.8928 -15.0988 
-14.5943 -15.3463 -13.6633 -13.094 -11.8662 -11.8662 -8.499001 -10.5425 -8.918 -12.1454 -13.4769 -16.073 -14.1455 -15.2085 -14.4173 -22.7026 -18.8928 
-3.436 -1.4985 -4.1035 -1.7565 -3.44 -1.756 -2.988 0 -2.8965 -4.753 -3.2775 -2.5045 -3.3885 -4.0415 -4.239 -1.756 -1.4985 -5.877 -4.239 -3.152 -3.2955 -1.7695 -4.929 -3.8755 -3.682 -2.5195 -1.8085 -3.5495 
-4.213 -5.0955 -5.0635 -5.925001 -5.5375 -5.7465 -2.988 -2.8965 -6.619 -6.467 -3.678 -6.4585 -5.612 -5.991 -5.791501 -3.0405 -7.064 -7.875 -7.575001 -5.165 -3.9425 -5.3025 -8.216001 -6.4895 -5.3225 -3.8815 -5.207 
-7.079 -5.2255 -9.317501 -7.189001 -6.964 -5.7465 -7.967501 -6.619 -7.694 -6.481 -7.035 -8.0655 -6.394 -7.7885 -6.731 -8.565001 -8.373 -10.634 -9.0515 -5.6155 -6.7405 -8.423 -9.099501 -8.078501 -6.599 -6.6495 
-7.118001 -9.510501 -10.3685 -9.254001 -6.964 -9.85 -9.653001 -7.694 -7.701 -9.293501 -8.177501 -8.5515 -8.154 -8.8645 -10.6875 -10.3885 -10.6875 -10.7235 -9.716001 -9.002501 -9.599 -9.319501 -9.6505 -8.97 -8.229 
-10.6205 -10.4605 -10.7 -9.254001 -10.5975 -10.5565 -10.506 -7.701 -10.2805 -9.428 -8.6675 -10.131 -9.4495 -10.688 -10.7115 -10.7295 -10.726 -10.7485 -10.706 -10.6605 -10.5765 -10.061 -10.095 -10.543 
-3.17 -1.7565 -1.4985 -3.609 -2.674 -3.4635 -3.853 0 -1.756 -3.64 0 -4.048 0 -4.569 0 -2.8965 -3.4095 -2.0935 -6.969 -1.7565 -4.2115 
-4.179 -2.4195 -5.4575 -6.0535 -6.976501 -6.554 -3.853 -1.756 -6.168 -3.64 -4.048 -4.048 -4.569 -4.569 -2.8965 -5.561 -5.3135 -8.66 -7.2145 -5.9335 
-4.497 -6.071001 -7.498 -10.341 -10.4006 -6.554 -5.5515 -6.168 -6.168 -8.646501 -4.048 -7.633 -4.569 -8.021501 -5.561 -7.815001 -12.299 -8.891001 -10.233 
-7.3545 -7.943501 -11.9001 -13.7651 -10.4006 -8.8675 -9.8785 -6.168 -11.9461 -8.646501 -7.633 -7.633 -8.021501 -9.995001 -7.815001 -15.0939 -12.53 -12.0565 
-8.841001 -12.3124 -15.3242 -13.7651 -12.7141 -13.7953 -9.8785 -11.9461 -11.9461 -12.4927 -7.633 -12.2489 -9.995001 -12.854 -15.0939 -15.3249 -15.6955 
-3.17 -5.7745 -2.674 -4.2315 -1.4985 -3.4095 -1.7695 -2.8965 -4.023 -3.16 -3.64 0 -3.3885 -3.853 0 -3.534 -3.682 0 -4.1475 -1.756 -2.8965 -3.16 -3.47 0 
-8.6675 -8.283001 -6.948 -5.7375 -5.0055 -4.448 -4.497 -6.5255 -8.2305 -4.892 -3.64 -3.3885 -6.394 -3.853 -3.534 -5.861 -3.682 -4.1475 -5.21 -3.751 -5.554501 -5.6755 -3.47 
-10.2435 -12.9614 -9.317 -9.689501 -6.007501 -5.399 -8.661 -10.2925 -9.382501 -4.892 -6.9415 -6.394 -6.394 -7.011001 -5.861 -5.861 -8.705501 -5.21 -7.1745 -6.4865 -7.173501 -5.6755 
-15.0751 -15.3304 -13.3846 -10.6895 -7.653 -10.5535 -12.6762 -11.5875 -9.382501 -8.019501 -9.933001 -6.394 -10.7025 -8.154501 -5.861 -11.5723 -9.464001 -7.1745 -10.628 -8.276501 -7.173501 
-17.4441 -19.398 -14.3846 -12.335 -12.8753 -14.5687 -13.9712 -11.5875 -12.796 -10.4185 -9.933001 -10.7025 -11.846 -8.154501 -11.5723 -12.3308 -11.6289 -10.628 -12.418 -8.276501 
