-4.759 
n/a 
n/a 
n/a 
n/a 
-4.759 
n/a 
n/a 
n/a 
n/a 
-4.759 
n/a 
n/a 
n/a 
n/a 
-4.759 
n/a 
n/a 
n/a 
n/a 
-2.264 -3.609 -4.642 -10.2505 -6.5395 -4.9345 -12.16972 -2.264 -2.3615 -3.6515 -1.4985 -4.297 -2.7415 -3.6515 -3.3155 -4.889 -3.228 -4.4825 -1.934 -4.297 -1.756 -2.998 -9.249001 -3.152 -4.493 -1.756 -3.454 -3.152 -4.874 
-5.256001 -6.665501 -15.9589 -16.79 -12.0348 -18.01142 -14.43372 -3.8255 -6.702001 -5.6645 -5.24 -6.812 -4.9355 -6.8245 -8.978001 -8.265 -8.344501 -5.5625 -6.725 -5.7605 -5.392 -12.8042 -12.69 -5.593 -5.8585 -5.688 -7.1405 -6.21 
-7.8385 -19.1162 -22.4984 -22.2853 -25.11172 -20.27542 -15.99522 -7.556001 -8.466001 -8.452001 -7.1335 -8.615001 -8.626 -13.1044 -12.5804 -14.0463 -8.883 -11.0281 -8.024501 -9.435 -15.6474 -16.2452 -15.131 -6.381001 -8.423 -8.1075 -9.021501 
-20.9632 -25.6557 -27.9937 -35.36222 -27.37572 -21.83692 -19.72572 -9.034 -11.3971 -10.19 -8.772 -12.2329 -15.1049 -16.7068 -18.3617 -14.5848 -14.4448 -12.3276 -12.3464 -20.0038 -19.0884 -18.6862 -15.919 -8.691501 -9.4585 -9.4265 
-27.5027 -31.151 -41.07062 -37.62622 -28.93722 -25.56742 -21.20372 -11.9751 -13.1351 -11.8285 -12.4057 -18.7118 -18.7073 -22.4881 -18.9002 -20.1466 -15.7443 -16.6495 -22.9152 -23.4448 -21.5294 -19.4742 -18.2295 -9.484 -9.6575 
-3.488 -2.7035 0 -1.934 -6.6585 -1.4985 -3.5015 -1.7565 -12.16972 -10.37 -1.7565 -3.0365 -2.7415 -1.8085 -4.889 -4.8115 -1.934 -4.297 -1.756 -2.998 -3.1385 -3.152 -4.424 -1.756 -3.454 -3.1385 -3.152 -4.874 0 
-5.5185 -2.7035 -1.934 -7.809 -8.7425 -4.737 -4.783 -14.87542 -22.53972 -12.2291 -5.890501 -4.2225 -3.891 -5.919001 -6.759501 -6.611 -6.725 -5.7605 -5.392 -6.2545 -5.219 -8.638 -5.9015 -5.688 -6.434 -5.219 -6.21 -4.874 
-5.5185 -5.1845 -7.809 -9.035001 -12.2428 -5.5595 -18.59932 -25.24542 -24.39882 -16.3631 -7.733001 -4.725 -7.6175 -7.55 -7.510001 -10.259 -8.024501 -9.435 -8.356501 -7.920501 -9.5175 -9.6975 -9.252501 -8.43 -7.890501 -6.9205 -6.21 
-8.4645 -11.4553 -9.035001 -12.8099 -13.0653 -19.46742 -28.96932 -27.10452 -28.53282 -18.2056 -8.258 -8.101501 -9.085001 -8.086 -11.6394 -11.5585 -12.3464 -12.7129 -9.290501 -12.8342 -10.336 -13.0485 -10.758 -9.512501 -8.947001 -6.9205 
-14.9877 -12.6813 -12.8099 -13.6324 -26.97322 -29.83742 -30.82842 -31.23852 -30.37532 -18.7306 -11.6893 -9.2235 -9.3905 -12.4584 -12.9389 -15.8804 -15.6243 -13.6469 -14.3008 -13.6527 -13.687 -14.554 -11.8405 -10.2655 -8.947001 
-3.488 -2.7035 0 -10.6255 -1.756 -4.336 -3.1715 -2.998 -3.1385 -4.424 -1.756 -3.454 -3.1385 -5.228 
-5.5185 -2.7035 -10.6255 -12.3815 -6.243 -7.615001 -6.7845 -6.2545 -6.278501 -5.9015 -5.688 -6.434 -7.747 
-5.5185 -13.501 -12.3815 -16.8685 -9.562 -11.6416 -10.717 -8.595501 -7.2765 -9.252501 -8.43 -9.848001 
-17.5466 -15.257 -16.8685 -20.1875 -13.6774 -15.5741 -13.058 -9.393001 -9.863001 -10.758 -10.523 
-19.3026 -19.744 -20.1875 -24.3029 -17.6099 -17.9151 -13.8555 -12.0141 -11.6801 -12.851 
-8.7865 0 -2.5045 -3.76 -2.998 -3.1385 -4.424 -1.756 -3.454 -4.874 -1.934 -1.8085 -4.297 -4.889 -2.3335 -4.0875 -3.5015 -1.934 -1.4985 -5.957 -3.8145 -1.7565 -9.873 -6.5545 -3.4425 0 
-8.7865 -2.5045 -3.8195 -5.3095 -6.2545 -6.278501 -5.9015 -5.688 -8.058001 -5.694 -3.2685 -5.6255 -8.321501 -6.896001 -5.637 -5.143 -4.704 -2.6125 -7.529 -10.3815 -4.711 -12.5787 -16.6691 -10.6544 -3.4425 
-11.08 -3.8195 -5.309 -7.738501 -8.595501 -7.2765 -9.252501 -8.8885 -8.3275 -6.6225 -7.023 -9.379001 -10.2185 -9.404501 -6.0175 -5.692 -5.1615 -8.459001 -12.5795 -11.278 -17.0058 -19.3748 -20.769 -10.6544 
-12.395 -5.309 -7.739 -9.309501 -9.393001 -9.863001 -13.0032 -9.477501 -9.509501 -8.8025 -10.122 -11.4994 -12.9114 -10.3825 -6.4845 -6.304 -11.296 -13.9035 -13.476 -23.5728 -23.8019 -23.4747 -20.769 
-13.8845 -7.739 -9.311001 -9.9315 -12.0141 -13.9253 -13.5922 -10.1045 -12.1703 -12.7977 -12.2396 -14.1923 -13.8894 -10.5165 -7.061 -12.6829 -16.7405 -14.8 -25.7708 -30.3689 -27.9018 -23.4747 
