-4.759 
n/a 
n/a 
n/a 
n/a 
-4.759 
n/a 
n/a 
n/a 
n/a 
-4.759 
n/a 
n/a 
n/a 
n/a 
-4.759 
n/a 
n/a 
n/a 
n/a 
-12.16972 -6.6585 -2.229 -4.4145 
-18.82822 -9.037001 -5.9795 
-21.20672 -13.0289 
-25.19862 
n/a 
-12.16972 0 -4.4485 -3.757 -1.7565 -4.628 -4.743 0 -3.0015 0 
-12.16972 -4.4485 -8.153 -4.5665 -6.107501 -4.7515 -4.743 -3.0015 -3.0015 
-16.61822 -8.153 -8.321501 -7.846001 -6.281001 -4.7515 -8.492001 -3.0015 
-20.32272 -8.321501 -12.395 -7.873001 -6.281001 -8.5235 -8.492001 
-20.49122 -12.395 -12.422 -7.873001 -9.132001 -8.5235 
-19.4685 -2.229 -4.4145 -3.757 0 -4.2215 0 
-22.0145 -5.9795 -7.566501 -3.757 -4.2215 -4.2215 
-25.765 -8.22 -7.566501 -8.064 -4.2215 
-28.0055 -8.22 -12.4641 -8.064 
-28.0055 -13.5574 -12.4641 
-12.16972 -2.7415 -4.628 -4.743 -2.229 -4.4485 -3.757 0 -3.0015 0 
-14.91122 -8.387501 -4.7515 -6.5015 -6.25 -8.153 -3.757 -3.0015 -3.0015 
-20.55722 -8.8435 -6.5135 -11.3649 -9.684501 -8.153 -7.259501 -3.0015 
-21.01322 -9.192 -11.4133 -14.7994 -9.684501 -12.1617 -7.259501 
-21.36172 -14.231 -14.8478 -14.7994 -13.7314 -12.1617 
