-4.759 
n/a 
n/a 
n/a 
n/a 
-4.759 
n/a 
n/a 
n/a 
n/a 
-4.759 
n/a 
n/a 
n/a 
n/a 
-4.759 
n/a 
n/a 
n/a 
n/a 
-1.4985 -4.6825 -2.7415 -4.7925 -3.222 -5.204 -1.756 -1.4985 -5.204 -2.7415 -4.7925 -3.222 -8.353001 0 -11.0555 -2.4285 -10.9935 0 
-5.612 -6.733001 -6.2365 -5.2095 -8.161501 -6.198501 -3.0405 -6.075001 -7.8485 -6.2365 -5.2095 -12.6278 -8.353001 -11.0555 -13.484 -14.3802 -10.9935 
-7.4065 -8.267 -6.4745 -8.576 -8.883 -7.3085 -7.3595 -8.555 -10.1595 -6.4745 -15.4293 -12.6278 -19.8909 -13.484 -25.4357 -14.3802 
-8.6455 -8.606501 -9.266001 -9.1755 -10.2285 -9.316001 -9.852 -10.9276 -10.342 -16.8767 -15.4293 -24.1657 -22.3194 -25.4357 -25.4357 
-8.876 -10.126 -9.951 -10.6095 -10.669 -12.0923 -12.2246 -11.1101 -20.979 -16.8767 -26.9672 -26.5942 -34.2711 -25.4357 
-4.0965 -2.7415 -4.5275 -3.222 -4.7315 -2.9705 -1.934 -3.9995 -4.5275 -3.222 -7.951 0 -9.2585 -2.4285 -7.066 0 
-6.906501 -6.618 -5.867 -7.507 -7.046 -5.115 -5.0145 -8.682001 -5.867 -10.411 -7.951 -9.2585 -12.307 -10.718 -7.066 
-9.298 -7.094501 -9.762 -9.179501 -8.906 -5.5735 -9.0045 -9.338501 -13.7634 -10.411 -17.7247 -12.307 -20.5965 -10.718 
-9.759001 -10.7575 -11.4123 -10.335 -9.153001 -9.746501 -9.368001 -17.2297 -13.7634 -20.1847 -20.7732 -20.5965 -20.5965 
-13.561 -12.4078 -12.5678 -10.372 -13.6006 -10.283 -17.2596 -17.2297 -23.5371 -23.2332 -29.0627 -20.5965 
-3.6135 -3.59 -4.7925 -1.934 -1.7695 -9.719001 0 -3.468 -1.934 -1.7695 -4.7315 0 -4.7315 -1.934 -1.7695 -5.0575 
-6.519 -7.8715 -6.33 -4.0395 -12.4707 -9.719001 -3.468 -5.1985 -4.0395 -6.959001 -4.7315 -4.7315 -5.9625 -4.0395 -7.247001 
-11.3835 -9.1855 -7.7085 -15.6879 -12.4707 -13.2794 -5.1985 -9.151501 -10.1465 -6.959001 -7.772 -5.9625 -10.27 -10.213 
-12.6975 -10.8194 -20.0917 -15.6879 -16.0311 -15.0099 -9.151501 -15.4267 -10.1465 -8.858001 -9.370501 -10.27 -16.4435 
-14.3314 -23.2026 -20.0917 -19.2483 -17.7616 -18.9629 -15.4267 -15.4267 -12.1569 -11.3511 -13.8082 -16.4435 
-1.4985 -7.485 -4.7925 -3.222 -9.839001 0 -8.316 -3.222 -8.353001 0 -9.2585 -2.4285 -9.594501 
-8.9265 -13.0289 -5.2095 -14.1138 -9.839001 -8.316 -11.8782 -12.6278 -8.353001 -9.2585 -12.307 -12.9812 
-14.5972 -13.4459 -16.9153 -14.1138 -18.2212 -11.8782 -21.284 -12.6278 -18.0939 -12.307 -22.8597 
-15.0142 -25.1517 -16.9153 -22.496 -21.7834 -21.284 -21.284 -22.3687 -21.1424 -22.8597 
-26.72 -25.1517 -25.2975 -26.0582 -31.1892 -21.284 -31.0249 -25.4172 -31.6951 
