-4.759 
n/a 
n/a 
n/a 
n/a 
-4.759 
n/a 
n/a 
n/a 
n/a 
-4.759 
n/a 
n/a 
n/a 
n/a 
-4.759 
n/a 
n/a 
n/a 
n/a 
-3.539 -2.341 -3.9885 -2.229 -6.549 -3.9075 -3.2295 -10.3245 -3.2615 -3.304 -3.277 0 -7.122 -3.689 -7.4315 -4.4705 0 
-5.4665 -6.8385 -5.788 -9.449 -8.8935 -7.411 -14.709 -13.8422 -6.514501 -5.24 -3.277 -5.375 -8.444 -11.8261 -10.254 -4.4705 
-10.476 -8.758 -13.8626 -11.9893 -12.5884 -19.3553 -18.2267 -17.0952 -6.995 -5.24 -9.162001 -8.8545 -18.1046 -14.6486 -10.254 
-12.3955 -17.0396 -16.4029 -15.6842 -24.5327 -22.873 -21.4797 -17.5757 -6.995 -11.2 -12.7487 -17.7686 -20.5911 -14.6486 
-20.6771 -19.5799 -20.0978 -27.6285 -28.0504 -26.126 -21.9602 -17.5757 -13.343 -14.7867 -21.6628 -20.5911 -20.5911 
-3.539 -6.192 -1.7695 -4.7225 -1.934 -7.619 -6.549 -3.9075 -5.622 0 -6.493001 -3.1385 -3.966 -2.985 -6.832 -2.186 -2.6165 -4.4825 -1.934 -7.619 -3.5125 -2.0935 -1.4985 -3.814 -3.304 -7.883 0 
-9.701001 -6.726 -6.337501 -6.6895 -9.196001 -14.697 -8.8935 -7.915501 -5.622 -6.493001 -9.300501 -6.868501 -5.648 -8.587501 -7.9065 -3.5105 -6.764 -5.5625 -9.196001 -10.2485 -5.691 -2.9725 -4.198 -6.396 -9.814501 -7.883 
-10.122 -10.7905 -8.012501 -14.3919 -16.4284 -17.0415 -13.0929 -7.915501 -13.1762 -9.300501 -13.1459 -7.146501 -10.0415 -9.547001 -9.021501 -9.287001 -7.7905 -13.4991 -10.7605 -12.427 -6.587 -5.1435 -6.4345 -14.5159 -9.814501 
-14.1662 -12.4467 -15.9849 -21.6243 -18.7729 -21.2409 -13.0929 -15.8287 -15.9837 -13.1459 -13.4239 -11.7655 -10.867 -10.6415 -14.4345 -10.0385 -15.9987 -15.0636 -12.939 -13.323 -8.006001 -7.416 -15.5168 -14.5159 
-15.4878 -20.8505 -23.2173 -23.9688 -22.9723 -21.2409 -21.0061 -18.6362 -19.8291 -13.4239 -18.2851 -13.2079 -12.5937 -15.6689 -15.1944 -18.2467 -17.5632 -17.2421 -13.835 -14.742 -9.9635 -16.5565 -15.5168 
-3.539 -2.341 -3.9885 -2.229 -12.16972 -3.9075 -5.686 -3.299 -2.9705 -3.7285 -4.4825 -3.304 -3.277 -3.436 -1.7695 -3.1015 -1.756 -3.45 -5.4175 -3.43 -7.122 -3.966 -2.985 -3.9775 0 
-5.4665 -6.8385 -5.788 -14.99372 -16.07722 -10.4765 -8.651001 -6.9545 -6.459001 -6.1915 -8.388 -5.24 -5.4395 -6.2165 -5.731 -4.727 -4.834 -8.6495 -9.128 -9.979 -9.5825 -5.648 -5.413 -3.9775 
-10.476 -8.758 -19.40732 -18.90122 -22.64622 -13.4415 -12.8189 -10.5325 -7.972001 -10.4945 -8.6365 -7.682 -8.0315 -9.278501 -7.3955 -7.6905 -10.4425 -12.5766 -15.198 -13.581 -10.834 -6.961 -5.413 
-12.3955 -22.58432 -23.31482 -25.47022 -25.61122 -17.6094 -16.3969 -12.0455 -12.3952 -10.743 -10.361 -10.2865 -11.2669 -11.136 -10.103 -13.527 -14.3696 -18.6466 -19.65 -15.1154 -11.9479 -6.961 
-26.22182 -26.49182 -29.88382 -28.43522 -29.77912 -21.1874 -17.9099 -16.4687 -12.6437 -12.4675 -12.9655 -13.5219 -13.1244 -13.8435 -15.9395 -17.4541 -20.4396 -23.0986 -21.0474 -15.9759 -11.9479 
-6.493001 -4.9225 -3.152 -5.3895 -2.3345 -1.4985 -9.09 -5.0725 -2.5195 -1.4985 -11.0555 -3.9075 -2.5045 -8.205501 
-12.1053 -7.4025 -6.9945 -6.368 -3.233 -10.238 -14.4607 -7.442 -3.1695 -13.6478 -14.963 -5.9635 -11.405 
-14.5853 -9.856501 -7.644001 -6.8725 -12.2405 -15.6087 -16.8302 -8.1085 -15.5522 -17.5553 -17.019 -15.282 
-17.0393 -10.507 -7.9455 -16.3856 -17.6112 -17.9782 -17.4967 -20.7734 -19.4597 -19.6113 -26.3375 
-17.6898 -10.8085 -17.665 -21.7563 -19.9807 -18.6447 -30.1616 -24.6809 -21.5157 -28.9298 
