-4.759 
n/a 
n/a 
n/a 
n/a 
-4.759 
n/a 
n/a 
n/a 
n/a 
-4.759 
n/a 
n/a 
n/a 
n/a 
-4.759 
n/a 
n/a 
n/a 
n/a 
-1.934 -3.225 0 -3.676 -4.419 -3.2815 -4.277 -4.3515 -2.0935 -3.1435 -3.3825 -4.9405 0 -2.3615 -2.186 -3.8175 -3.89 -1.934 -1.4985 -3.188 -3.518 0 
-4.879 -3.225 -3.676 -8.4475 -8.478001 -6.8455 -5.847001 -5.8095 -4.568 -6.009501 -8.785501 -4.9405 -2.3615 -3.5005 -6.717 -7.315001 -5.431 -2.6125 -3.619 -7.135 -3.518 
-4.879 -7.1815 -8.4475 -12.7729 -9.595 -8.749001 -7.382501 -8.2345 -7.256001 -11.9437 -8.785501 -7.969501 -3.5005 -7.777501 -10.254 -8.603001 -5.893 -4.377 -7.6745 -7.135 
-9.0115 -13.188 -12.7729 -13.8899 -10.7595 -10.096 -9.363501 -10.111 -13.3646 -11.9437 -12.1747 -8.5795 -7.777501 -11.5537 -11.542 -9.4755 -6.545 -9.1745 -7.6745 
-14.7426 -17.5134 -13.8899 -15.0544 -12.1065 -12.1158 -11.2786 -16.3358 -13.3646 -15.3329 -12.7847 -13.0339 -11.5537 -12.8417 -12.4145 -10.2331 -11.8525 -9.1745 
-1.934 -3.225 0 -1.4985 -3.4225 -3.468 -4.404 -1.8085 -3.432 -3.2815 0 -4.277 -2.264 -3.915 -3.3825 -4.08 0 -1.4985 -3.17 -1.934 -1.4985 -3.188 0 
-4.879 -3.225 -1.4985 -3.9655 -3.628 -7.7075 -5.523 -5.4785 -7.006001 -3.2815 -4.277 -6.3295 -6.328 -6.7185 -6.047501 -4.08 -1.4985 -3.7115 -5.81 -2.6125 -3.619 -3.188 
-4.879 -4.9485 -3.9655 -4.053 -7.937 -9.005501 -9.434001 -9.368 -7.006001 -6.8455 -6.3295 -9.727501 -8.273001 -6.8065 -6.047501 -6.0045 -3.7115 -6.337 -6.525 -4.377 -3.619 
-5.9005 -7.4145 -4.053 -7.9455 -9.237 -10.2595 -13.5123 -9.368 -10.9156 -8.859 -9.727501 -9.803501 -8.299001 -6.8065 -7.806001 -8.371501 -6.337 -7.1195 -7.7935 -4.377 
-8.087501 -7.586 -7.9455 -9.2475 -10.26 -15.9452 -13.5123 -13.4476 -12.9291 -12.3946 -9.803501 -9.8275 -8.299001 -8.628501 -9.8415 -9.969501 -7.1195 -8.428 -7.7935 
-1.934 -3.225 0 -3.676 -4.419 -3.2815 -4.277 -4.3515 -2.0935 -4.945 -4.3865 -2.4265 -2.186 -1.8085 -3.6135 -3.893 -4.0745 -2.8965 -3.959 0 
-4.879 -3.225 -3.676 -8.4475 -8.478001 -6.8455 -5.847001 -5.8095 -6.624001 -9.566 -7.0115 -3.292 -3.164 -4.4545 -7.374001 -8.736 -7.0555 -4.940001 -3.959 
-4.879 -7.1815 -8.4475 -12.7729 -9.595 -8.749001 -7.382501 -10.76 -11.8788 -12.4238 -7.5565 -4.4005 -5.4355 -7.617001 -12.8178 -12.246 -9.7635 -4.940001 
-9.0115 -13.188 -12.7729 -13.8899 -10.7595 -10.096 -12.5158 -16.0148 -14.7366 -12.9688 -8.6385 -6.6215 -8.81 -13.2066 -16.3278 -14.954 -9.7635 
-14.7426 -17.5134 -13.8899 -15.0544 -12.1065 -15.2681 -17.7706 -18.8726 -15.2816 -14.0508 -10.9289 -9.884001 -14.4128 -16.7166 -19.0358 -14.954 
-1.934 -1.4985 -3.158 -1.7565 -3.225 0 -3.676 -3.251 -4.419 -3.2295 -3.2815 -7.135 -4.3515 -1.7695 -3.0785 -1.934 -1.4985 -4.6505 -3.4975 -4.5265 -3.3825 0 -2.3615 -2.7415 -1.4985 -3.8175 -3.4465 
-2.6125 -4.178 -4.71 -5.4535 -3.225 -3.676 -6.8255 -8.272 -6.6195 -6.714 -10.9775 -12.2001 -5.7045 -3.9555 -5.132 -2.6125 -6.2675 -8.548 -7.411 -8.3345 -3.3825 -2.3615 -4.455 -4.063 -4.741 -7.2985 
-5.265 -5.562 -7.4465 -5.4535 -7.1815 -6.8255 -12.0263 -10.115 -9.953501 -15.1832 -16.0426 -13.5531 -7.2975 -6.0075 -5.9405 -7.869 -10.9618 -12.8491 -11.4856 -8.3345 -6.035501 -4.455 -5.3025 -6.931 -7.847 
-6.3135 -7.648001 -7.4465 -9.765501 -11.566 -12.0263 -13.8693 -13.449 -18.8533 -20.2483 -17.3956 -15.1461 -9.585501 -6.564 -11.8214 -12.6037 -15.2629 -16.9237 -11.4856 -11.6179 -7.8135 -5.3025 -8.281 -10.5975 
-8.616501 -7.648001 -12.2473 -13.7478 -16.7668 -13.8693 -17.2033 -22.3488 -23.9184 -21.6013 -18.9886 -17.4341 -9.9195 -12.7739 -16.5561 -16.9048 -19.3375 -16.9237 -14.769 -13.3959 -8.729501 -8.281 -12.1117 
