-4.759 
n/a 
n/a 
n/a 
n/a 
-4.759 
n/a 
n/a 
n/a 
n/a 
-4.759 
n/a 
n/a 
n/a 
n/a 
-4.759 
n/a 
n/a 
n/a 
n/a 
-1.934 -6.3215 -3.2875 -2.674 -7.231 -4.841 -3.5015 -2.0935 -5.236 -6.923 -9.7255 -7.757 0 -7.443 -12.16972 -5.9185 0 -9.418 -7.965 -7.757 0 -8.9165 -7.8015 0 -5.5785 -4.1385 0 
-7.453 -8.6905 -6.6125 -9.894 -12.6634 -7.036 -4.7905 -6.2955 -13.2034 -10.1725 -17.8923 -7.757 -7.443 -20.31372 -18.08822 -5.9185 -9.418 -9.699 -9.733 -7.757 -8.9165 -10.9575 -7.8015 -5.5785 -8.366501 -4.1385 
-9.5205 -12.3035 -14.1019 -15.4176 -14.8584 -7.3905 -8.0755 -14.6947 -16.4529 -19.3915 -17.8923 -11.0805 -20.31372 -26.23222 -18.08822 -16.1753 -9.699 -12.2072 -9.733 -17.0269 -10.9575 -10.9575 -13.7884 -8.366501 -8.366501 
-13.2121 -19.7929 -19.6255 -17.6126 -15.2129 -9.3765 -16.8465 -17.9442 -25.6719 -19.3915 -21.2158 -23.95122 -26.23222 -26.23222 -28.34502 -16.4563 -12.2072 -12.2072 -19.0751 -19.0679 -10.9575 -16.9444 -16.5764 -8.366501 
-20.7015 -25.3165 -21.8205 -17.9671 -17.1989 -18.1851 -20.096 -27.1632 -25.6719 -22.715 -34.08652 -29.86972 -26.23222 -36.48902 -28.62602 -18.9645 -12.2072 -21.5493 -21.1161 -19.0679 -16.9444 -19.7324 -16.5764 
-3.0365 -2.4945 -3.3715 -5.236 -5.4525 -4.088 -1.934 -6.3215 -3.2875 -3.2775 -2.5045 -18.9625 -4.677 0 -7.443 -9.109501 -5.9185 0 -9.802 0 -3.4715 -4.525 0 0 -1.756 -5.5785 -4.1385 0 
-3.688 -4.846 -7.055 -9.4875 -9.897001 -5.429501 -7.453 -8.6905 -7.094501 -3.678 -22.5774 -19.598 -4.677 -7.443 -9.63 -9.818501 -5.9185 -9.802 -9.802 -3.4715 -6.2245 -4.525 0 -1.756 -7.555501 -8.366501 -4.1385 
-4.8765 -8.936001 -11.7259 -14.22 -10.638 -10.2435 -9.5205 -12.7855 -7.2375 -23.7071 -23.0199 -19.598 -9.818501 -9.63 -9.872001 -9.818501 -16.5593 -9.802 -13.3749 -6.2245 -6.2245 -4.525 -1.756 -7.555501 -10.068 -8.366501 
-8.949 -13.9433 -16.4584 -14.961 -15.452 -12.311 -13.6941 -12.9285 -27.6156 -24.1496 -23.0199 -24.9231 -10.4375 -9.872001 -9.872001 -20.6629 -16.5593 -13.3749 -16.1279 -6.2245 -6.2245 -5.9705 -7.555501 -10.068 -10.068 
-13.9691 -18.6758 -17.1994 -19.775 -17.5195 -16.4846 -13.8371 -33.3066 -28.0581 -24.1496 -28.345 -25.5421 -10.467 -9.872001 -20.7464 -20.6629 -20.1322 -16.1279 -16.1279 -6.2245 -7.405 -10.5035 -10.068 -10.068 
-1.934 -6.3215 -1.4985 -2.186 -3.845 -1.7565 -4.088 -2.9705 -4.99 -1.4985 -4.8595 -3.115 -6.923 -12.16972 -4.677 0 -7.443 -9.109501 -5.9185 0 -10.738 -12.16972 -4.677 0 -8.9165 -7.8015 0 -1.756 -7.3435 -2.229 -4.1385 
-7.453 -8.386001 -5.8085 -7.268001 -4.13 -5.737 -6.732 -7.2615 -6.066 -6.0445 -8.504001 -9.869501 -19.83512 -16.84672 -4.677 -7.443 -9.63 -9.818501 -5.9185 -10.738 -22.90772 -16.84672 -4.677 -8.9165 -10.9575 -7.8015 -1.756 -9.058001 -8.02 -5.9495 
-9.096001 -12.8462 -10.6735 -7.64 -6.870501 -8.115001 -9.6625 -8.276001 -9.1195 -9.7165 -15.4009 -22.85742 -24.51212 -16.84672 -9.818501 -9.63 -9.872001 -9.818501 -17.4953 -22.90772 -27.58472 -16.84672 -14.4979 -10.9575 -10.9575 -9.569 -9.058001 -9.8345 -12.0913 
-13.6062 -17.7112 -11.0455 -10.5425 -9.39 -11.2007 -10.612 -10.598 -13.0645 -16.6386 -28.38882 -27.53442 -24.51212 -21.98822 -10.4375 -9.872001 -9.872001 -21.5989 -29.66502 -27.58472 -27.58472 -26.66762 -16.5389 -10.9575 -12.725 -16.8784 -9.8345 -13.9058 
-18.4712 -18.0832 -13.948 -13.062 -12.5427 -12.1502 -12.934 -14.543 -19.9866 -29.62652 -33.06582 -27.53442 -29.65362 -22.60722 -10.467 -9.872001 -21.6824 -33.76862 -34.34202 -27.58472 -37.40562 -28.70862 -16.5389 -12.725 -20.0344 -17.6549 -13.9058 
-1.934 -6.3215 0 -3.0365 -2.4945 -2.645 -4.8595 -4.088 -2.4945 -15.6945 -4.677 0 -7.443 -7.4685 -4.806 0 -12.16972 -7.965 -4.677 0 -5.5785 -4.1385 -2.4945 -3.737 -3.383 -4.1545 -1.7695 -1.4985 -3.1385 
-7.453 -6.3215 -3.0365 -3.688 -4.6775 -7.5745 -7.268001 -6.1785 -12.486 -9.2655 -4.677 -7.443 -9.809 -10.298 -4.806 -12.16972 -20.13472 -8.264501 -4.677 -5.5785 -8.366501 -6.964001 -5.325 -7.145 -5.3245 -5.2945 -2.7955 -4.2575 
-7.453 -9.589001 -3.688 -5.477 -9.6435 -9.268001 -8.849501 -16.5734 -12.56 -9.071501 -9.818501 -9.809 -10.3445 -10.298 -17.92652 -20.13472 -20.43422 -8.264501 -9.4005 -8.366501 -11.4852 -10.209 -8.102 -9.310501 -6.564 -7.1945 -5.4345 
-10.223 -9.927 -5.477 -10.0005 -11.407 -11.5881 -19.7844 -16.6474 -12.56 -14.4714 -10.721 -10.3445 -10.3445 -23.59732 -25.89152 -20.43422 -20.43422 -13.345 -10.4865 -11.4852 -14.7302 -12.986 -10.4345 -10.739 -8.6095 -8.921 
-10.521 -11.8784 -10.0005 -11.764 -13.7271 -22.523 -19.8584 -16.6474 -17.9599 -15.3739 -10.789 -10.3445 -23.66682 -31.56232 -26.19102 -20.43422 -25.51472 -14.431 -13.6052 -14.7302 -17.5072 -15.3185 -11.863 -12.7845 -10.122 
