-4.759 
n/a 
n/a 
n/a 
n/a 
-4.759 
n/a 
n/a 
n/a 
n/a 
-4.759 
n/a 
n/a 
n/a 
n/a 
-4.759 
n/a 
n/a 
n/a 
n/a 
-10.35 -3.2615 -3.228 -4.126 -5.8205 0 -4.877 0 -1.756 -3.571 -5.652 -5.1035 -3.0365 -3.486 -3.3195 -3.811 0 
-13.6115 -6.2275 -6.75 -10.5135 -5.8205 -4.877 -4.877 -1.756 -5.1285 -9.416 -7.632 -7.876 -7.6805 -7.099 -6.315001 -3.811 
-16.5775 -10.159 -13.7601 -10.5135 -11.6651 -4.877 -5.8595 -5.1285 -11.2189 -11.562 -10.243 -12.8766 -11.7753 -10.7083 -6.315001 
-20.509 -17.3425 -13.7601 -16.3581 -11.6651 -5.8595 -9.863001 -11.2189 -13.3649 -14.173 -15.7188 -16.9714 -15.3846 -10.7083 
-27.6925 -17.3425 -19.6047 -16.3581 -12.6476 -9.863001 -16.009 -13.3649 -15.9759 -19.6488 -19.8136 -20.5807 -15.3846 
-2.5045 -1.4985 -2.95 -1.7565 -4.9505 -7.0955 -1.756 -5.652 -5.1035 -4.425 -3.535 
-3.1915 -3.9285 -4.3785 -5.8415 -13.0552 -7.7495 -6.7815 -7.632 -9.2005 -7.658501 
-4.5155 -4.676 -8.496 -14.2574 -13.7092 -13.7184 -8.731501 -12.0594 -12.4524 
-4.837 -9.675501 -17.2629 -14.9114 -19.6781 -15.6684 -13.3009 -15.3113 
-10.2259 -18.4466 -17.9169 -20.8803 -21.6281 -20.2378 -16.5528 
-3.034 -1.934 -3.3365 -4.8515 -5.8205 0 -12.16972 -1.756 -5.652 -5.1035 -2.4945 -2.5685 -3.0465 -4.9995 -1.756 -4.682 -2.5045 -3.486 -2.95 0 
-5.3215 -4.922 -9.0255 -11.5912 -5.8205 -12.16972 -13.92572 -6.7815 -7.632 -6.580501 -4.6335 -5.961 -8.179501 -6.653 -5.877 -7.081 -6.5175 -4.563 -2.95 
-7.699 -9.7725 -16.0182 -11.5912 -18.95782 -13.92572 -18.95122 -8.731501 -9.0825 -8.8345 -9.476001 -11.6582 -9.0725 -8.85 -8.4965 -11.8184 -6.809 -4.563 
-13.3207 -16.988 -16.0182 -24.72852 -20.71382 -18.95122 -20.90122 -10.035 -11.5331 -13.7846 -15.3044 -12.5512 -11.5069 -10.6095 -13.2499 -12.1099 -6.809 
-20.5362 -16.988 -29.15552 -26.48452 -25.73932 -20.90122 -22.20472 -12.4856 -16.4832 -19.613 -16.1974 -14.9856 -13.2664 -15.3629 -13.5414 -12.1099 
-1.934 -4.361 -3.826 -4.126 -5.8205 0 -12.16972 0 -3.321 -5.652 -5.1035 -3.1495 -2.4945 -6.0315 -3.321 -6.789001 
-6.172 -10.2285 -6.2925 -10.5135 -5.8205 -12.16972 -12.16972 -3.321 -9.794001 -7.632 -7.797 -4.459 -9.247001 -9.453001 -9.2045 
-12.5929 -13.086 -13.321 -10.5135 -18.95782 -12.16972 -15.49072 -9.794001 -11.912 -9.750001 -8.755 -10.586 -12.9217 -15.4053 
-15.4504 -20.1145 -13.321 -23.65082 -18.95782 -15.49072 -21.96372 -11.912 -14.03 -11.3148 -15.1074 -14.2607 -18.874 
-22.4789 -20.1145 -26.45832 -23.65082 -22.27882 -21.96372 -24.08172 -14.03 -15.5948 -17.6672 -18.7821 -20.213 
