-4.759 
n/a 
n/a 
n/a 
n/a 
-4.759 
n/a 
n/a 
n/a 
n/a 
-4.759 
n/a 
n/a 
n/a 
n/a 
-4.759 
n/a 
n/a 
n/a 
n/a 
-3.3715 -3.1385 -3.8735 -7.4735 -1.934 -8.554501 -6.844 -1.756 -6.557 
-4.712501 -7.384501 -11.582 -9.311501 -11.4949 -15.7675 -8.4585 -8.5065 
-8.321501 -14.8805 -14.2915 -20.2479 -18.7079 -17.382 -15.5616 
-16.1841 -17.3336 -24.5526 -27.3041 -20.3224 -24.4851 
-18.3316 -27.5947 -31.7656 -28.9186 -27.4255 
-3.3095 -1.8085 -2.688 -4.7855 -2.0935 -1.4985 -4.179 0 
-4.7575 -3.642 -7.6825 -6.7845 -2.9725 -5.3495 -4.179 
-5.964 -8.251 -9.476001 -7.748 -6.7955 -5.3495 
-9.854501 -9.836 -10.3555 -11.83 -6.7955 
-11.6093 -10.601 -14.4375 -11.83 
-3.3715 -4.9225 -3.3095 -1.7695 -2.664 -2.688 -5.367 0 
-7.0565 -9.0555 -5.982 -4.185 -6.7325 -8.111 -5.367 
-11.7045 -11.8996 -9.556001 -8.288501 -12.4469 -8.111 
-14.5486 -15.4736 -13.7803 -14.2293 -12.4469 
-18.1226 -19.6979 -19.7211 -14.2293 

n/a 
n/a 
n/a 
n/a 
