-4.759 
n/a 
n/a 
n/a 
n/a 
-4.759 
n/a 
n/a 
n/a 
n/a 
-4.759 
n/a 
n/a 
n/a 
n/a 
-4.759 
n/a 
n/a 
n/a 
n/a 
-4.1045 0 -9.2655 0 -3.7955 0 0 -3.002 0 
-4.1045 -9.2655 -9.2655 -3.7955 -3.7955 0 -3.002 -3.002 
-13.767 -9.2655 -13.9796 -3.7955 -3.7955 -3.002 -3.002 
-13.767 -13.9796 -13.9796 -3.7955 -7.511001 -3.002 
-18.4811 -13.9796 -13.9796 -7.511001 -7.511001 
-4.1045 0 -12.16972 0 -6.717 0 0 -3.002 0 
-4.1045 -12.16972 -12.16972 -6.717 -6.717 0 -3.002 -3.002 
-16.67122 -12.16972 -18.88672 -6.717 -6.717 -3.002 -3.002 
-16.67122 -18.88672 -18.88672 -6.717 -10.5535 -3.002 
-23.38822 -18.88672 -18.88672 -10.5535 -10.5535 
-4.1045 -9.2655 0 -3.8195 0 0 -3.002 0 
-13.767 -9.2655 -3.8195 -3.8195 0 -3.002 -3.002 
-13.767 -14.0036 -3.8195 -3.8195 -3.002 -3.002 
-18.5051 -14.0036 -3.8195 -7.504001 -3.002 
-18.5051 -14.0036 -7.504001 -7.504001 
-12.892 0 -3.7955 0 0 -3.002 0 
-13.289 -3.7955 -3.7955 0 -3.002 -3.002 
-17.7333 -3.7955 -3.7955 -3.002 -3.002 
-17.7333 -3.7955 -7.511001 -3.002 
-17.7333 -7.511001 -7.511001 
