-4.759 
n/a 
n/a 
n/a 
n/a 
-4.759 
n/a 
n/a 
n/a 
n/a 
-4.759 
n/a 
n/a 
n/a 
n/a 
-4.759 
n/a 
n/a 
n/a 
n/a 
-3.7485 -3.842 -3.9185 -3.9415 -3.9985 -4.1045 -4.1735 -4.2005 -4.239 -4.1855 
-5.253 -5.285501 -5.3535 -5.379 -5.4045 -5.416 -5.4285 -5.437 -5.4405 
-5.3065 -5.383 -5.397 -5.4165 -5.426 -5.436 -5.449 -5.448 
-5.387 -5.411 -5.4205 -5.429 -5.439 -5.4505 -5.455 
-5.4125 -5.433 -5.432 -5.441 -5.4525 -5.456 
-3.7485 -3.842 0 -3.9185 0 -3.9415 0 -3.9985 0 -4.1045 0 -4.1735 0 -4.2005 0 -4.239 0 -4.1855 
-5.253 -3.842 -3.9185 -3.9185 -3.9415 -3.9415 -3.9985 -3.9985 -4.1045 -4.1045 -4.1735 -4.1735 -4.2005 -4.2005 -4.239 -4.239 -4.1855 
-5.253 -5.285501 -3.9185 -5.3535 -3.9415 -5.379 -3.9985 -5.4045 -4.1045 -5.416 -4.1735 -5.4285 -4.2005 -5.437 -4.239 -5.4405 
-5.3065 -5.285501 -5.3535 -5.3535 -5.379 -5.379 -5.4045 -5.4045 -5.416 -5.416 -5.4285 -5.4285 -5.437 -5.437 -5.4405 
-5.3065 -5.383 -5.3535 -5.397 -5.379 -5.4165 -5.4045 -5.426 -5.416 -5.436 -5.4285 -5.449 -5.437 -5.448 
-40.352 
n/a 
n/a 
n/a 
n/a 
-40.352 
n/a 
n/a 
n/a 
n/a 
