-4.759 
n/a 
n/a 
n/a 
n/a 
-4.759 
n/a 
n/a 
n/a 
n/a 
-4.759 
n/a 
n/a 
n/a 
n/a 
-4.759 
n/a 
n/a 
n/a 
n/a 
-3.131 -4.732 -3.1015 -4.623 -2.95 -4.9295 
-7.889 -6.285501 -8.215 -6.759 -8.656 
-8.863001 -11.787 -10.755 -13.0728 
-14.5855 -14.327 -17.0688 
-17.1255 -20.6408 
-3.131 0 -4.732 -3.218 0 -4.9295 -2.0935 -1.4985 -4.623 -2.95 
-3.131 -4.732 -6.915501 -3.218 -4.9295 -7.1575 -2.9725 -5.1705 -6.759 
-7.889 -6.915501 -6.915501 -9.446501 -7.1575 -7.858 -6.3435 -6.8755 
-8.989 -6.915501 -13.5444 -11.8375 -7.858 -11.5808 -7.096 
-8.989 -13.5444 -15.9354 -12.538 -11.5808 -12.3333 
-2.5195 -3.131 -1.7695 -4.732 -3.218 0 -4.623 -2.95 -4.9295 
-6.08 -5.5885 -7.101501 -6.915501 -3.218 -4.623 -6.759 -8.656 
-6.765 -9.455 -8.452001 -6.915501 -8.7405 -6.759 -13.0728 
-10.7595 -9.6295 -8.452001 -12.8384 -11.2259 -13.0728 
-10.934 -9.6295 -14.4791 -15.3238 -17.5397 
-7.863 -3.1015 0 -4.623 -2.95 
-9.4425 -3.1015 -4.623 -6.759 
-8.863001 -8.215 -6.759 
-14.5855 -10.755 
-17.1255 
