-4.759 
n/a 
n/a 
n/a 
n/a 
-4.759 
n/a 
n/a 
n/a 
n/a 
-4.759 
n/a 
n/a 
n/a 
n/a 
-4.759 
n/a 
n/a 
n/a 
n/a 
-5.3345 0 -1.934 -3.5715 -5.0345 -4.034 0 -1.934 -3.288 -5.0275 -4.1265 0 -1.934 -3.288 -5.046 -3.4225 -3.676 -3.918 0 
-5.3345 -1.934 -5.0835 -7.2705 -9.028 -4.034 -1.934 -4.9715 -7.4225 -8.9125 -4.1265 -1.934 -4.9715 -7.328 -8.5595 -7.8135 -7.797 -3.918 
-6.396 -5.0835 -7.824501 -10.485 -9.028 -5.9995 -4.9715 -8.2945 -10.051 -8.9125 -6.189 -4.9715 -8.033 -10.647 -13.4675 -12.4729 -7.797 
-9.670501 -7.824501 -11.3116 -10.485 -11.4067 -8.037001 -8.2945 -10.396 -10.051 -11.4134 -8.351501 -8.033 -11.6734 -15.413 -18.1269 -12.4729 
-12.4901 -11.3116 -11.3116 -12.8637 -13.4442 -11.6076 -10.396 -10.396 -12.9527 -13.5759 -11.639 -11.6734 -16.4394 -20.0724 -18.1269 
-4.3235 0 -1.934 -3.5715 -5.0345 -4.034 0 -1.934 -3.288 -5.0275 -4.1265 0 -1.934 -3.288 -5.046 -3.4225 -3.676 -3.918 -3.277 0 
-4.3235 -1.934 -5.0835 -7.2705 -9.028 -4.034 -1.934 -4.9715 -7.4225 -8.9125 -4.1265 -1.934 -4.9715 -7.328 -8.5595 -7.8135 -7.797 -6.7875 -3.277 
-5.264 -5.0835 -7.824501 -10.485 -9.028 -5.9995 -4.9715 -8.2945 -10.051 -8.9125 -6.189 -4.9715 -8.033 -10.647 -13.4675 -12.4729 -10.523 -6.7875 
-8.965 -7.824501 -11.3116 -10.485 -11.4067 -8.037001 -8.2945 -10.396 -10.051 -11.4134 -8.351501 -8.033 -11.6734 -15.413 -18.1269 -15.1989 -10.523 
-12.0912 -11.3116 -11.3116 -12.8637 -13.4442 -11.6076 -10.396 -10.396 -12.9527 -13.5759 -11.639 -11.6734 -16.4394 -20.0724 -20.8529 -15.1989 
-4.034 -1.934 -3.5715 -5.0345 0 -4.1265 -1.934 -3.288 -5.0275 -1.756 -5.292 -3.468 -1.7565 -3.676 -1.934 -3.288 -5.046 -3.918 -1.934 -2.3615 -4.2645 
-5.9995 -5.0835 -7.2705 -5.0345 -4.1265 -6.189 -4.9715 -7.4225 -6.907 -6.849 -8.0465 -4.7385 -4.4345 -5.558 -4.9715 -7.328 -8.661 -6.013 -3.539 -6.905001 
-8.133 -7.824501 -7.2705 -9.0175 -6.189 -8.351501 -8.2945 -8.709001 -12.6666 -10.1545 -9.297501 -5.0245 -6.069 -8.2635 -8.033 -10.688 -11.3878 -7.554 -8.222501 
-11.1284 -7.824501 -10.4035 -10.443 -8.351501 -10.199 -9.339001 -14.7576 -15.9721 -11.4055 -9.367001 -6.248 -9.088 -11.4842 -11.7144 -13.4148 -12.9288 -12.5449 
-11.1284 -10.733 -11.829 -12.9351 -10.199 -10.221 -15.519 -18.0631 -17.2231 -11.475 -10.6589 -9.7865 -12.4755 -15.1656 -14.4412 -14.9558 -17.9197 
-4.3235 0 -1.934 -3.5715 -5.0345 -4.034 0 -1.934 -3.288 -5.0275 -4.1265 0 -1.934 -3.288 -5.046 -3.4225 -3.676 -2.4945 -3.918 
-4.3235 -1.934 -5.0835 -7.2705 -9.028 -4.034 -1.934 -4.9715 -7.4225 -8.9125 -4.1265 -1.934 -4.9715 -7.328 -8.5595 -7.8135 -6.278 -6.31 
-5.264 -5.0835 -7.824501 -10.485 -9.028 -5.9995 -4.9715 -8.2945 -10.051 -8.9125 -6.189 -4.9715 -8.033 -10.647 -13.4675 -10.553 -9.8325 
-8.965 -7.824501 -11.3116 -10.485 -11.4067 -8.037001 -8.2945 -10.396 -10.051 -11.4134 -8.351501 -8.033 -11.6734 -15.413 -16.207 -14.1075 
-12.0912 -11.3116 -11.3116 -12.8637 -13.4442 -11.6076 -10.396 -10.396 -12.9527 -13.5759 -11.639 -11.6734 -16.4394 -18.1525 -19.7615 
