-4.759 
n/a 
n/a 
n/a 
n/a 
-4.759 
n/a 
n/a 
n/a 
n/a 
-4.759 
n/a 
n/a 
n/a 
n/a 
-4.759 
n/a 
n/a 
n/a 
n/a 
-1.934 -8.7135 -7.765 -2.0935 -3.957 -4.649 -3.3585 -10.105 -2.229 -3.0835 -3.845 -4.0555 -2.356 -1.4985 -3.9735 0 -4.3915 -1.4985 -4.23 -1.756 -5.5465 0 
-9.925501 -15.3545 -9.606501 -5.8725 -9.2225 -8.3105 -14.5175 -12.615 -4.6705 -5.74 -7.9145 -5.6055 -3.1615 -5.8175 -3.9735 -4.3915 -5.597 -5.015 -5.6005 -6.819 -5.5465 
-16.5665 -18.4415 -15.7811 -12.2288 -12.9308 -19.8103 -17.0275 -15.0565 -7.8805 -8.691 -8.9805 -6.261 -7.472 -5.8175 -9.269001 -5.597 -7.097 -5.9805 -7.1255 -6.819 
-19.6535 -23.4901 -22.1374 -15.9371 -24.4306 -22.3203 -19.469 -18.2665 -10.238 -10.1995 -10.0355 -10.7025 -7.472 -11.9518 -10.5335 -7.097 -7.8625 -7.2435 -7.1255 
-24.7021 -29.8464 -25.8457 -27.4369 -26.9406 -24.7618 -22.679 -20.624 -11.8123 -11.5081 -14.477 -10.7025 -13.9193 -13.2163 -12.0335 -7.8625 -8.738501 -7.2435 
-1.4985 -10.105 0 -2.9195 -3.7425 -4.0925 -2.5045 -3.531 -7.765 0 
-12.6973 -10.105 -2.9195 -6.618 -7.4355 -6.1965 -5.8945 -10.023 -7.6455 
-12.6973 -13.3055 -6.618 -10.785 -9.280001 -9.84 -11.2575 -8.9405 
-15.8978 -17.004 -10.785 -12.6295 -13.3195 -16.386 -12.5895 
-19.5963 -21.171 -12.6295 -16.669 -19.8655 -16.386 
-1.934 -1.4985 -3.158 -4.91 -3.531 0 -9.8955 0 -3.852 -2.229 -3.0835 -3.845 -4.066 -2.9905 -1.934 -4.3735 -3.64 -2.356 -1.4985 -3.9355 -2.264 -1.4985 -3.0835 -2.9775 0 -7.819 -9.7495 -7.937 0 -9.4495 -12.16972 0 -12.16972 -10.6925 -9.8955 -2.5045 -1.4985 -3.6395 -1.7565 -3.957 -7.187 
-2.6125 -4.178 -7.8155 -8.527 -3.531 -9.8955 -9.8955 -3.852 -5.5695 -4.6705 -5.74 -7.382501 -5.3895 -4.5445 -5.907001 -7.247001 -5.078 -3.1615 -4.8035 -5.9585 -2.9195 -3.535 -5.4115 -2.9775 -7.819 -17.9733 -17.8233 -7.937 -9.4495 -21.77782 -12.16972 -12.16972 -22.86222 -20.7816 -12.7442 -3.1915 -4.944 -4.6145 -5.998001 -10.2135 
-5.265 -8.533501 -11.7473 -8.527 -15.1207 -9.8955 -14.0917 -5.5695 -7.600501 -7.8805 -9.598001 -8.346001 -6.6635 -8.297001 -8.691501 -9.097 -6.819 -6.1375 -6.7715 -6.4525 -5.1055 -5.815001 -5.4115 -11.7417 -17.9733 -26.0471 -17.8233 -17.9523 -21.77782 -21.77782 -24.33944 -22.86222 -32.95132 -23.6303 -13.4312 -5.851 -5.2065 -8.488 -12.7487 
-9.047501 -12.7387 -11.7473 -20.6799 -15.1207 -14.0917 -15.8092 -7.600501 -9.885501 -12.0041 -10.5765 -9.376 -11.0182 -11.3063 -11.0681 -10.3045 -8.818001 -8.4725 -6.9515 -8.698 -6.247 -5.815001 -15.1289 -21.896 -26.0471 -26.0471 -27.8386 -30.28062 -21.77782 -33.94754 -35.03194 -32.95132 -35.80002 -24.3173 -16.0907 -6.014 -8.904 -16.0403 
-13.3185 -12.7387 -23.9002 -20.6799 -19.3169 -15.8092 -17.8402 -9.885501 -14.0091 -12.9826 -11.6065 -13.8685 -14.0275 -13.6829 -12.2756 -12.3035 -11.5782 -8.787001 -9.481 -9.403 -6.247 -15.8794 -25.2832 -29.9698 -26.0471 -36.0624 -40.16692 -30.28062 -33.94754 -44.64004 -45.12104 -35.80002 -36.48702 -26.9768 -16.2537 -8.923 -16.5951 
-3.531 -2.855 0 -4.91 -3.158 -12.16972 -3.6395 -1.7565 -3.0835 -3.64 0 -9.333 -9.7495 -10.8905 0 -9.473001 -12.16972 0 -12.16972 -11.0235 -8.392 0 -3.634 -1.7695 0 -5.7475 -5.964 0 -3.614 -1.7695 -4.535 0 
-5.2325 -2.855 -4.91 -8.670501 -16.41992 -15.80922 -4.6145 -5.237 -6.0705 -3.64 -9.333 -19.2735 -20.7768 -10.8905 -9.473001 -21.89532 -12.16972 -12.16972 -23.19322 -19.4155 -8.392 -3.634 -5.6845 -1.7695 -5.7475 -9.654 -5.964 -3.614 -5.479 -7.0185 -4.535 
-5.2325 -7.6455 -8.670501 -22.58762 -20.05942 -16.78422 -8.012501 -9.4335 -6.0705 -13.8866 -19.2735 -30.3008 -20.7768 -20.3635 -21.89532 -21.89532 -24.33944 -23.19322 -31.58522 -19.4155 -12.557 -5.6845 -5.6845 -7.853001 -9.654 -9.654 -10.2086 -5.479 -10.564 -7.0185 
-8.9405 -11.6464 -22.58762 -26.22712 -21.03442 -20.18222 -12.7652 -9.4335 -18.1219 -23.8271 -30.3008 -30.3008 -30.2498 -32.78582 -21.89532 -34.06504 -35.36294 -31.58522 -31.58522 -23.5805 -14.6075 -5.6845 -12.4174 -12.0315 -9.654 -14.1042 -12.0736 -10.564 -10.564 
-13.5526 -25.56352 -26.22712 -27.20212 -24.43242 -24.93492 -12.7652 -21.7433 -28.0624 -34.8544 -30.3008 -39.7738 -42.67212 -32.78582 -34.06504 -45.08854 -43.75494 -31.58522 -35.75022 -25.631 -14.6075 -12.4174 -16.5959 -12.0315 -14.1042 -15.9692 -17.1586 -10.564 
