-4.759 
n/a 
n/a 
n/a 
n/a 
-4.759 
n/a 
n/a 
n/a 
n/a 
-4.759 
n/a 
n/a 
n/a 
n/a 
-4.759 
n/a 
n/a 
n/a 
n/a 
-1.4985 -4.048 -1.7565 -1.4985 -3.7075 -2.7415 -4.099 -1.934 -1.4985 -5.3325 -3.7075 -2.186 -3.8825 -2.5045 -2.664 -3.784 -4.201 -1.7565 -7.26 -9.9965 -3.1435 -5.3435 -2.186 -13.468 -4.033 -4.114 -2.4945 -2.4265 -2.186 -10.2825 -4.323 -4.783 0 -1.4985 -4.1455 -4.625 -2.186 -5.859 -3.0755 -5.442 -4.197 -6.014 0 -1.4985 -5.2505 -4.2715 -2.4945 -5.8225 -3.0755 -5.608 -5.2505 -8.399 -1.756 -1.4985 -4.2105 -2.186 -8.768001 -3.0755 -5.4265 -6.1555 0 
-5.5695 -4.951 -2.4195 -4.6235 -6.2635 -6.304 -6.2005 -2.6125 -6.715 -8.7925 -5.825 -5.3085 -5.4165 -4.7305 -4.8555 -6.8605 -5.451 -8.638 -17.0938 -13.223 -7.486 -7.134501 -17.2944 -18.1446 -8.357 -5.5795 -6.009 -3.292 -11.7405 -11.839 -7.340001 -4.783 -1.4985 -4.870501 -7.172501 -6.276 -8.494 -9.2565 -8.323001 -9.4475 -7.061 -6.014 -1.4985 -6.823501 -9.330501 -5.7375 -8.485001 -8.320001 -8.795 -11.4035 -10.254 -9.874001 -3.0405 -5.327001 -6.2555 -11.399 -11.969 -8.3625 -12.1314 -6.1555 
-6.018 -6.421 -5.468501 -6.3545 -10.3745 -7.173501 -6.789 -7.698501 -10.085 -11.5332 -9.228001 -6.667 -7.609 -6.1725 -7.818501 -7.629 -11.3825 -19.5288 -20.7973 -17.5655 -8.828501 -21.8042 -21.8514 -22.4686 -9.93 -9.297001 -6.718 -12.974 -13.1765 -13.551 -7.340001 -6.5305 -4.870501 -7.785501 -8.5655 -12.31 -12.432 -14.4511 -12.4455 -12.8719 -7.061 -7.8745 -6.823501 -10.8069 -10.8935 -12.546 -12.589 -14.5118 -14.6469 -16.407 -11.8776 -11.1585 -6.725 -7.1355 -15.7385 -13.923 -15.8451 -15.296 -12.1314 
-6.82 -9.896501 -7.778001 -10.5635 -11.3472 -7.626501 -12.0796 -11.6839 -12.9121 -14.9362 -10.6545 -8.6195 -9.609501 -8.336 -7.972 -14.0353 -23.2006 -22.9303 -25.1398 -18.908 -23.5338 -25.9424 -26.1754 -24.0416 -13.7157 -9.995501 -15.5184 -13.2579 -15.1726 -13.4646 -9.541501 -9.103001 -7.785501 -9.125001 -14.7521 -16.0282 -18.4161 -18.868 -15.8699 -12.8719 -8.4855 -13.4813 -10.8069 -12.3699 -17.8054 -15.964 -19.1249 -20.7127 -19.6504 -18.0306 -13.1621 -14.843 -8.564 -16.9342 -17.6027 -20.1482 -23.5062 -15.296 
-10.485 -12.2858 -12.1924 -11.7684 -11.8002 -12.9185 -16.065 -14.511 -16.3151 -16.3627 -12.607 -10.259 -11.9078 -8.377 -14.1565 -25.2978 -26.4271 -27.2728 -26.4823 -33.6133 -27.672 -30.2664 -27.7484 -27.8273 -14.4142 -19.0945 -16.1615 -16.1746 -14.3052 -15.8943 -12.1524 -12.2098 -9.125001 -15.319 -18.3797 -21.8517 -22.5386 -22.2924 -15.8699 -14.2964 -14.2467 -17.4647 -12.3699 -19.2818 -21.12 -22.3983 -24.9768 -25.7162 -21.274 -19.3151 -16.8466 -16.682 -17.9352 -18.6972 -23.8279 -27.0817 -23.5062 
-3.7075 -5.0985 -3.645 -2.186 -1.934 -1.4985 -3.5085 -4.201 -2.5045 -9.194 -3.7805 -2.5045 -2.7625 -9.098001 -4.783 -2.186 -9.552 -4.323 -1.756 -4.0995 -4.783 0 -7.85 0 -2.5045 -6.1655 -1.4985 -4.197 -4.227 -2.186 -11.301 -11.309 -3.9115 -2.5045 -14.1945 
-9.579 -8.828001 -5.9915 -4.0835 -2.6125 -4.4755 -6.6405 -6.575 -12.5415 -12.472 -6.1675 -6.259501 -12.4555 -16.053 -6.6095 -12.352 -13.064 -6.396501 -5.71 -9.394001 -4.783 -7.3365 -7.3365 -2.5045 -10.0835 -8.1615 -5.478001 -5.2115 -6.593 -14.031 -22.7217 -16.4127 -6.4095 -16.0095 
-13.4089 -11.5437 -8.127001 -4.6915 -6.026 -7.313001 -9.464001 -16.6765 -15.5525 -15.186 -10.238 -15.9068 -19.3482 -18.1469 -16.2075 -16.8535 -15.3515 -10.451 -11.6981 -9.394001 -12.3217 -7.3365 -12.2716 -9.805 -10.947 -12.1695 -8.162001 -7.4795 -19.0107 -26.8973 -27.7988 -18.9107 -20.7123 
-16.1246 -13.6792 -8.713 -8.755501 -9.372001 -9.786 -18.2561 -19.647 -19.5178 -20.2231 -20.3967 -22.9431 -21.1747 -28.2339 -20.437 -18.927 -19.406 -16.4391 -11.6981 -17.3775 -12.3217 -12.2716 -19.7239 -10.677 -14.9279 -14.6259 -10.426 -19.9183 -31.2284 -31.4694 -30.2968 -33.5403 
-18.2601 -14.2652 -12.9358 -12.1953 -11.9534 -19.3269 -22.1478 -23.5079 -23.8491 -30.3818 -26.9216 -24.7696 -31.2617 -31.9744 -22.5105 -22.9815 -25.3941 -16.4391 -19.6816 -17.3775 -17.2568 -19.7239 -20.5959 -14.9279 -17.2839 -16.9487 -22.8648 -31.9754 -35.6399 -33.9674 -44.9264 
-7.969501 -3.5515 -1.7565 -3.7075 -2.3345 -5.3325 -3.837 -2.3335 -2.4265 -2.186 -19.0465 -8.8415 -2.5195 -1.4985 -3.995 -3.7805 -3.4905 -7.828001 -3.9745 -1.7565 -9.2465 -5.8815 -10.2825 -4.323 -7.85 0 -4.7885 -5.8815 -14.87322 -9.736501 -3.4905 -14.34122 -2.8635 -5.0595 -14.34122 
-12.19 -5.0325 -5.7275 -6.462 -7.752501 -9.296501 -4.933 -3.913 -3.292 -21.881 -28.4764 -9.9185 -3.1695 -4.712 -7.902 -7.922501 -9.8725 -11.3925 -4.5865 -11.046 -15.3784 -15.0275 -11.839 -11.809 -7.3365 -4.7885 -7.443501 -20.79722 -24.78172 -13.3006 -17.59482 -17.44832 -8.144501 -19.44332 
-13.5711 -8.651 -8.328501 -9.772 -12.3387 -10.8471 -6.4905 -4.5215 -24.6232 -32.3431 -29.8446 -10.3205 -6.2025 -8.606501 -12.3922 -13.11 -14.1168 -12.2393 -14.5838 -17.1779 -24.263 -16.6586 -18.9347 -12.104 -14.5241 -7.443501 -23.29122 -30.90772 -28.34582 -28.20132 -21.25472 -22.72932 -23.30942 
-17.6771 -11.5992 -12.0991 -14.7414 -13.8893 -12.4046 -6.863501 -26.1441 -34.2125 -33.4201 -30.2466 -13.3535 -10.1385 -13.4249 -17.8009 -18.7163 -15.2436 -22.2366 -20.7157 -26.0625 -25.5545 -25.2254 -18.8483 -19.2916 -17.2963 -23.29122 -33.02772 -34.47182 -43.24654 -31.06482 -26.53572 -37.89424 
-20.6507 -15.3698 -17.0685 -16.292 -15.4468 -12.7776 -28.5297 -35.7096 -35.2895 -33.8221 -33.2796 -17.2895 -15.0601 -18.8336 -23.186 -19.3283 -25.2409 -28.3685 -29.6003 -27.354 -34.8019 -25.305 -26.1155 -22.0638 -33.14402 -33.02772 -36.59182 -49.37254 -46.11004 -36.34582 -41.70064 
-4.072 -5.2125 -5.3325 -2.5195 -3.7075 -3.784 -1.7695 -3.995 -7.26 -5.3135 0 -1.756 0 -3.2555 0 -8.566 -2.9905 -4.2305 -7.828001 -4.445 -4.1165 -10.2825 -6.116 -4.653 -8.153501 -14.34122 -3.5725 -14.34122 
-8.5655 -11.0992 -8.418001 -6.1755 -8.406501 -6.3875 -5.497 -11.015 -12.4108 -5.3135 -1.756 -1.756 -3.2555 -3.2555 -8.144001 -12.1535 -7.932 -11.1885 -12.1895 -10.468 -12.246 -14.2875 -8.762 -13.7633 -23.11582 -18.15732 -19.24682 
-14.7306 -14.1847 -12.292 -10.209 -9.4165 -10.7624 -11.825 -16.6603 -12.8878 -6.490001 -1.756 -5.5235 -3.2555 -11.8887 -12.4717 -17.757 -14.9965 -17.1958 -18.4473 -18.411 -17.5814 -16.9133 -18.0319 -28.72562 -26.68832 -34.38984 
-17.8161 -18.0587 -16.3255 -11.219 -14.3986 -17.2888 -18.8877 -17.1923 -14.0643 -6.490001 -5.5235 -5.5235 -11.8887 -16.2164 -17.757 -24.8215 -20.6638 -23.2188 -27.5061 -25.2421 -21.893 -26.3766 -32.99422 -32.29812 -42.92084 
-21.6901 -22.0922 -17.3355 -16.2011 -20.925 -24.1531 -18.8877 -18.3688 -14.0643 -10.9421 -5.5235 -14.8072 -16.2164 -21.5017 -24.8215 -30.4888 -26.6868 -32.2776 -33.2214 -28.2445 -31.1629 -41.33892 -36.56672 -48.53064 
