-4.759 
n/a 
n/a 
n/a 
n/a 
-4.759 
n/a 
n/a 
n/a 
n/a 
-4.759 
n/a 
n/a 
n/a 
n/a 
-4.759 
n/a 
n/a 
n/a 
n/a 
-3.115 -2.3615 -4.594 -4.461 -2.8645 -3.7855 -1.7695 -2.5685 -1.4985 -4.61 -2.9705 -2.674 -4.3285 -2.3345 -4.698 0 -4.1485 -2.871 -2.95 -3.098 0 -1.934 -5.8085 -4.455 -4.567 -4.9055 -1.8085 -3.8225 0 
-4.312 -7.216001 -8.839001 -7.251501 -5.325 -4.793 -4.2305 -3.7015 -5.7515 -7.002 -4.904 -6.149 -5.495501 -6.4235 -4.698 -4.1485 -6.448 -4.919 -5.819 -3.098 -1.934 -7.6895 -9.865 -5.932001 -10.1595 -6.420001 -5.187 -3.8225 
-9.493 -11.7618 -12.1293 -9.6295 -6.841 -6.6305 -5.2 -7.2995 -8.052501 -8.229501 -8.278501 -9.067 -8.852 -6.4235 -8.5705 -6.448 -8.6405 -6.596 -5.819 -4.746 -7.6895 -10.5225 -10.041 -12.7581 -11.7474 -8.175 -5.187 
-14.1846 -15.0521 -14.5073 -11.2767 -8.575 -7.764 -9.575001 -9.6 -9.2425 -11.9532 -11.5447 -12.4723 -8.852 -9.873501 -10.6345 -8.6405 -10.8965 -6.596 -7.7275 -10.6735 -10.5225 -10.559 -16.8671 -14.346 -13.5024 -8.175 
-17.4749 -17.4301 -16.1545 -13.0107 -9.5595 -12.3732 -11.8359 -10.6485 -13.0878 -15.2194 -14.95 -12.4723 -12.4812 -12.0075 -12.827 -10.8965 -10.8965 -8.700001 -14.06 -13.5065 -10.559 -17.3851 -18.455 -16.101 -13.5024 
-4.455 -3.7285 -4.9775 -1.7695 -3.3725 -2.9995 -3.8225 -3.4765 -3.929 -3.3855 -3.7555 -3.826 -4.0735 0 -4.1485 -3.819 -1.934 -5.8085 -2.3345 -4.455 -4.567 0 
-8.380001 -7.821501 -5.224501 -4.7155 -6.861 -6.8265 -7.167 -4.589 -5.8195 -5.635 -8.285 -6.797501 -4.0735 -4.1485 -7.7045 -5.237 -7.6895 -8.335001 -6.6545 -5.932001 -4.567 
-12.7502 -8.229501 -6.992501 -7.318501 -8.774 -9.5775 -7.654 -6.297501 -8.387501 -10.688 -11.7283 -6.797501 -7.412001 -7.7045 -8.599501 -11.9299 -9.078501 -10.3745 -8.269 -5.932001 
-13.1582 -10.155 -8.877001 -9.389001 -12.0034 -10.3973 -9.545501 -8.792001 -13.4773 -14.1313 -11.7283 -10.155 -11.8132 -8.599501 -15.2832 -13.3189 -10.575 -10.386 -8.269 
-15.0837 -12.1509 -10.7595 -12.6018 -12.8232 -12.2888 -12.0558 -13.9236 -16.9206 -14.1313 -15.0858 -14.5562 -12.7082 -15.2832 -16.6722 -14.8154 -10.5935 -10.386 
-4.426 -1.7565 -1.4985 -3.6115 -4.7285 -4.1555 -3.147 -2.3615 -2.186 -3.5435 -3.84 -1.7565 -4.698 -1.7565 -3.383 -4.2595 0 -3.819 -1.7565 -4.455 -4.567 0 -4.455 -4.567 0 -5.8085 -1.934 -3.158 0 0 
-5.47 -2.4195 -4.081 -6.5495 -8.4455 -5.77 -5.445 -3.5005 -6.736501 -7.05 -4.881 -5.5475 -6.086 -5.5535 -5.3595 -4.2595 -3.819 -6.969 -6.1315 -5.932001 -4.567 -4.455 -5.932001 -4.567 -5.8085 -7.895 -5.7375 -3.158 0 
-5.9535 -5.180501 -6.670501 -9.978001 -9.541501 -8.02 -6.151 -8.117001 -10.164 -9.019001 -8.870501 -7.3905 -11.1776 -8.02 -5.3595 -7.6835 -6.969 -11.811 -7.2585 -5.932001 -7.7235 -5.932001 -5.932001 -9.643501 -7.895 -11.8377 -5.7375 -3.158 
-8.462501 -7.797 -10.054 -11.0524 -11.7915 -8.458501 -10.411 -11.7353 -12.5172 -10.311 -10.8201 -12.7107 -13.6441 -8.02 -8.710501 -11.3671 -11.811 -12.938 -7.2585 -7.8865 -8.4615 -5.932001 -10.634 -11.8098 -11.8377 -11.8377 -5.7375 
-10.2375 -11.2985 -11.1648 -13.3024 -12.23 -13.2313 -14.2757 -14.0885 -13.8092 -13.3558 -16.1403 -15.1772 -13.6441 -11.5434 -12.4409 -16.2091 -12.938 -12.938 -10.185 -8.496 -8.4615 -10.634 -12.8003 -15.7525 -11.8377 -11.8377 
-4.455 -4.3315 -3.7285 -4.9775 -1.7695 -3.1495 -3.9665 -4.1535 -2.3345 -4.698 0 -3.819 -4.455 -4.567 -4.9775 -2.871 -2.95 -1.934 -5.8085 0 
-11.0145 -8.9025 -7.821501 -5.224501 -4.7475 -7.472501 -8.061001 -4.843 -6.4235 -4.698 -3.819 -8.822001 -5.932001 -9.464001 -8.260501 -4.919 -4.54 -7.6895 -5.8085 
-15.5855 -13.2077 -8.229501 -10.2085 -9.134501 -12.2038 -8.6225 -7.489 -6.4235 -8.205501 -8.822001 -10.671 -10.3745 -12.936 -10.476 -6.684 -10.523 -7.6895 
-19.8907 -13.6157 -13.4521 -14.5955 -13.959 -12.7653 -11.2075 -7.489 -9.802501 -13.6109 -10.671 -15.1135 -14.0627 -15.1515 -12.241 -13.1226 -10.523 
-20.2987 -18.8383 -17.8391 -19.42 -14.5205 -15.3503 -11.2075 -10.5975 -15.2497 -15.4599 -15.1135 -18.8017 -16.2782 -16.9165 -18.6796 -13.1226 
