-4.759 
n/a 
n/a 
n/a 
n/a 
-4.759 
n/a 
n/a 
n/a 
n/a 
-4.759 
n/a 
n/a 
n/a 
n/a 
-4.759 
n/a 
n/a 
n/a 
n/a 
-2.8965 -3.2495 -3.699 -5.0075 -2.0935 -3.091 -3.5435 -2.186 -6.660501 -9.0865 -1.756 -8.576 -7.4635 -8.5755 0 
-5.5505 -6.0885 -9.0445 -6.867 -4.5345 -6.2165 -5.2365 -10.147 -16.654 -11.1415 -10.4765 -16.4223 -16.4936 -8.5755 
-8.839001 -10.6215 -11.03 -9.404 -7.873501 -7.588 -14.0345 -20.6677 -18.709 -19.862 -18.3228 -25.4524 -16.4936 
-13.4368 -12.607 -13.567 -10.7585 -9.925001 -16.6042 -24.5552 -22.7227 -27.4295 -27.7083 -27.3529 -25.4524 
-15.4223 -15.144 -14.9215 -12.81 -18.9974 -27.1249 -26.6102 -31.4432 -35.2758 -36.7384 -27.3529 
-7.2405 -10.7545 -1.756 -9.481001 -7.4635 -9.170501 -3.152 -3.074 -1.4985 -3.2495 -3.699 -4.269 -3.0695 -3.152 -3.9285 -1.934 -1.4985 -4.7485 
-18.602 -12.5105 -11.1415 -17.2389 -11.08 -12.7337 -5.0635 -4.6505 -4.1915 -6.0885 -7.761001 -5.369 -4.8015 -5.8345 -4.3695 -2.6125 -5.63 
-20.358 -21.896 -18.8994 -20.8554 -14.6432 -14.6452 -6.882501 -7.506001 -7.6165 -9.795501 -9.153501 -6.7845 -8.015501 -6.0645 -4.6845 -6.6965 
-29.7435 -29.6539 -22.5159 -24.4186 -16.5547 -16.4642 -8.9095 -11.0202 -11.4163 -11.3868 -10.554 -9.7915 -8.146501 -6.254 -8.9125 
-37.5014 -33.2704 -26.0791 -26.3301 -18.3737 -18.4912 -12.5503 -14.82 -13.0076 -12.7873 -13.561 -9.892 -8.304501 -10.194 

n/a 
n/a 
n/a 
n/a 
-1.934 -3.091 -4.373 -1.4985 -2.8965 -3.2495 -3.699 -4.269 -2.4945 -7.2405 -12.16972 -1.756 -7.31 -7.4635 -7.4685 
-4.2105 -6.539001 -6.3625 -3.928 -5.5505 -6.0885 -7.761001 -6.0385 -11.1632 -20.01722 -13.92572 -8.8255 -15.4201 -10.674 
-7.587 -8.057 -9.040501 -5.604 -8.839001 -9.795501 -9.558001 -15.3434 -23.93992 -21.77322 -20.99522 -17.1808 -18.6306 
-9.023001 -10.4945 -10.2335 -8.978001 -12.6108 -11.7913 -19.0059 -28.12012 -25.69592 -28.84272 -29.35052 -20.3913 
-11.4655 -11.6875 -13.6075 -12.7568 -14.6066 -21.2392 -31.78262 -29.87612 -32.76542 -37.19802 -32.56102 
