-4.759 
n/a 
n/a 
n/a 
n/a 
-4.759 
n/a 
n/a 
n/a 
n/a 
-4.759 
n/a 
n/a 
n/a 
n/a 
-4.759 
n/a 
n/a 
n/a 
n/a 
-2.8965 -3.699 -4.0505 -1.934 -4.373 -2.186 -10.278 -2.5045 -1.8085 -4.328 0 
-5.7205 -6.979 -5.7085 -6.372 -6.352 -11.8665 -11.856 -3.3625 -6.0785 -4.328 
-9.2425 -8.309 -10.8409 -8.286 -16.8691 -15.7367 -13.0574 -7.021501 -6.0785 
-10.46 -13.6086 -12.7549 -18.9799 -20.4305 -16.5947 -16.7164 -7.021501 
-16.0858 -15.5226 -23.4488 -22.5413 -21.2885 -20.2537 -16.7164 
-2.871 -2.645 -3.699 -4.328 -1.7695 -2.489 -4.4155 -1.934 -1.4985 -4.7485 -2.186 -11.7405 
-5.038 -5.093 -8.7775 -5.9795 -3.1405 -5.37 -5.528 -2.6125 -5.63 -6.68 -13.4055 
-7.592 -10.6923 -10.838 -7.4235 -6.5695 -6.7875 -5.9675 -6.6965 -7.240001 -18.6027 
-13.4895 -12.7528 -12.282 -11.3705 -7.771 -7.0715 -10.347 -8.653501 -19.2397 
-15.55 -14.1968 -16.229 -12.572 -8.151501 -11.7398 -12.304 -20.7872 
-3.571 -3.098 -4.1955 -5.594 -3.147 -2.186 -4.328 -14.019 0 
-5.5455 -8.094 -6.227 -7.535501 -4.4905 -7.7375 -15.108 -12.0385 
-10.0185 -9.723001 -7.6435 -8.533001 -10.3885 -18.2704 -14.2721 
-10.4635 -11.2625 -8.619 -14.7386 -22.158 -19.507 
-12.3368 -12.238 -14.911 -26.5081 -22.158 
-4.9695 -3.571 -3.699 -3.355 -2.186 -4.328 -10.278 
-9.063 -5.9465 -5.462 -5.3935 -7.7375 -12.984 
-10.375 -7.461 -7.2365 -11.3408 -18.0609 
-11.8895 -9.0885 -13.8566 -21.6642 
-13.517 -15.6854 -24.18 
