-4.759 
n/a 
n/a 
n/a 
n/a 
-4.759 
n/a 
n/a 
n/a 
n/a 
-4.759 
n/a 
n/a 
n/a 
n/a 
-4.759 
n/a 
n/a 
n/a 
n/a 
-3.8735 -2.186 -7.14 -4.4665 -4.828 -3.519 -1.934 -1.4985 -3.188 0 
-5.949 -9.712501 -10.451 -8.577001 -8.493 -5.3055 -2.6125 -3.619 -3.188 
-13.9893 -13.1773 -14.5615 -12.9478 -10.119 -5.863 -4.377 -3.619 
-17.4541 -17.2878 -18.9323 -14.5738 -10.6805 -7.186 -4.377 
-21.5646 -21.6586 -20.5583 -15.1353 -12.0035 -7.186 
-3.8735 -3.7875 -4.3365 -3.6135 -4.257 -1.934 -1.4985 -3.188 
-7.6775 -8.8675 -8.198501 -7.8085 -6 -2.6125 -3.619 
-12.9171 -13.2407 -12.8841 -9.684501 -6.687 -4.377 
-17.2903 -17.9263 -14.7601 -10.384 -7.729 
-21.9759 -19.8023 -15.4596 -11.426 
-3.8735 -2.674 -3.188 -3.383 -3.6135 -3.859 -4.0415 0 
-6.702 -7.193501 -7.2295 -5.8785 -7.6725 -8.185501 -4.0415 
-10.7175 -12.1076 -9.870001 -10.396 -13.0816 -8.185501 
-15.6316 -14.7481 -14.8111 -15.8051 -13.0816 
-18.2721 -19.6892 -20.2202 -15.8051 
-6.821 -2.8645 -1.4985 -4.3365 -4.1735 -4.257 -1.934 -1.4985 -3.188 0 
-9.453 -4.3545 -5.4085 -7.219 -7.8525 -6 -2.6125 -3.619 -3.188 
-10.9044 -8.3625 -7.492001 -10.2085 -8.4405 -6.687 -4.377 -3.619 
-14.9124 -9.040501 -10.4855 -10.521 -8.612 -7.729 -4.377 
-15.5904 -12.2312 -10.689 -10.5565 -8.6845 -7.729 
