-4.759 
n/a 
n/a 
n/a 
n/a 
-4.759 
n/a 
n/a 
n/a 
n/a 
-4.759 
n/a 
n/a 
n/a 
n/a 
-4.759 
n/a 
n/a 
n/a 
n/a 
-2.4265 -2.742 -2.489 -4.164 -3.757 
-4.095 -3.301 -5.190001 -8.563 
-4.601 -6.396 -9.223001 
-7.763 -10.768 
-12.315 
-3.074 -2.4265 -2.742 -5.432 -4.7755 -3.6615 0 
-5.653 -4.095 -6.493 -8.38 -7.0295 -3.6615 
-7.177501 -8.095 -9.818001 -9.2635 -7.0295 
-11.4369 -11.6418 -10.8835 -9.2635 
-14.9837 -12.7073 -10.8835 
-1.756 -3.321 -3.1435 -3.6615 -2.95 -1.7695 -2.95 
-4.0055 -6.1485 -7.2375 -7.514 -4.11 -4.9175 
-6.8305 -10.523 -11.4394 -8.837501 -4.996 
-11.6532 -14.7249 -12.7629 -9.72 
-15.8551 -16.0484 -13.6454 
-4.8215 0 -2.4265 -2.186 -3.321 -1.756 -3.0365 -4.287 
-4.8215 -2.4265 -3.292 -5.151 -5.537 -4.484 -8.2375 
-6.4335 -3.292 -6.1165 -8.2305 -6.595 -9.619501 
-7.101501 -6.1165 -8.607 -9.1625 -11.3327 
-10.3492 -8.607 -9.689501 -14.1688 
