-4.759 
n/a 
n/a 
n/a 
n/a 
-4.759 
n/a 
n/a 
n/a 
n/a 
-4.759 
n/a 
n/a 
n/a 
n/a 
-4.759 
n/a 
n/a 
n/a 
n/a 
-1.934 -4.6585 0 -12.3975 -5.9375 -2.5195 -7.539001 -7.751501 -7.716001 -1.756 -4.5485 -4.649 -7.539001 -7.751501 -7.716001 0 -8.316 0 
-5.8095 -4.6585 -10.234 -17.0443 -7.236501 -10.058 -7.818501 -7.826001 -9.329 -6.2885 -10.2925 -8.245501 -7.818501 -7.826001 -7.716001 -8.316 -8.316 
-5.8095 -13.1575 -15.4958 -16.7948 -15.4454 -10.3375 -7.852001 -9.467001 -14.0687 -12.3137 -13.889 -8.263 -7.852001 -7.826001 -10.1305 -8.316 
-15.3259 -20.4678 -16.9278 -25.1367 -15.7249 -10.371 -9.487 -14.2627 -20.0939 -15.9102 -13.9065 -8.2845 -7.852001 -10.131 -10.1305 
-22.4902 -21.7668 -25.1367 -25.4162 -15.7584 -12.006 -14.2971 -20.2879 -23.6904 -15.9277 -13.928 -8.2845 -10.131 -10.131 
-4.6585 -2.5195 -9.316501 -3.6825 -6.029 -6.3685 -8.411 -2.5195 -9.316501 -3.6825 -1.756 -4.673 0 -15.006 0 -4.673 -1.4985 -3.6825 0 
-7.4385 -12.5096 -13.238 -10.2035 -10.234 -15.6523 -9.335501 -12.5096 -13.238 -5.315 -6.585 -4.673 -12.9295 -12.9295 -4.673 -5.842 -4.87 -3.6825 
-17.7934 -16.4311 -19.382 -13.0665 -17.9693 -16.5768 -19.5866 -16.4311 -14.8705 -9.317 -6.585 -17.616 -11.328 -17.3845 -5.842 -8.8345 -4.87 
-21.7149 -22.5751 -22.7996 -22.8819 -19.0268 -26.8279 -23.5081 -18.0636 -18.8725 -9.317 -18.948 -17.6735 -17.6852 -19.1167 -8.8345 -8.8345 
-27.8589 -25.9927 -32.4374 -23.8064 -29.2779 -30.7494 -25.1406 -22.0656 -18.8725 -21.217 -18.187 -23.2346 -18.3781 -21.3706 -8.8345 
-1.934 -4.6585 -4.649 -12.16972 -9.778501 -3.355 -1.7695 -2.489 -3.9355 -1.4985 -12.16972 -12.205 -7.358 -3.531 -18.19872 
-5.8095 -8.8255 -17.44072 -21.94822 -13.2187 -5.411 -3.1405 -7.7095 -4.938 -14.76202 -24.45992 -19.9017 -10.4035 -21.15892 
-10.4505 -22.00042 -27.21922 -25.38842 -15.2747 -6.8795 -8.333501 -8.745001 -18.68532 -27.05222 -32.07142 -22.9472 -28.89682 
-23.62542 -31.77892 -30.65942 -27.44442 -16.7432 -12.4719 -9.261001 -22.68852 -30.97552 -34.66372 -35.11692 -41.54392 
-33.40392 -35.21912 -32.71542 -28.91292 -22.3356 -13.3994 -23.36572 -34.97872 -38.58702 -37.70922 -53.71364 
-2.8635 -3.1655 -6.3685 -4.622 -4.649 -7.539001 -7.751501 -7.716001 -8.316 -1.934 -4.6585 -4.021 -3.2615 -5.9505 -4.029 -2.356 -7.539001 -7.751501 -10.9655 -6.848001 
-5.2245 -8.175 -10.7495 -9.8785 -8.245501 -7.818501 -7.826001 -10.1305 -10.513 -5.8095 -9.1905 -5.5055 -7.9095 -7.400001 -6.337501 -10.451 -7.818501 -11.0805 -17.8135 
-8.4645 -12.777 -16.006 -13.475 -8.263 -7.852001 -10.131 -12.3275 -14.3885 -9.394501 -9.354 -9.9835 -8.331 -7.704 -14.7599 -10.7305 -11.9029 -17.9285 
-13.1995 -18.0335 -19.6025 -13.4925 -8.2845 -10.131 -12.328 -16.203 -17.9735 -9.537001 -13.9642 -10.6224 -8.389 -16.36 -15.0394 -14.8149 -18.7509 
-18.456 -21.63 -19.62 -13.514 -10.1305 -12.328 -16.2035 -19.788 -18.116 -14.1536 -14.6031 -10.6804 -17.0744 -16.6395 -19.1238 -21.6629 
