-4.759 
n/a 
n/a 
n/a 
n/a 
-4.759 
n/a 
n/a 
n/a 
n/a 
-4.759 
n/a 
n/a 
n/a 
n/a 
-4.759 
n/a 
n/a 
n/a 
n/a 
-4.447 -2.186 -1.4985 -3.699 -3.355 -1.934 -6.4735 -3.3435 0 
-6.643 -3.339 -5.264 -5.462 -4.8475 -9.423 -10.4185 -3.3435 
-7.88 -6.9335 -6.9145 -6.505 -13.0119 -13.535 -10.4185 
-11.8475 -7.7225 -8.783 -14.9698 -17.1239 -13.535 
-12.6365 -9.5115 -17.4132 -19.0818 -17.1239 
-4.447 -5.818 -1.8085 -5.659 -3.9825 -1.934 -1.4985 -3.3435 -1.7565 -5.1845 -3.1385 
-10.647 -6.460001 -6.1905 -6.4015 -4.624 -2.6125 -4.6745 -4.7005 -6.580501 -7.4095 
-11.289 -8.818001 -6.563001 -6.569 -5.1565 -5.4705 -5.03 -9.977501 -8.684001 
-13.647 -9.645 -6.650001 -7.048 -7.506001 -5.757 -10.4035 -11.9258 
-14.474 -9.778001 -7.119 -9.404501 -7.598001 -11.4425 -12.3518 
-4.447 -2.186 -3.383 -3.699 -3.9825 -2.0935 -9.6365 0 
-6.643 -4.438 -5.014 -5.406 -5.5805 -10.75 -9.6365 
-8.794001 -5.451 -6.7945 -6.897 -14.555 -10.75 
-10.419 -10.028 -8.254001 -16.0131 -14.555 
-15.1792 -11.2265 -17.5281 -16.0131 
-4.447 -4.098 -1.8085 -3.4155 -3.5015 -1.934 -5.1845 -3.1385 -2.229 -3.3435 0 
-8.0345 -5.1595 -4.0495 -5.4415 -4.704 -6.564 -7.4095 -4.6125 -5.0415 -3.3435 
-9.1825 -7.597 -5.53 -7.7375 -9.375501 -10.0125 -9.0015 -7.3195 -5.0415 
-11.7996 -9.6273 -7.895501 -12.6042 -13.0606 -11.7247 -12.0067 -7.3195 
-13.8299 -11.9928 -12.8322 -16.2893 -14.7728 -14.7299 -12.0067 
