-4.759 
n/a 
n/a 
n/a 
n/a 
-4.759 
n/a 
n/a 
n/a 
n/a 
-4.759 
n/a 
n/a 
n/a 
n/a 
-4.759 
n/a 
n/a 
n/a 
n/a 
-1.4985 -4.8565 -3.074 -3.9535 -1.7695 -2.9645 -2.3615 0 
-5.561 -7.987 -6.3685 -5.098001 -3.812 -4.419 -2.3615 
-8.309 -11.5271 -7.085 -6.847 -4.966 -4.419 
-11.9571 -12.2436 -8.5745 -8.161501 -4.966 
-12.6736 -13.7331 -10.1225 -8.161501 
-1.934 -4.2735 -4.8005 -3.515 -1.7695 -2.489 -3.2955 
-6.9265 -10.0285 -7.921 -5.2145 -3.1405 -3.979 
-13.1335 -13.149 -9.4525 -6.778501 -4.7755 
-16.254 -14.6805 -11.1297 -9.08 
-17.7855 -16.3577 -13.4312 
-4.021 -4.809 -3.515 -2.8645 -3.2955 -2.3615 0 
-9.938001 -7.9605 -5.4975 -5.798 -5.544 -2.3615 
-13.1473 -9.859 -8.136001 -7.108 -5.544 
-15.0458 -12.7117 -9.378 -7.108 
-17.8985 -13.9537 -9.378 
-8.092 -3.6825 -2.4945 -3.074 -3.2955 -2.3615 -4.021 
-12.4477 -6.5395 -4.4205 -5.43 -5.544 -6.698 
-15.3047 -8.566 -6.2345 -7.460001 -10.2353 
-17.3312 -10.4618 -8.9665 -12.2923 
-19.227 -13.1938 -14.109 
