-4.759 
n/a 
n/a 
n/a 
n/a 
-4.759 
n/a 
n/a 
n/a 
n/a 
-4.759 
n/a 
n/a 
n/a 
n/a 
-4.759 
n/a 
n/a 
n/a 
n/a 
-3.5515 -1.7565 -3.9685 -4.257 -3.3985 -3.814 -1.934 -4.288 -2.264 -3.5715 -5.0345 -2.9705 -2.5045 -4.318 -3.9115 -4.333 -5.058 -4.795 -5.21 -1.756 -5.257 -2.264 -1.4985 -3.3755 -1.7695 -4.3685 0 
-5.0325 -5.7125 -6.804501 -7.925 -7.503 -6.114 -5.1975 -6.5315 -4.917 -7.2705 -8.1045 -5.8595 -6.5835 -6.342501 -8.813001 -7.289001 -8.660501 -7.5 -6.564 -6.9085 -7.423501 -2.9195 -4.057 -3.992 -5.8915 -4.3685 
-9.054 -8.829 -10.426 -10.115 -8.998501 -9.776001 -6.8135 -8.615 -10.218 -9.7325 -11.1663 -10.5371 -9.0605 -9.856501 -12.1172 -10.66 -9.443001 -8.337501 -8.5655 -9.1615 -8.009001 -5.120501 -5.0925 -8.102 -5.8915 
-12.2317 -12.6747 -12.616 -11.7227 -12.8385 -11.4646 -8.897 -14.1324 -12.68 -12.9173 -15.8439 -13.0141 -12.8137 -13.5423 -15.4882 -11.4425 -10.719 -10.543 -11.1367 -9.599501 -10.5745 -5.7495 -9.179501 -8.102 
-16.0774 -14.8647 -14.2237 -15.5627 -14.5271 -13.5481 -14.452 -16.5944 -15.8648 -17.5949 -18.3209 -16.7673 -16.4995 -16.9133 -16.2707 -12.7185 -12.9245 -13.1142 -11.5747 -12.165 -11.2035 -9.496 -9.179501 
-17.116 -1.4985 -3.3755 -2.0935 -3.8275 -1.7695 -3.9465 -1.4985 -4.333 -7.591001 -5.3675 -7.361001 -1.756 -3.8385 -7.361001 -1.756 -8.679001 -2.264 -4.288 -2.264 -3.5715 -5.0345 
-14.6965 -4.057 -4.9855 -5.919001 -5.9455 -5.910501 -5.8695 -5.4585 -12.9274 -13.5663 -13.9589 -8.609501 -5.517 -12.1453 -8.609501 -10.513 -10.2485 -6.900001 -6.5315 -4.917 -7.2705 
-14.4357 -5.619 -8.754001 -8.086 -9.588 -7.422501 -10.181 -14.5585 -18.9027 -22.1577 -15.2074 -12.5457 -14.6274 -13.3938 -17.5417 -12.0825 -15.0359 -9.302501 -8.615 -10.218 
-16.5967 -8.844501 -10.4115 -11.9403 -11.1644 -11.9284 -19.281 -20.5338 -27.4941 -23.4062 -19.1436 -21.6561 -15.8759 -22.326 -19.1112 -16.8699 -17.4384 -11.5698 -14.1324 
-20.7316 -10.5866 -14.5118 -13.5167 -15.6703 -21.0284 -25.2563 -29.1252 -28.7426 -27.3424 -28.254 -22.9046 -24.8081 -23.8955 -23.8986 -19.2724 -19.7057 -17.0872 
-2.264 -1.4985 -3.3755 -1.7695 -3.8275 0 -3.9465 -4.333 -4.257 -4.101 -1.7695 -4.288 -4.795 -5.148 -1.756 -5.1105 -1.934 -5.0345 
-2.9195 -4.057 -3.992 -5.686 -3.8275 -3.9465 -8.464001 -8.705501 -7.898 -4.6905 -5.845 -8.825001 -8.391001 -6.4605 -6.645 -7.1365 -6.337 
-5.120501 -5.0925 -8.389501 -5.686 -7.7435 -8.464001 -13.6113 -12.5513 -8.532001 -7.353001 -10.1675 -12.675 -9.3465 -8.9265 -8.318501 -12.0179 
-5.7495 -8.9175 -8.389501 -9.684501 -12.5992 -13.6113 -17.4571 -13.1853 -11.4129 -12.3115 -14.3627 -13.6305 -11.9503 -10.7872 -13.4391 
-9.331501 -8.9175 -12.4794 -14.6634 -17.7465 -17.4571 -18.0911 -16.0662 -16.3714 -16.5067 -15.3182 -16.2343 -13.811 -15.9078 
-4.795 -3.8385 -5.21 -1.756 -4.799 -5.21 -1.756 -4.957 -3.222 
-8.094 -9.120501 -6.564 -6.383 -9.027 -6.564 -5.9715 -6.061501 
-14.3014 -10.61 -9.836 -11.0748 -10.5876 -10.2865 -7.4255 
-15.7909 -13.882 -14.9518 -12.6354 -14.3101 -11.7405 
-19.0629 -18.9978 -16.5124 -16.3579 -15.7641 
