-4.759 
n/a 
n/a 
n/a 
n/a 
-4.759 
n/a 
n/a 
n/a 
n/a 
-4.759 
n/a 
n/a 
n/a 
n/a 
-4.759 
n/a 
n/a 
n/a 
n/a 
-3.074 -3.2615 -1.4985 -3.9785 -3.7515 -3.8405 0 -12.16972 -8.7045 -4.5485 -2.664 -3.594 -4.571 -2.9705 -3.251 -2.461 -3.748 -3.9355 -1.934 -5.632 
-6.623 -4.032 -4.496 -6.294 -7.549 -3.8405 -12.16972 -20.87422 -14.0798 -6.4995 -5.5895 -7.396 -7.917 -5.153 -6.273 -5.084001 -6.982 -5.415 -8.051001 
-7.397501 -7.621 -7.3835 -9.485001 -7.549 -17.01262 -20.87422 -26.24952 -16.0308 -9.554501 -10.238 -11.2068 -10.292 -8.408001 -8.0185 -8.724001 -8.2705 -12.305 
-11.0891 -10.2125 -9.800501 -9.485001 -21.01112 -25.71712 -26.24952 -28.20052 -19.0858 -14.3618 -14.0488 -13.5818 -13.547 -10.382 -12.5105 -9.874001 -15.4005 
-13.6806 -12.6295 -9.800501 -22.96332 -29.71562 -31.09242 -28.20052 -31.25552 -23.8931 -18.1726 -16.4238 -16.8368 -15.521 -14.874 -13.6605 -17.0846 
-1.934 -5.632 0 -8.6555 -2.229 -3.452 -3.251 -2.461 -3.748 -3.9355 
-8.051001 -5.632 -8.6555 -10.985 -5.1815 -6.8535 -6.273 -5.084001 -6.982 
-8.051001 -14.8585 -10.985 -13.9375 -8.242001 -10.3475 -8.0185 -8.724001 
-17.5435 -17.188 -13.9375 -16.998 -11.8112 -12.093 -12.5105 
-19.873 -20.1405 -16.998 -20.5672 -13.5567 -16.585 
-3.5725 0 -3.882 -3.9785 -3.8405 -1.7565 -5.632 -7.0455 -4.571 -3.251 -2.645 -3.1575 -2.461 -3.748 -3.9355 
-3.5725 -3.882 -7.285 -7.447001 -4.563 -8.0185 -13.2485 -12.3317 -9.094 -5.580501 -3.72 -5.3295 -5.084001 -6.982 
-7.3735 -7.285 -10.115 -8.353001 -9.2955 -16.0522 -18.5347 -16.8547 -11.4287 -6.1815 -5.569 -6.589001 -8.724001 
-10.9931 -10.115 -11.2568 -13.4983 -18.3354 -21.3384 -23.0577 -19.1894 -12.0297 -8.059 -6.6175 -9.838 
-13.8231 -11.2568 -16.4021 -22.5382 -23.6216 -25.8614 -25.3924 -19.7904 -13.9072 -9.231001 -9.8415 
-3.882 -1.934 -5.632 -4.662 -3.8755 -1.8085 -4.421 -3.213 -2.9705 -4.4015 -5.6595 -1.7565 -3.54 -3.748 -3.9355 
-5.1945 -8.051001 -10.622 -9.1675 -5.0255 -4.9295 -6.71 -5.823 -8.319501 -10.4054 -8.969 -4.819 -6.169001 -6.982 
-10.459 -13.307 -15.1275 -10.3965 -7.6855 -7.832 -9.2545 -11.7626 -14.5904 -13.7149 -12.1401 -7.1555 -9.2025 
-15.715 -17.8125 -16.3565 -13.0565 -10.078 -10.04 -15.2555 -18.0335 -17.8999 -16.886 -14.4766 -10.459 
-20.2205 -19.0415 -19.0165 -15.449 -12.3878 -16.094 -21.5264 -21.343 -21.071 -19.2225 -17.7801 
