-4.759 
n/a 
n/a 
n/a 
n/a 
-4.759 
n/a 
n/a 
n/a 
n/a 
-4.759 
n/a 
n/a 
n/a 
n/a 
-4.759 
n/a 
n/a 
n/a 
n/a 
-4.8315 0 -5.7565 -5.1845 -3.1385 -2.4945 -3.8825 -1.934 -4.0725 -5.314 -3.16 -3.609 -1.756 -4.7475 -1.7695 -4.792 -2.356 -3.277 -4.0725 -5.314 -4.0445 -2.742 -2.489 -3.989 0 
-4.8315 -5.7565 -12.2542 -7.4095 -4.588 -5.478001 -4.9695 -5.9005 -8.409 -9.164001 -4.601 -5.1065 -5.337 -6.695001 -5.504 -5.0295 -4.76 -8.1645 -8.409 -7.8625 -6.2155 -3.301 -5.447001 -3.989 
-11.1415 -12.2542 -14.4792 -8.7805 -8 -5.959001 -9.301001 -10.361 -10.361 -10.7605 -5.8335 -8.667001 -7.0405 -10.7623 -5.6635 -6.949 -9.894501 -12.6782 -10.4265 -10.718 -6.8095 -5.9645 -5.447001 
-17.6392 -14.4792 -15.8502 -12.4099 -8.8575 -10.4265 -13.7615 -12.313 -13.0727 -11.993 -10.031 -10.564 -11.2138 -10.9218 -7.469501 -12.3289 -14.4082 -14.6957 -13.3752 -11.312 -8.6625 -5.9645 
-19.8642 -15.8502 -19.4796 -13.2674 -13.5248 -14.887 -15.7135 -15.0247 -14.3052 -16.1905 -12.012 -14.7373 -11.3733 -12.7278 -12.9312 -16.8426 -16.4257 -17.6444 -13.9692 -13.165 -8.6625 
-3.321 0 -12.16972 -6.4735 -2.4945 -4.06 -1.934 -3.3715 -3.6885 -3.6445 -2.925 -3.764 -2.5685 -3.6885 -8.9285 
-3.321 -12.16972 -18.64322 -7.8895 -5.1305 -4.483 -4.622 -7.545 -7.6075 -6.6375 -8.047001 -6.4515 -6.596 -13.8194 
-16.39912 -18.64322 -20.05922 -10.8017 -5.5445 -7.816501 -8.771001 -12.018 -11.1213 -11.9763 -10.7495 -11.009 -17.6635 
-22.87262 -20.05922 -22.97142 -11.2157 -8.351501 -12.3721 -13.4174 -15.5318 -16.4601 -14.6788 -15.307 -22.0765 
-24.28862 -22.97142 -23.38542 -14.0227 -12.9681 -17.0185 -16.9312 -20.8706 -19.1626 -19.2363 -26.3745 
-4.8315 -5.7565 -8.27 -2.4945 -5.1035 -1.934 -3.948 -4.0165 -5.8795 -6.669 -3.277 -3.0365 -2.186 -1.8085 -4.023 -3.6885 -3.6005 -2.0935 -4.718 0 
-11.1415 -15.3397 -9.5465 -6.817501 -6.408501 -5.024 -7.178 -9.320001 -11.3495 -8.383 -5.698501 -3.66 -3.164 -5.7065 -7.9425 -7.4405 -4.705 -6.6315 -4.718 
-20.7247 -16.6162 -13.9029 -7.950001 -8.959001 -8.2205 -10.8775 -15.1406 -13.8306 -11.0617 -6.41 -4.218 -6.2145 -9.727501 -12.1951 -8.4925 -8.9185 -6.6315 
-22.0012 -20.9726 -15.0354 -10.218 -12.3497 -11.6174 -17.0591 -16.9297 -16.6145 -11.7732 -7.017001 -8.124001 -10.3675 -14.1687 -13.2471 -12.8834 -8.9185 
-26.3576 -22.1051 -17.3034 -13.6087 -15.9742 -17.9022 -18.8176 -19.7136 -17.326 -12.3802 -11.0668 -12.4784 -14.8087 -15.2207 -17.638 -12.8834 
-4.1715 -2.3335 0 -3.0365 -2.4945 -3.845 -1.7565 -5.3905 -8.27 -3.864 -2.264 -3.948 -3.6885 -3.609 -3.0365 -2.742 -2.489 -1.8085 -4.4925 -1.7565 -1.8085 -7.761001 -4.0445 -1.7695 -4.7875 -3.277 0 
-5.74 -2.3335 -3.0365 -3.688 -7.126501 -4.13 -7.8395 -14.8011 -12.5608 -6.0565 -5.505 -7.448501 -7.382501 -6.6555 -4.668 -3.301 -3.799 -5.465 -5.5365 -3.2595 -7.2 -10.187 -4.6 -5.2185 -7.0235 -3.277 
-5.74 -4.2925 -3.688 -7.196001 -7.285501 -11.0654 -17.3293 -19.0919 -14.7533 -8.5525 -9.375501 -10.382 -10.0855 -8.318501 -4.759501 -4.7705 -6.864501 -6.2265 -6.649 -8.634501 -10.8305 -10.038 -8.4825 -7.3855 -7.0235 
-7.3215 -4.9395 -7.196001 -7.3075 -14.4673 -20.5552 -21.6201 -21.2844 -17.2493 -12.9212 -12.382 -13.085 -12.0479 -8.4355 -5.317501 -7.7185 -7.8715 -7.6135 -12.9385 -11.697 -11.144 -14.9118 -10.8059 -7.3855 
-7.885 -8.5045 -7.3075 -14.5035 -23.9571 -24.846 -23.8126 -23.7804 -21.618 -15.9277 -15.085 -15.0474 -12.1649 -9.074501 -8.106501 -8.669001 -9.174001 -14.3192 -15.7048 -12.9269 -15.6375 -17.2352 -10.8059 
