-4.759 
n/a 
n/a 
n/a 
n/a 
-4.759 
n/a 
n/a 
n/a 
n/a 
-4.759 
n/a 
n/a 
n/a 
n/a 
-4.759 
n/a 
n/a 
n/a 
n/a 
-2.8195 -4.259 -3.325 -4.3665 -4.602 -5.192 -4.443 -1.4985 -3.8355 -4.923 -2.186 -1.4985 -3.9005 -4.0195 -1.7565 -1.4985 -3.0835 -1.756 -3.6115 -3.188 -3.8275 
-6.433001 -6.742001 -8.4385 -8.973501 -6.598001 -8.937 -5.627501 -5.151 -6.534 -7.3455 -3.339 -4.797 -7.779 -4.874001 -2.4195 -3.535 -4.7735 -5.059 -5.7875 -4.801 
-8.977 -13.0167 -13.6583 -10.186 -10.1425 -9.959001 -9.541501 -8.283501 -8.594501 -8.327001 -6.4005 -7.944 -7.988501 -5.635 -4.6785 -5.2435 -5.238 -7.489 -5.8365 
-15.6509 -18.2365 -14.8708 -13.8621 -11.1223 -13.873 -13.0432 -10.6312 -9.7705 -11.5585 -8.7555 -8.0895 -8.574501 -8.491501 -6.114 -5.593 -7.56 -8.1695 
-20.8707 -19.449 -18.5469 -14.8419 -15.0363 -17.3747 -15.3909 -11.8072 -13.045 -13.9135 -8.8345 -8.638 -11.5718 -10.2275 -6.264 -7.5985 -8.509001 
-1.934 -3.676 0 -10.314 -6.289001 -4.0375 -4.254 -3.325 -1.4985 -4.602 -7.7015 -4.776 -2.3335 -1.4985 -4.1975 -4.919 -2.186 -1.4985 -4.432 -4.031 -2.0935 -3.0835 -1.756 -3.6115 -3.188 -3.8275 0 
-4.7985 -3.676 -10.2435 -17.1581 -9.613501 -8.6005 -6.887 -3.898 -6.263 -9.9925 -13.0267 -5.186 -3.3515 -5.6635 -8.793 -7.4845 -3.339 -5.268001 -7.466001 -4.8935 -5.3095 -4.7735 -5.059 -5.7875 -4.801 -3.8275 
-4.7985 -14.57 -17.3385 -20.663 -14.1765 -11.4901 -7.4385 -9.209001 -12.4411 -15.3177 -13.4367 -5.7955 -7.5825 -9.571 -11.6425 -8.5675 -6.747 -7.680501 -7.7965 -8.9245 -7.064 -5.238 -7.489 -5.8365 -4.801 
-16.3655 -21.665 -20.663 -25.226 -17.0661 -12.0416 -13.1613 -15.5887 -17.7663 -15.7277 -14.0462 -9.5755 -11.9404 -13.6371 -12.7255 -12.0981 -8.347 -8.009501 -11.9949 -10.6684 -7.318 -7.56 -8.1695 -5.8365 
-23.4605 -24.9895 -25.226 -28.1156 -17.6176 -17.7644 -19.541 -20.9139 -18.1763 -16.3372 -17.8262 -14.275 -16.0065 -14.7201 -16.2561 -13.6981 -8.8915 -12.3235 -13.7388 -10.9224 -10.634 -8.509001 -8.1695 
-12.16972 -4.564 -3.0695 -4.254 -2.5045 -2.8195 -4.259 -3.325 -1.4985 -4.1 -1.7565 -4.602 -5.192 0 -2.9805 -4.1585 -2.3335 -3.535 -4.031 -2.0935 -1.4985 -3.188 -3.8275 -2.3085 -1.756 -3.188 -3.8275 -3.741 -2.7415 -4.1975 -5.2765 0 
-16.73372 -7.48 -5.734 -5.522 -6.1405 -6.433001 -6.742001 -3.898 -5.0695 -5.164001 -6.2925 -6.598001 -5.192 -2.9805 -5.319 -5.438 -7.111 -5.8145 -4.8935 -2.9725 -3.619 -4.801 -5.57 -5.013 -5.351 -4.801 -5.1015 -6.388 -6.982 -9.869501 -5.2765 
-19.64972 -10.5907 -7.043 -9.830501 -8.123 -8.977 -7.818501 -6.657 -5.5715 -10.553 -7.816 -6.598001 -7.958501 -5.319 -7.837501 -10.3675 -8.97 -6.2975 -5.596 -5.522 -6.377 -5.685 -6.7795 -7.515 -6.7015 -5.1285 -7.1905 -10.9055 -13.6964 -9.869501 
-22.76042 -11.8997 -11.4337 -11.8848 -10.2335 -9.42 -11.1349 -6.859 -11.2593 -12.0765 -7.816 -8.9455 -10.022 -7.837501 -12.8044 -12.2265 -9.575001 -6.9575 -8.842 -8.055501 -7.2745 -6.79 -7.5305 -7.528501 -6.856501 -7.2025 -12.0336 -17.6199 -13.6964 
-24.06942 -16.2904 -13.488 -13.9953 -10.6765 -13.0444 -11.3369 -12.5072 -12.7828 -12.0765 -9.818001 -11.0624 -12.5895 -12.8044 -14.6634 -12.8315 -9.828501 -10.2695 -11.7389 -8.5985 -8.6835 -7.5315 -7.532 -7.5315 -8.812 -12.0626 -18.748 -17.6199 
-3.676 -2.229 -4.602 -10.1165 -4.259 -4.335 -10.7895 -5.1605 -1.756 -3.8355 -4.116 -3.0835 -3.8275 -1.756 -3.6115 -3.188 -3.8275 -3.9005 -1.7565 -4.2895 0 
-4.593 -7.022501 -15.7587 -14.5281 -9.1745 -16.0937 -15.95 -7.051 -5.0985 -8.8135 -7.6095 -7.0425 -5.1855 -5.059 -5.7875 -4.801 -8.489 -6.763 -5.5605 -4.2895 
-10.485 -18.6662 -20.1703 -19.4436 -21.084 -21.2542 -17.8405 -10.9053 -9.880501 -12.585 -12.0365 -8.649 -8.722 -7.489 -5.8365 -8.8435 -11.8639 -9.597 -5.5605 
-22.1287 -23.0778 -25.0858 -31.3531 -26.2445 -23.1447 -21.6948 -15.6873 -14.2208 -17.012 -13.643 -12.3025 -9.1595 -8.1695 -9.742001 -12.8802 -14.6979 -9.597 
-26.5403 -27.9933 -36.9953 -36.5136 -28.135 -26.999 -26.4768 -20.0276 -18.6478 -18.6185 -17.2965 -12.74 -9.167001 -12.1572 -14.0437 -15.7142 -14.6979 
