-4.759 
n/a 
n/a 
n/a 
n/a 
-4.759 
n/a 
n/a 
n/a 
n/a 
-4.759 
n/a 
n/a 
n/a 
n/a 
-4.759 
n/a 
n/a 
n/a 
n/a 
-1.4985 -4.622 -4.3755 -1.7565 -1.4985 -3.995 -4.1335 -4.151 -4.5775 -3.851 -1.7695 -3.3715 -4.246 -3.115 -5.637 
-5.221 -7.373 -4.5345 -2.4195 -4.712 -8.868 -8.280001 -7.3755 -8.225 -4.0015 -5.0445 -5.928 -6.609 -8.870501 
-7.6495 -7.6375 -4.799 -5.2205 -9.160001 -13.3647 -10.361 -11.47 -8.255001 -6.9725 -7.382 -8.192501 -12.6839 
-7.829 -7.765 -7.8425 -10.459 -13.7985 -15.4457 -14.4555 -11.5 -11.4676 -7.649 -9.488001 -14.5506 
-7.9085 -10.485 -13.5916 -15.0975 -15.8795 -19.5402 -14.4855 -14.7126 -12.1441 -9.632501 -15.8533 
-1.4985 -4.622 -4.3755 -1.7565 -1.4985 -3.995 -2.186 -3.958 -4.5775 -3.402 -2.264 -5.5205 -3.9455 -5.637 0 -3.9455 -3.892 -2.9705 -5.079 -1.4985 -5.7565 -3.9665 -1.756 -1.4985 -6.3215 -3.9455 -3.892 
-5.221 -7.373 -4.5345 -2.4195 -4.712 -5.7465 -5.228 -8.2735 -8.179001 -3.793 -8.5065 -10.0285 -7.6405 -5.637 -3.9455 -7.344501 -6.314 -7.948501 -6.045001 -6.4235 -6.969501 -5.324 -3.0405 -6.6525 -8.35 -7.344501 
-7.6495 -7.6375 -4.799 -5.2205 -6.1195 -8.942 -9.179001 -12.203 -8.238001 -9.7955 -13.4665 -13.8323 -7.6405 -8.6155 -7.344501 -9.285501 -11.8914 -8.742001 -11.6408 -7.3955 -8.2945 -6.4475 -8.301001 -8.609 -10.6885 
-7.829 -7.765 -7.8425 -6.912 -9.236501 -13.307 -13.2141 -12.262 -14.4099 -15.3205 -17.2703 -13.8323 -10.6605 -12.3229 -9.285501 -14.9089 -12.6849 -14.4098 -12.6128 -8.7565 -8.897 -12.0352 -10.5425 -10.688 
-7.9085 -10.485 -9.456 -10.2135 -13.8549 -17.3421 -13.2731 -18.4339 -19.9349 -19.1243 -17.2703 -16.8523 -14.3679 -14.2639 -14.9089 -15.7024 -18.3527 -15.3818 -13.9738 -9.127501 -14.5983 -14.2767 -12.5075 
0 -4.506 0 0 0 -5.637 0 0 -4.541 -4.7885 -4.2205 -4.622 -3.7575 -4.257 -2.186 -3.383 -3.976 
-4.506 -4.506 0 0 -5.637 -5.637 0 -4.541 -8.475 -8.783501 -8.200001 -6.88 -7.816 -6.1085 -4.438 -8.599 
-4.506 -4.506 0 -5.637 -5.637 -5.637 -4.541 -8.475 -13.733 -13.2276 -11.1836 -11.7099 -9.498501 -8.378 -9.477501 
-4.506 -4.506 -5.637 -5.637 -5.637 -9.766001 -8.475 -13.733 -18.1771 -16.2112 -16.0135 -13.3924 -11.819 -13.6453 
-4.506 -10.75 -5.637 -5.637 -9.766001 -10.378 -13.733 -18.1771 -21.1607 -21.0411 -17.696 -15.7129 -17.0863 
-5.0065 -3.9665 -2.186 -3.299 -1.934 -1.4985 -5.637 -4.3755 0 
-7.7395 -5.825 -5.5155 -5.4165 -2.6125 -6.3745 -9.511 -4.3755 
-9.1 -9.081501 -6.607 -6.0425 -7.355 -9.752001 -9.511 
-12.4503 -10.317 -7.409 -11.2706 -10.7823 -9.752001 
-13.6858 -11.119 -12.7879 -14.6979 -10.7823 
