-4.759 
n/a 
n/a 
n/a 
n/a 
-4.759 
n/a 
n/a 
n/a 
n/a 
-4.759 
n/a 
n/a 
n/a 
n/a 
-4.759 
n/a 
n/a 
n/a 
n/a 
-1.4985 -3.1385 -3.152 -4.446 -1.7565 -1.4985 -4.248 -4.866 -2.9705 -5.5785 -4.172 -1.934 -3.502 -3.976 0 
-4.2575 -5.219 -6.264501 -4.7305 -2.4195 -5.2845 -7.309 -7.322001 -8.686001 -8.4195 -6.482 -4.8155 -4.3935 -3.976 
-6.415 -7.856 -6.4315 -5.193 -6.413001 -7.857501 -9.726 -13.3489 -10.674 -10.4265 -9.278501 -5.365 -4.3935 
-9.3745 -7.987 -6.789001 -9.382 -8.603001 -10.304 -15.8031 -15.3369 -12.681 -13.223 -9.397501 -5.365 
-9.487 -8.394501 -10.9976 -11.523 -11.0273 -16.3811 -17.7911 -17.3439 -15.4775 -13.342 -9.397501 
-4.1865 -4.4455 -2.7455 -1.4985 -3.948 -4.7035 -4.877 -2.3345 -5.5785 -1.934 -3.502 -3.976 0 
-9.3475 -5.9405 -3.637 -4.7695 -8.400001 -10.4765 -5.7435 -7.736501 -7.410501 -4.8155 -4.3935 -3.976 
-10.9463 -6.518001 -6.511 -9.248501 -14.5882 -11.343 -10.061 -9.123001 -8.964001 -5.365 -4.3935 
-11.5238 -9.583 -11.283 -15.5141 -15.4547 -15.6605 -11.5701 -10.3675 -8.991 -5.365 
-14.5888 -14.4124 -17.5486 -16.3806 -19.7722 -17.1696 -12.8146 -10.379 -8.991 
-4.1865 -3.1385 -4.0555 -1.7695 -3.3785 -1.4985 -4.931 -6.7125 -3.5745 -1.934 -3.502 -3.976 
-6.7955 -6.3625 -4.7475 -4.1685 -4.6165 -6.1505 -10.862 -9.0745 -5.509 -4.8155 -4.3935 
-9.876 -6.8595 -6.7225 -5.3175 -9.885 -12.6989 -13.224 -10.1685 -8.499001 -5.365 
-10.3015 -8.587501 -7.729 -10.877 -16.4836 -15.0609 -14.318 -14.0265 -8.9025 
-12.0295 -9.240001 -13.4793 -17.4756 -18.8456 -16.1549 -18.176 -14.43 
-4.1865 -3.1385 -4.4455 -1.4985 -4.6335 -1.7565 -5.326 -3.7015 -3.976 -3.5435 -2.3345 -5.5785 
-6.7955 -6.727 -5.6495 -5.8 -6.1985 -7.330501 -7.086 -8.1095 -7.715 -6.1215 -7.736501 
-10.0125 -7.875 -9.776001 -6.64 -12.5197 -8.828501 -11.9358 -12.6305 -10.4185 -12.2017 
-10.303 -12.2237 -10.9992 -13.1004 -14.0177 -13.7517 -16.4568 -15.334 -16.4987 
-15.4615 -13.4469 -17.4596 -14.5984 -18.9409 -18.2727 -19.1603 -21.4142 
