-4.759 
n/a 
n/a 
n/a 
n/a 
-4.759 
n/a 
n/a 
n/a 
n/a 
-4.759 
n/a 
n/a 
n/a 
n/a 
-4.759 
n/a 
n/a 
n/a 
n/a 
-3.6705 0 -1.4985 -4.761 -1.7565 -1.4985 -2.911 -3.974 -2.882 -2.489 -1.4985 -4.6365 0 -3.4795 0 -3.9765 -1.756 -3.5785 0 0 
-3.6705 -1.4985 -6.061501 -6.1095 -2.4195 -4.6515 -4.4735 -6.992001 -3.631 -3.9675 -5.3015 -4.6365 -3.4795 -3.4795 -3.9765 -5.509501 -6.3 -3.5785 0 
-4.5585 -6.061501 -6.907001 -6.712 -5.854001 -5.844 -7.698501 -7.637001 -5.258 -7.047 -5.3015 -9.4335 -3.4795 -6.222 -5.509501 -6.614 -6.3 -3.5785 
-9.165501 -6.907001 -7.332 -9.9425 -7.012001 -8.4005 -8.5375 -9.22 -8.0365 -7.047 -9.68 -9.4335 -6.222 -7.4125 -6.614 -6.614 -6.3 
-10.181 -7.332 -10.7323 -11.9897 -10.1105 -9.113001 -10.061 -12.1989 -8.0365 -11.7267 -9.68 -12.5924 -7.4125 -7.5805 -6.614 -6.614 
-8.553 -3.974 -4.569 -2.186 -3.5905 -2.0935 -2.5685 -8.369 0 -3.4795 0 -3.9765 0 -1.756 -3.5785 0 
-9.582001 -8.9475 -7.136001 -6.009 -6.2035 -3.987 -11.8931 -8.369 -3.4795 -3.4795 -3.9765 -3.9765 -1.756 -6.3 -3.5785 
-14.8719 -11.7775 -11.3746 -8.495001 -8.272 -13.581 -11.8931 -12.4295 -3.4795 -6.222 -3.9765 -5.509501 -6.3 -6.3 
-17.7019 -16.0161 -13.8606 -10.8479 -18.382 -13.581 -15.9536 -12.4295 -6.222 -6.222 -5.509501 -6.614 -6.3 
-21.9405 -18.5021 -16.2135 -20.9579 -18.382 -17.6415 -15.9536 -15.172 -6.222 -7.4125 -6.614 -6.614 
-4.013 0 -4.761 -1.7565 -2.911 -4.5745 -1.934 -3.948 -4.2115 -4.425 -3.5905 0 -3.4795 0 -3.9765 -1.756 -3.5785 0 0 
-4.013 -4.761 -6.1095 -5.515 -4.953 -6.3635 -5.024 -6.921 -9.446501 -7.9255 -3.5905 -3.4795 -3.4795 -3.9765 -5.509501 -6.3 -3.5785 0 
-9.4565 -6.1095 -10.536 -6.692 -6.8505 -9.0705 -8.5605 -12.785 -12.9572 -7.9255 -5.88 -3.4795 -6.222 -5.509501 -6.614 -6.3 -3.5785 
-10.5875 -10.536 -11.713 -8.151 -9.878 -12.8644 -14.8255 -16.2957 -12.9572 -10.7036 -5.88 -6.222 -7.4125 -6.614 -6.614 -6.3 
-15.014 -11.713 -13.172 -11.5399 -13.7955 -19.1294 -18.3362 -16.2957 -15.7353 -10.7036 -8.9189 -7.4125 -7.5805 -6.614 -6.614 
-3.6705 0 -2.911 -3.974 -3.4515 -1.934 -3.3715 -4.2115 -2.882 -4.3095 -1.7695 -2.489 -4.2045 0 -3.4795 0 -3.9765 -1.756 -3.5785 0 
-3.6705 -2.911 -4.4735 -6.534 -4.7655 -4.622 -6.3905 -6.8885 -5.565001 -4.519 -3.1405 -6.756001 -4.2045 -3.4795 -3.4795 -3.9765 -5.509501 -6.3 -3.5785 
-8.0325 -4.4735 -6.5425 -8.13 -7.3855 -8.500001 -9.5845 -9.9615 -6.574 -5.017 -7.0145 -6.756001 -7.937 -3.4795 -6.222 -5.509501 -6.614 -6.3 
-8.960501 -6.5425 -8.213501 -11.2134 -11.2083 -11.8606 -12.5421 -11.0019 -6.9725 -9.044001 -7.0145 -11.2701 -7.937 -6.222 -7.4125 -6.614 -6.614 
-10.6465 -8.213501 -11.4547 -15.0362 -14.5689 -14.8182 -13.5825 -11.4004 -11.3251 -9.044001 -11.598 -11.2701 -11.0457 -7.4125 -7.5805 -6.614 
