-4.759 
n/a 
n/a 
n/a 
n/a 
-4.759 
n/a 
n/a 
n/a 
n/a 
-4.759 
n/a 
n/a 
n/a 
n/a 
-4.759 
n/a 
n/a 
n/a 
n/a 
-3.0835 -3.522 -2.264 -4.628 -4.743 -3.441 -3.9665 
-6.3975 -5.2185 -7.132 -4.7515 -8.6505 -6.575 
-7.807 -9.494 -7.383 -8.659 -10.575 
-12.2505 -9.955001 -11.7615 -10.5745 
-12.7115 -14.3275 -13.677 
-4.0105 -3.522 0 -3.441 -4.348 -1.7565 -4.628 -4.743 
-8.1415 -3.522 -3.441 -5.7675 -5.6535 -6.107501 -4.7515 
-8.1415 -6.6175 -5.7675 -7.64 -9.188 -6.281001 
-11.6306 -10.1725 -7.64 -9.885 -9.193 
-15.1856 -12.045 -9.885 -9.8885 
-4.0105 -4.584 0 -6.899 -4.225 -3.9665 
-8.490499 -4.584 -6.899 -10.8415 -6.6785 
-8.490499 -12.4502 -10.8415 -13.295 
-16.6611 -16.3927 -13.295 
-20.6036 -18.8462 
-4.0885 -3.522 0 -6.899 -2.229 -3.441 -3.9665 
-6.997 -3.522 -6.899 -8.988 -5.5835 -6.575 
-6.997 -10.598 -8.988 -12.5179 -8.39 
-14.776 -12.687 -12.5179 -15.3244 
-16.865 -16.2169 -15.3244 
