-4.759 
n/a 
n/a 
n/a 
n/a 
-4.759 
n/a 
n/a 
n/a 
n/a 
-4.759 
n/a 
n/a 
n/a 
n/a 
-4.759 
n/a 
n/a 
n/a 
n/a 
-1.4985 -6.528 -1.7565 -1.4985 -8.35 -2.229 -2.186 -6.557 0 
-7.535001 -7.684501 -2.4195 -10.533 -10.802 -5.1225 -9.842501 -6.557 
-7.9835 -8.3085 -11.6448 -12.985 -13.6955 -12.9666 -9.842501 
-8.847501 -18.0692 -14.0968 -15.8785 -21.5396 -12.9666 
-18.475 -20.5212 -16.9903 -23.7226 -21.5396 
-3.213 -4.0005 -5.1845 -3.1385 -3.8245 -3.6215 -3.0415 -2.985 -4.121 -3.59 -2.186 -5.1845 -5.74 -1.756 -5.1845 -6.844 0 
-8.4165 -10.316 -7.4095 -5.577001 -7.179501 -6.275001 -6.193 -6.031 -7.053 -5.4475 -8.139501 -5.7465 -7.346 -7.0085 -6.9655 -6.844 
-14.9206 -12.541 -9.460501 -7.925 -9.93 -9.302501 -9.184501 -8.1525 -8.9145 -9.653 -9.278001 -7.3525 -10.092 -8.6775 -6.9655 
-17.1456 -14.592 -12.2173 -10.8667 -13.5443 -12.3732 -11.4168 -10.2085 -13.193 -12.3137 -10.4685 -10.092 -11.7464 -8.6775 
-19.1966 -17.3488 -15.159 -14.481 -16.615 -14.6055 -13.4728 -14.487 -15.8537 -13.5042 -13.208 -11.7464 -11.7464 
-6.8035 -8.27 -4.4755 -2.5685 -7.4065 -1.4985 -3.188 0 -2.985 -6.548 -2.186 -6.557 -1.756 -10.7545 0 
-15.9895 -13.1723 -6.844 -8.300501 -7.8485 -3.619 -3.188 -2.985 -7.824501 -8.2025 -9.842501 -8.2015 -13.5191 -10.7545 
-20.8918 -15.5408 -13.7916 -8.351001 -8.2535 -3.619 -6.769 -7.824501 -9.713501 -16.0508 -11.487 -20.3446 -13.5191 
-23.2603 -22.4884 -13.8421 -8.363501 -8.2535 -6.942 -11.8581 -9.713501 -17.5172 -17.6953 -23.6301 -20.3446 
-30.2079 -22.5389 -13.8546 -8.363501 -12.3611 -12.0819 -13.7471 -17.5172 -19.1617 -29.8384 -23.6301 
-3.929 -5.1845 -3.1385 -2.4945 -3.8245 -2.5685 -3.2295 -1.4985 -3.188 0 -6.557 -1.756 -5.1845 -6.844 -2.4945 -2.985 -8.386001 0 
-9.613501 -7.4095 -4.588 -5.751 -6.5515 -4.661 -3.844 -3.619 -3.188 -6.557 -8.2015 -7.0085 -6.9655 -9.4645 -5.8695 -9.290501 -8.386001 
-12.0755 -8.7805 -6.897501 -8.903501 -7.818 -4.894 -5.1895 -3.619 -10.958 -8.2015 -10.5975 -8.6775 -9.5425 -12.8967 -12.5984 -9.290501 
-13.4465 -10.004 -10.1145 -9.453501 -8.149501 -5.231 -5.1895 -11.719 -12.6025 -10.5975 -12.2665 -12.0211 -12.9805 -19.6256 -12.5984 
-14.67 -13.9294 -10.653 -9.554001 -8.3415 -5.231 -13.4977 -13.3635 -14.9985 -12.2665 -15.6101 -15.4591 -19.7094 -19.6256 
