-4.759 
n/a 
n/a 
n/a 
n/a 
-4.759 
n/a 
n/a 
n/a 
n/a 
-4.759 
n/a 
n/a 
n/a 
n/a 
-4.759 
n/a 
n/a 
n/a 
n/a 
-3.2615 -1.4985 -4.248 0 -3.3715 -5.4075 -3.6615 -4.0875 -3.5015 -1.934 -6.704 -1.4985 -3.0785 -1.7565 -3.5435 0 -4.348 -2.8645 -4.09 -1.8085 -3.845 -1.934 -3.1435 -4.247 -1.756 -3.074 -1.4985 -3.723 -1.7565 -3.8245 -1.7565 -3.1385 -2.8645 -4.492 -1.8085 -3.845 0 
-4.032 -5.2845 -4.248 -3.3715 -8.4125 -8.5725 -7.432 -5.143 -4.704 -8.261001 -7.91 -4.779 -5.1815 -4.913 -3.5435 -4.348 -7.0035 -5.262 -5.1625 -3.9645 -5.78 -4.335 -6.77 -5.3755 -4.566 -4.6505 -4.636 -5.216001 -5.058 -6.695 -4.388 -6.3865 -5.881001 -6.1015 -3.9645 -3.845 
-8.6365 -5.2845 -7.921 -8.4125 -12.1689 -12.4798 -7.5635 -5.692 -9.967501 -8.387501 -10.176 -5.2205 -8.232 -4.913 -8.509501 -7.0035 -9.019501 -5.713 -7.813 -5.9655 -8.468 -8.085501 -7.5695 -8.227 -5.66 -7.795001 -5.8225 -5.9445 -7.033 -8.5155 -7.5305 -9.318001 -7.1285 -7.527 -3.9645 
-8.6365 -9.517501 -13.2346 -12.1689 -16.0762 -12.6113 -7.998001 -11.1475 -11.191 -10.1185 -9.785501 -8.249001 -8.232 -9.958501 -10.001 -9.019501 -9.4905 -8.546 -9.201 -8.5845 -12.3833 -8.835 -10.31 -9.165 -8.952001 -8.983001 -6.448 -7.212501 -8.738501 -10.733 -10.6875 -10.3175 -8.305 -7.527 
-12.6821 -15.0115 -16.991 -16.0762 -16.2077 -13.0458 -14.0015 -12.3299 -12.9115 -10.131 -12.838 -8.249001 -13.5969 -11.5354 -12.154 -9.4905 -12.3415 -9.5505 -12.1778 -12.5594 -13.1328 -11.6995 -11.248 -12.6112 -9.925501 -9.736 -7.3035 -8.864 -10.733 -13.89 -11.687 -11.6936 -8.305 
-3.851 -1.7695 -3.948 -3.6615 -1.934 -1.4985 -4.042 -3.2615 -4.712 -1.756 -3.729 -1.7565 -3.6045 -4.101 -4.247 -2.356 -3.0785 -1.7565 -1.4985 -3.5435 0 -1.4985 -3.6045 -1.7565 -3.3435 -1.7565 -1.4985 -3.1385 -1.7565 -4.348 -2.8645 -4.38 -3.3715 -3.5215 
-4.0015 -5.414001 -6.769 -4.437 -2.6125 -4.778501 -7.125 -6.923 -5.772 -5.339 -5.6535 -5.152 -7.8855 -7.7335 -6.544001 -5.8915 -5.1815 -2.4195 -4.2755 -3.5435 -1.4985 -4.621 -4.455 -4.4105 -4.7005 -2.4195 -4.2575 -4.861 -5.8355 -7.0035 -5.8615 -7.7615 -5.047 
-6.817 -8.38 -7.513 -5.0245 -5.9235 -7.731501 -9.5045 -8.279 -9.43 -7.158 -9.068501 -9.455 -11.8738 -9.876 -9.781 -6.813 -6.0005 -5.3025 -4.2755 -5.4025 -4.621 -4.7795 -5.1075 -6.157001 -5.3325 -5.013 -5.1835 -8.344001 -8.2065 -10.013 -8.771 -9.1505 
-9.2305 -8.64 -8.077001 -7.291 -8.7735 -10.0535 -11.1089 -12.2444 -10.7345 -10.0995 -13.5407 -13.5577 -14.0163 -13.118 -11.2111 -7.6965 -8.318001 -5.3025 -6.0435 -8.903001 -4.7795 -5.73 -6.322 -6.8165 -7.291 -6.082 -8.544001 -10.6595 -11.2566 -12.9225 -10.1945 
-9.5195 -8.9525 -10.3745 -10.146 -11.1215 -11.9813 -15.0743 -13.5489 -13.676 -14.6707 -17.6434 -15.7002 -17.2583 -14.5481 -12.0946 -10.485 -8.318001 -6.8715 -9.6455 -9.1195 -5.73 -6.4445 -7.0605 -7.7675 -8.009001 -9.484 -10.66 -14.3232 -14.1661 -14.346 
-3.2615 -4.712 -1.7565 -4.348 -3.135 -1.7565 -1.4985 -3.6615 -2.8645 -3.1125 -3.9595 -3.5015 -3.115 -3.8565 -3.6615 0 -2.356 -3.0785 -1.7565 -3.5435 -3.9195 -1.7565 -3.6885 -4.4215 -1.934 -4.348 0 -4.4565 -1.7695 -4.907 -3.4625 -1.934 -3.1385 0 -5.1735 0 
-6.923 -5.8675 -5.8355 -8.225 -3.9195 -2.4195 -4.9455 -7.1615 -3.5345 -5.4645 -5.6235 -6.026 -7.757501 -6.8485 -3.6615 -2.356 -5.8915 -5.1815 -4.913 -7.295 -4.9355 -5.255 -7.107 -5.684 -5.5045 -4.348 -4.4565 -4.9325 -6.971001 -6.6475 -4.565 -5.494 -3.1385 -5.1735 -5.1735 
-8.983001 -9.500001 -9.3605 -8.8095 -4.168 -5.914001 -8.395 -7.540501 -5.921 -8.3035 -9.194 -11.1683 -10.9043 -6.8485 -5.89 -5.8915 -6.813 -8.232 -9.108001 -9.019501 -7.476 -8.133 -8.38 -8.539001 -5.5045 -8.9965 -4.9325 -8.4055 -8.934501 -6.9975 -7.6965 -5.494 -8.682501 -5.1735 
-12.8307 -13.242 -9.798 -9.0245 -6.837 -8.8535 -8.698001 -10.275 -8.8175 -12.0684 -14.4673 -14.3151 -10.9043 -9.2145 -9.5115 -6.813 -10.0215 -12.7464 -10.2645 -11.5954 -9.437 -9.3455 -11.3792 -8.539001 -10.411 -10.7605 -8.4055 -10.564 -9.467501 -9.755 -7.6965 -11.621 -8.682501 
-16.5727 -13.6795 -9.995501 -11.8273 -10.5035 -9.125 -11.4853 -13.1715 -12.5976 -17.3417 -17.6141 -14.3151 -13.2703 -13.009 -10.4435 -10.0215 -14.5359 -13.9029 -12.8404 -13.5564 -10.4355 -12.3643 -11.3792 -13.6557 -12.175 -14.2335 -10.564 -11.097 -12.2034 -9.755 -14.4199 -11.621 
-10.8685 -3.1385 -3.723 -1.7565 -3.8245 -2.186 -4.157 -3.849 -3.5215 -3.2615 -4.015 -2.186 -4.7175 -3.851 -1.7695 -1.4985 -3.8565 -3.6615 0 -4.101 -4.0395 -2.186 -4.38 -2.356 -1.4985 -3.0785 -1.7565 -3.5435 
-14.007 -7.7035 -5.216001 -5.058 -6.206 -5.8055 -7.998 -5.252501 -6.462 -7.544001 -6.7865 -5.732 -6.1065 -4.0015 -2.7955 -4.882 -6.8485 -3.6615 -4.101 -6.463 -5.584001 -6.329 -6.435 -3.1615 -4.779 -5.1815 -4.913 
-18.572 -9.039001 -5.9445 -6.66 -9.876 -9.2615 -8.6 -7.552501 -11.0177 -11.1633 -11.0631 -6.75 -6.111 -4.5775 -6.1215 -8.057 -6.8485 -8.203501 -6.463 -8.057001 -9.096001 -7.6965 -7.138 -5.297501 -5.2205 -8.232 
-19.9075 -9.072001 -7.502501 -10.0065 -13.4998 -9.996 -10.6605 -12.354 -14.637 -15.4399 -12.0811 -6.7555 -6.5015 -7.092 -9.151501 -8.057 -10.7335 -9.474001 -8.057001 -11.7352 -10.443 -8.498 -8.6525 -5.3145 -8.249001 
-19.9405 -11.5138 -10.1465 -13.6899 -14.2343 -12.1937 -15.462 -15.9733 -18.9136 -16.4579 -12.0866 -7.041 -9.088 -9.937501 -9.151501 -12.2284 -12.004 -11.9804 -11.7352 -13.0822 -11.2445 -10.0965 -8.6615 -8.363501 
