-4.759 
n/a 
n/a 
n/a 
n/a 
-4.759 
n/a 
n/a 
n/a 
n/a 
-4.759 
n/a 
n/a 
n/a 
n/a 
-4.759 
n/a 
n/a 
n/a 
n/a 
-6.946 -2.7415 -2.6165 -4.626 -1.7695 -5.7565 -3.091 -4.3925 -3.115 -3.8225 -4.1645 0 -3.766 -4.1545 0 -4.748 -7.4875 0 -4.748 -3.869 -4.8135 -2.0935 -1.4985 -4.0535 -1.7565 -4.219 0 
-9.185 -4.266 -6.059 -4.685501 -8.409 -7.818501 -6.6065 -7.432501 -7.096001 -5.2665 -4.1645 -3.766 -6.373 -4.1545 -4.748 -10.228 -7.4875 -4.748 -8.149 -8.6545 -7.282001 -2.9725 -4.5605 -4.5115 -5.991001 -4.219 
-10.317 -7.202001 -6.0945 -10.375 -10.586 -11.87 -9.3785 -11.2847 -7.461501 -5.2665 -8.1675 -6.373 -6.373 -10.1 -10.228 -10.228 -12.9017 -8.149 -13.4175 -11.8192 -8.1835 -4.908 -4.6195 -8.5395 -5.991001 
-13.253 -7.2305 -11.9614 -12.552 -14.6375 -14.642 -13.5117 -11.6502 -7.461501 -8.7145 -10.1265 -6.373 -12.2347 -15.7074 -10.228 -15.6422 -16.3027 -13.4175 -16.5822 -12.7207 -9.470501 -4.941 -8.717 -8.5395 
-13.2815 -13.151 -14.1384 -16.6035 -17.4095 -18.7752 -13.8772 -11.6502 -11.4955 -10.2865 -10.1265 -12.2347 -17.8421 -15.7074 -15.6422 -19.0432 -21.5712 -16.5822 -17.4837 -14.0077 -9.472501 -8.787001 -8.717 
-6.946 -3.5745 -2.6165 -3.115 -3.433 -1.7565 -4.6435 -1.934 -4.219 -2.9805 -3.768 -2.489 -7.127 -2.0935 -3.091 -3.5205 -4.385 -3.115 -5.976 0 -3.766 -4.1545 0 -4.4765 -1.7565 -9.639501 -1.756 -4.4765 -1.7565 -6.029 -2.4285 -2.9805 -3.768 -4.397 -12.16972 -2.0935 -3.091 -3.6825 0 -6.519001 -1.4985 -4.703 -2.0935 -4.219 0 
-10.411 -4.114 -5.172501 -6.838 -4.1845 -5.993001 -4.998 -6.5445 -6.663501 -5.426001 -4.333 -7.9685 -9.095501 -4.5345 -4.613 -7.5035 -7.561 -9.157501 -5.976 -3.766 -6.373 -4.1545 -4.4765 -5.1035 -10.2335 -10.468 -5.935 -5.1035 -7.151501 -7.884501 -5.839 -5.426001 -6.217 -17.59392 -14.26322 -4.5345 -6.0125 -3.6825 -6.519001 -7.522501 -5.3265 -6.4825 -6.009 -4.219 
-10.7005 -6.212 -8.580001 -7.783501 -9.34 -6.501 -9.175501 -9.7165 -9.109501 -6.161 -10.0885 -9.564501 -11.8073 -6.0845 -8.250501 -10.5225 -13.6689 -9.157501 -9.0765 -6.373 -6.373 -10.504 -5.1035 -14.2919 -11.062 -14.647 -6.2555 -10.5325 -8.878 -11.714 -7.403501 -9.069 -19.75852 -19.68742 -16.70422 -7.427501 -6.0125 -10.0195 -7.522501 -10.0035 -7.8555 -10.7552 -6.009 
-12.7985 -9.2095 -9.4995 -13.2284 -9.422001 -10.5975 -12.5907 -12.2199 -10.035 -12.4339 -11.6845 -12.3561 -13.3573 -10.1505 -11.3485 -16.6304 -13.6689 -10.7025 -12.1985 -6.373 -12.6387 -10.6255 -14.2919 -15.1204 -15.241 -14.9675 -11.9655 -12.259 -12.8641 -13.2785 -11.2485 -23.94812 -21.85202 -22.12842 -19.59722 -7.427501 -13.2173 -11.023 -10.0035 -12.4679 -12.3216 -10.7552 
-15.796 -9.967501 -14.954 -13.3104 -13.5921 -14.0127 -15.0941 -13.1454 -16.3079 -14.0299 -14.4761 -13.9061 -17.4233 -13.3037 -17.4564 -16.6304 -15.2139 -13.8245 -12.1985 -12.6387 -12.7602 -19.8139 -15.1204 -19.2994 -15.5615 -20.6775 -13.692 -16.2451 -14.4286 -17.1235 -26.12762 -26.04162 -24.29302 -25.02142 -19.59722 -14.9195 -14.2208 -13.504 -12.4679 -16.934 -12.3216 
-6.946 -3.998 -2.7835 -3.091 -3.6825 -4.0705 -3.355 -1.934 -8.237 -3.585 -2.9805 -3.251 -1.7695 -8.2775 -1.4985 -3.6825 -5.5495 -1.7565 -7.4875 0 -9.1815 -4.93 0 -5.8005 -4.807 -3.843 0 -3.0415 -2.9805 -6.652 -4.219 -3.585 
-10.411 -6.4665 -5.818 -6.0125 -7.410501 -6.508 -4.8475 -10.802 -10.389 -6.392 -4.429 -4.3285 -8.955 -8.777 -4.87 -8.6875 -6.205 -7.9965 -7.4875 -9.1815 -10.4855 -4.93 -5.8005 -9.085001 -8.179001 -3.843 -3.0415 -5.0885 -8.802501 -9.485001 -6.4855 
-12.8795 -9.202001 -7.998 -9.6555 -9.55 -6.573 -14.3909 -12.954 -13.196 -8.262001 -5.6435 -10.1765 -9.592501 -12.6121 -9.9375 -10.0925 -13.195 -7.9965 -17.3352 -10.4855 -10.4855 -10.9315 -9.085001 -12.578 -8.179001 -6.045 -5.0885 -11.5039 -12.0759 -12.1713 
-15.615 -11.4872 -10.138 -12.0656 -9.6155 -16.3176 -16.5429 -15.761 -15.066 -9.139001 -11.6685 -10.9284 -13.4616 -17.6796 -11.3587 -17.1121 -13.195 -17.9542 -18.6392 -10.4855 -16.487 -14.216 -12.578 -12.578 -10.389 -8.2375 -11.5039 -14.7773 -14.7622 
-17.9002 -13.6272 -12.7383 -12.1311 -19.7313 -18.4696 -19.3499 -17.631 -15.943 -15.252 -12.4204 -14.7975 -18.5291 -19.1008 -18.3783 -17.1121 -23.1527 -19.2582 -18.6392 -16.487 -19.7715 -17.709 -12.578 -14.788 -12.5815 -14.8271 -14.7773 -17.4636 
-6.946 -3.998 -2.3335 -2.3345 -4.0035 -3.355 -1.934 -4.219 -2.4265 -3.768 -3.7905 -4.023 -2.4285 -4.4865 -6.289001 -2.5195 -3.091 -5.459 -1.7565 -6.605 0 -3.766 -4.1545 -1.756 -5.807 -1.7565 -8.776501 -1.756 -6.281 -1.756 -2.9805 -3.5745 -2.6165 -3.465 -1.7695 -3.5185 -3.2775 -1.8085 -4.2605 -2.0935 -1.4985 -3.6825 0 -1.8085 -4.2605 -4.1685 -2.925 -5.459 -2.0935 -4.219 0 0 
-10.411 -5.1075 -5.18 -5.381001 -5.735 -4.8475 -6.5445 -6.6415 -4.862 -6.281 -6.6095 -5.9175 -6.4685 -10.841 -8.239501 -4.8225 -7.561 -6.427 -7.624501 -6.605 -3.766 -6.373 -5.5655 -6.985 -6.3145 -9.838 -9.597501 -6.703 -7.3445 -4.3555 -4.8665 -4.114 -5.012 -3.665 -4.134 -6.503 -4.2505 -5.3945 -6.013 -2.9725 -4.87 -3.6825 -1.8085 -5.3945 -8.080001 -5.6215 -9.309 -7.6215 -6.009 -4.219 0 
-11.5205 -7.474 -7.354 -7.057 -5.8455 -8.959001 -9.673 -8.800001 -7.349501 -8.110001 -8.594001 -11.3291 -13.335 -12.7915 -9.435501 -9.581 -8.936001 -10.485 -7.624501 -9.995501 -6.373 -7.0315 -12.0119 -7.27 -15.277 -10.637 -14.7231 -8.783 -9.920501 -6.176001 -5.333 -5.7615 -5.2075 -5.8505 -6.752 -6.88 -6.337 -7.6525 -6.808001 -6.346 -4.87 -6.02 -5.3945 -8.685 -9.9455 -12.5987 -11.4533 -11.89 -6.009 -4.219 
-13.887 -9.438001 -8.940001 -7.097001 -9.649 -12.2713 -11.8001 -11.4779 -8.5305 -10.4855 -14.132 -18.1956 -15.2855 -13.9875 -14.3466 -11.0378 -12.9868 -10.485 -10.575 -12.7611 -7.0315 -13.9165 -12.2969 -16.5695 -16.076 -15.7626 -16.8031 -11.4788 -11.9116 -6.7225 -6.642 -5.934 -7.6165 -8.692 -7.087 -9.063001 -8.562 -8.618 -9.7305 -6.346 -7.2155 -9.5745 -8.685 -11.4449 -16.9227 -14.743 -15.7218 -11.89 -6.009 
-15.851 -11.0726 -9.0045 -11.1799 -13.0369 -14.3984 -14.478 -12.6589 -11.764 -16.0235 -20.9985 -20.1461 -16.4815 -18.8986 -15.8034 -15.0886 -12.9868 -13.4355 -13.3406 -13.4196 -13.9165 -14.2015 -21.5964 -17.3685 -21.2016 -17.8426 -19.4989 -13.4699 -12.4581 -7.908 -6.8155 -8.348001 -9.963501 -9.0015 -9.415501 -10.575 -9.376 -11.6747 -9.7305 -8.602 -10.6875 -13.0816 -11.4449 -18.4221 -19.067 -19.0115 -15.7218 -11.89 
