-4.759 
n/a 
n/a 
n/a 
n/a 
-4.759 
n/a 
n/a 
n/a 
n/a 
-4.759 
n/a 
n/a 
n/a 
n/a 
-4.759 
n/a 
n/a 
n/a 
n/a 
-3.8655 0 -10.738 0 -7.565001 -1.756 -12.16972 -3.1495 -3.59 -2.5685 -2.4945 -1.934 -3.511 -9.6365 0 
-3.8655 -10.738 -10.738 -7.565001 -9.916 -14.93432 -15.31922 -7.486 -5.877501 -5.3665 -4.2645 -5.953 -14.4007 -9.6365 
-15.5527 -10.738 -18.303 -9.916 -23.09432 -18.08382 -19.65572 -10.2675 -8.825001 -7.0215 -8.7995 -17.5247 -14.4007 
-15.5527 -18.303 -20.654 -23.09432 -26.24382 -22.42032 -22.43722 -13.215 -10.6345 -11.8215 -20.5632 -17.5247 
-23.1177 -20.654 -33.83232 -26.24382 -30.58032 -25.20182 -25.38472 -15.0245 -15.4345 -23.5852 -20.5632 
-3.6885 -3.264 -1.7565 -8.27 -2.4945 -3.8245 -1.934 -5.298 -3.959 -3.115 -3.8655 0 -6.4745 -1.756 -5.5645 
-5.0915 -3.6125 -9.440001 -9.5465 -5.751 -4.7245 -6.9815 -7.426001 -6.08 -7.156001 -3.8655 -6.4745 -8.7305 -7.33 
-5.1115 -10.733 -10.7751 -12.8364 -6.158 -10.028 -9.935 -10.9 -7.703 -7.156001 -7.933001 -8.7305 -14.6191 
-12.3878 -12.0681 -14.065 -13.2434 -11.9391 -12.9815 -13.5056 -12.523 -7.703 -10.647 -9.423 -14.6191 
-13.7229 -15.358 -14.472 -19.0245 -14.8926 -16.5521 -15.1286 -12.523 -11.5514 -12.137 -15.7562 
-3.8655 0 -2.688 -4.247 0 -4.8335 -1.756 -2.8965 -5.298 -3.959 -2.8645 -3.135 -3.301 -4.4345 -1.7565 -3.1385 -3.8245 -3.0365 0 
-3.8655 -2.688 -4.249001 -4.247 -4.8335 -6.967501 -3.751 -8.496 -7.426001 -6.532001 -5.203 -5.331 -7.287001 -4.719 -4.388 -5.577001 -6.346 -3.0365 
-5.416 -4.249001 -4.249001 -7.4445 -6.967501 -8.773001 -9.964001 -9.906 -11.352 -9.2305 -6.7785 -10.2865 -7.3865 -6.56 -6.2815 -7.3205 -6.346 
-5.45 -4.249001 -7.445001 -8.283001 -8.773001 -15.5326 -11.4482 -13.9036 -14.0505 -11.0478 -12.063 -10.46 -8.853001 -8.1075 -8.363501 -7.3205 
-5.45 -7.445001 -8.283001 -10.1945 -15.5326 -17.0168 -15.4458 -16.6021 -15.8678 -16.3323 -12.2365 -11.9265 -10.4237 -10.5339 -8.363501 
-3.8825 -5.1845 -4.9225 -4.657 -1.934 -4.489 0 -9.583 0 -7.864501 -5.298 -3.59 -2.229 
-10.4425 -9.13 -8.377001 -5.156 -5.9045 -4.489 -9.583 -9.583 -7.864501 -13.5175 -8.351501 -4.966 
-14.388 -12.7191 -8.756001 -8.679501 -5.9045 -15.0802 -9.583 -17.6209 -13.5175 -16.571 -10.2777 
-17.9771 -13.0981 -12.4251 -8.679501 -16.7101 -15.0802 -17.6209 -23.2739 -16.571 -18.4972 
-18.3561 -16.7672 -12.4251 -19.8531 -16.7101 -23.1181 -23.2739 -26.3274 -18.4972 
