-4.759 
n/a 
n/a 
n/a 
n/a 
-4.759 
n/a 
n/a 
n/a 
n/a 
-4.759 
n/a 
n/a 
n/a 
n/a 
-4.759 
n/a 
n/a 
n/a 
n/a 
-1.4985 -4.02 0 -3.704 -3.468 0 -1.756 -3.6885 -4.9625 -1.756 -4.852 -4.686 -3.4425 -1.756 -3.1435 -3.468 -2.4945 -5.812 -4.6815 0 
-4.969501 -4.02 -3.704 -6.8315 -3.468 -1.756 -5.2825 -8.660001 -6.3905 -6.486 -6.0965 -7.321001 -4.9015 -4.1365 -7.5715 -5.546 -7.022 -9.0385 -4.6815 
-4.969501 -6.7965 -6.8315 -6.8315 -4.7175 -5.2825 -9.874001 -9.630001 -8.434501 -7.961 -9.049001 -9.024501 -7.084001 -8.453501 -8.937 -10.01 -10.259 -9.0385 
-8.295501 -10.0545 -6.8315 -7.7035 -8.271 -9.874001 -10.844 -11.795 -8.806001 -11.1695 -10.587 -11.428 -11.794 -9.8065 -13.5002 -13.247 -10.259 
-11.8965 -10.0545 -7.7035 -11.9142 -13.4403 -10.844 -13.009 -12.1665 -12.1017 -12.7075 -12.9905 -16.138 -13.147 -14.3697 -16.7372 -13.247 
-1.934 -1.4985 -3.502 0 -3.704 -4.7315 0 -1.756 -3.6135 -5.5725 -1.756 -1.4985 -3.17 -1.7565 -1.4985 -4.7315 -2.9705 -2.186 -1.934 -8.4565 -4.686 -3.383 -3.5905 -2.7835 -2.7295 -4.0745 -2.4265 0 
-2.6125 -4.5955 -3.502 -3.704 -8.474001 -4.7315 -1.756 -5.5885 -9.285 -6.484 -3.0405 -3.7115 -4.179 -2.4195 -6.2285 -7.046 -3.89 -4.0835 -9.6555 -13.6591 -8.304501 -5.951 -6.6695 -4.405 -6.06 -6.101501 -2.4265 
-5.258 -4.5955 -7.5815 -8.474001 -8.474001 -5.8825 -5.5885 -10.348 -10.0355 -7.5925 -5.561 -5.2885 -4.497 -6.948 -8.3315 -8.5915 -5.7145 -12.4316 -16.3301 -17.2776 -11.2171 -8.7255 -8.361 -7.133501 -7.73 -6.101501 
-5.258 -8.915 -13.2199 -8.474001 -9.585001 -10.115 -10.348 -11.0985 -11.2832 -10.089 -7.827 -5.8975 -8.397 -8.995001 -9.8625 -10.1765 -14.3782 -19.1062 -19.9486 -20.1902 -13.9916 -10.218 -10.61 -8.354 -7.73 
-9.507501 -14.6334 -13.2199 -9.585001 -13.9637 -14.8745 -11.0985 -12.3462 -13.7797 -12.6324 -8.42 -10.4993 -10.634 -10.2485 -11.5529 -19.0068 -21.0528 -22.7247 -22.8612 -22.9647 -15.4841 -12.467 -11.8305 -8.354 
-7.261 -3.704 -3.468 0 -3.6135 -6.9755 0 -7.098001 -4.417 -2.4945 -4.1205 -2.5045 -5.304 0 
-11.5998 -6.8315 -3.468 -3.6135 -9.946001 -6.9755 -7.098001 -10.647 -6.4915 -5.191 -5.3175 -7.698501 -5.304 
-14.7273 -6.8315 -7.488 -9.946001 -9.946001 -14.5921 -10.647 -12.7215 -9.508 -6.498 -10.1635 -7.698501 
-14.7273 -10.575 -14.4961 -9.946001 -17.7224 -18.1411 -12.7215 -15.738 -10.719 -11.3482 -10.1635 
-18.4708 -17.5831 -14.4961 -17.7224 -21.2714 -20.2156 -15.738 -16.949 -15.5692 -11.3482 
-3.502 0 -3.704 0 -3.468 0 -1.4985 -4.845 -5.7845 -1.756 -4.852 -4.147 -3.892 -2.229 -3.17 -1.7565 -1.4985 -3.468 -2.4945 -5.812 -4.5665 0 
-3.502 -3.704 -3.704 -3.468 -3.468 -1.4985 -5.242001 -8.771501 -6.9295 -6.486 -5.4215 -6.537001 -5.4595 -4.5735 -4.179 -2.4195 -5.0815 -5.546 -7.022 -11.6019 -4.5665 
-7.5815 -3.704 -6.8315 -3.468 -5.1095 -5.242001 -9.208 -10.086 -9.564501 -7.234 -6.861001 -8.4285 -6.946 -7.174 -4.497 -5.881001 -6.748 -10.01 -13.1167 -11.6019 
-7.5815 -6.8315 -6.8315 -5.1095 -8.2865 -9.208 -10.587 -12.721 -10.5531 -8.752501 -8.5045 -9.623501 -10.0973 -7.535 -7.458 -7.764501 -11.4994 -16.1047 -13.1167 
-10.2435 -6.8315 -8.582001 -8.2865 -12.9149 -10.587 -13.222 -13.7096 -12.0716 -10.597 -9.6315 -12.8496 -10.4583 -10.5974 -8.919001 -12.7493 -17.5941 -16.1047 
