-4.759 
n/a 
n/a 
n/a 
n/a 
-4.759 
n/a 
n/a 
n/a 
n/a 
-4.759 
n/a 
n/a 
n/a 
n/a 
-4.759 
n/a 
n/a 
n/a 
n/a 
-6.693501 -3.0785 -1.7695 -3.6845 -1.4985 -3.3365 -4.0395 -1.7565 -4.654 -1.7695 -1.4985 -4.2115 0 
-10.3805 -4.903 -4.2695 -4.8155 -4.3335 -7.905 -4.862 -6.420001 -6.8035 -2.7955 -5.954 -4.2115 
-12.6188 -7.277 -5.329 -7.284 -8.182 -8.437 -10.204 -8.494 -7.7415 -6.933001 -5.954 
-14.8673 -8.257501 -7.927 -11.6095 -8.493 -14.077 -12.278 -9.3435 -12.1372 -6.933001 
-15.8413 -10.9633 -12.2067 -11.9205 -14.1906 -16.151 -13.1275 -13.8338 -12.1372 
-4.267 -3.7825 -2.5685 -3.772 -1.756 -3.545 -5.032 -4.0925 -4.359 -5.032 -5.28 
-8.810501 -6.1055 -5.792 -4.9105 -5.955 -9.9205 -8.508 -10.172 -9.631001 -9.191 
-11.7045 -10.1115 -6.3615 -10.2039 -13.1923 -13.5583 -15.7119 -15.444 -13.9776 
-15.7105 -10.7898 -12.8291 -17.4412 -16.8301 -20.7622 -20.9839 -19.7906 
-16.3888 -17.2574 -20.0664 -21.079 -24.034 -26.0342 -25.3305 
-4.267 -2.186 -2.9645 -1.7565 -5.1465 -3.4265 -1.756 -3.213 -2.264 -5.1465 -3.047 -2.4265 -1.756 -4.31 -4.1365 -3.585 -2.264 -3.545 -4.1935 -3.4095 -3.16 -4.197 -1.756 -4.359 -4.3565 -3.4265 -4.622 -1.7565 -4.3685 
-6.0965 -6.4285 -3.7825 -7.679501 -7.299 -4.4745 -4.9205 -4.6045 -7.7335 -8.0755 -4.803 -4.303 -6.619 -8.565001 -8.587501 -5.977 -6.462001 -8.554001 -7.8725 -6.3135 -8.901501 -5.922 -5.6465 -8.97 -8.428 -8.518001 -7.961 -6.4005 
-10.3605 -7.420001 -9.790501 -9.206 -8.159 -7.8925 -6.231501 -9.887 -10.7175 -10.688 -6.293 -9.1 -11.4348 -13.3806 -11.0905 -10.7044 -12.5118 -13.0794 -10.76 -13.14 -10.734 -10.5011 -11.3131 -13.6893 -13.7523 -12.2554 -13.0308 
-11.352 -13.5014 -11.5572 -10.0745 -12.0822 -9.059 -11.9136 -12.871 -13.33 -12.178 -11.737 -14.8272 -16.2504 -15.8836 -15.8179 -16.7542 -17.0372 -15.9669 -17.5865 -14.9725 -15.3131 -16.1677 -16.0324 -19.0136 -17.4897 -17.3252 
-17.4334 -15.2681 -12.4257 -13.9977 -13.2487 -14.7885 -14.8976 -15.4835 -14.82 -17.622 -17.4642 -19.6428 -18.7534 -20.611 -21.8677 -21.2796 -19.9247 -22.7934 -19.419 -19.5516 -20.9797 -20.887 -21.3567 -22.751 -22.5595 
-4.267 0 -3.4265 -4.0035 -3.456 -1.7565 -2.5685 -3.4605 -3.3425 0 -4.256 -2.356 -6.749001 -4.229 -3.115 -3.545 -1.756 -3.737 -1.8085 -3.16 -2.9775 -8.792001 -2.3615 -4.6015 -4.359 -3.4265 -3.682 -2.356 -3.277 0 
-4.267 -3.4265 -7.817 -5.6255 -4.7445 -3.938 -6.5935 -5.952001 -3.3425 -4.256 -5.265 -8.632501 -10.076 -6.701 -6.7775 -5.660501 -5.2025 -4.7285 -4.6915 -4.6715 -12.7147 -11.4971 -6.655001 -10.089 -6.6215 -7.104 -5.454 -4.76 -3.277 
-6.387 -7.817 -9.7605 -5.671 -6.344 -8.279501 -7.44 -5.952001 -8.4375 -5.265 -11.131 -12.6437 -13.1717 -10.66 -8.2305 -9.4455 -6.297 -7.658 -5.6075 -15.1801 -15.4198 -15.7906 -13.0409 -12.4677 -10.322 -9.140501 -8.1645 -4.76 
-11.7361 -9.7605 -9.9255 -7.428 -10.4855 -9.507001 -7.44 -10.134 -9.6555 -11.0636 -16.5572 -15.6656 -17.1307 -12.113 -12.5233 -10.3175 -9.501 -8.374001 -16.7541 -17.8852 -19.7133 -22.1765 -15.4196 -16.1682 -12.3585 -12.046 -8.1645 
-13.6796 -9.9255 -10.641 -11.7317 -11.713 -9.507001 -12.725 -12.8004 -15.4613 -16.5572 -19.0597 -19.6246 -18.5837 -16.4058 -13.3953 -13.7535 -10.2875 -19.7998 -19.4592 -22.1787 -26.0992 -24.5552 -19.1201 -18.2047 -15.264 -12.046 
