-4.759 
n/a 
n/a 
n/a 
n/a 
-4.759 
n/a 
n/a 
n/a 
n/a 
-4.759 
n/a 
n/a 
n/a 
n/a 
-4.759 
n/a 
n/a 
n/a 
n/a 
-2.5045 -3.543 -1.4985 -4.9285 0 -1.4985 -3.7825 -4.763 0 -3.034 -3.995 -6.04 -2.264 -3.1435 -4.0325 -2.4285 -3.034 -2.4265 -4.1555 -3.8515 -2.186 -3.849 -5.703 0 -3.034 -2.4265 -2.186 -5.714 -4.33 -3.7075 -2.4265 -2.186 -5.6195 
-5.323 -5.62 -6.9185 -4.9285 -1.4985 -4.8035 -5.558001 -4.763 -3.034 -7.533 -7.666 -7.602 -4.6705 -6.543 -6.255 -5.295 -4.3295 -5.2845 -6.1745 -6.143001 -4.8565 -9.453 -5.703 -3.034 -4.3295 -3.292 -6.908 -9.552 -8.580501 -6.613 -3.292 -8.998 
-5.8685 -11.5482 -6.9185 -6.8195 -4.8035 -6.167 -5.558001 -7.246 -7.533 -10.688 -8.413 -8.093 -7.618501 -8.737 -9.007501 -6.618001 -6.739 -7.003 -8.561001 -9.153501 -10.6095 -9.453 -8.287001 -4.3295 -5.1635 -8.262501 -11.9068 -14.4237 -11.8326 -7.311 -10.3285 
-12.0095 -11.5482 -9.6265 -10.2535 -6.167 -6.167 -8.769501 -10.523 -10.688 -11.435 -8.495001 -12.23 -10.2085 -10.6215 -10.404 -9.178 -8.68 -9.4125 -12.0193 -15.0511 -10.6095 -12.1078 -9.5235 -5.1635 -9.5835 -13.1051 -16.7785 -17.6758 -12.5306 -14.5937 
-12.0095 -14.2562 -13.0605 -11.617 -6.167 -9.316501 -12.1913 -14.3518 -11.435 -11.517 -13.4378 -14.82 -12.093 -12.018 -12.964 -11.2358 -10.5865 -12.9062 -17.9169 -15.0511 -13.2643 -13.3443 -10.277 -9.5835 -14.3871 -17.9768 -20.0306 -18.3738 -19.8133 
-2.264 -3.995 0 -3.8225 -3.741 -5.272 -3.5795 -4.238 0 -4.2125 0 -4.4545 0 -4.314 0 -5.1425 -1.756 -4.7295 -5.1515 -3.689 -3.8225 -3.371 -3.5795 -3.8665 -5.173 -3.2775 -2.5045 -5.7065 0 -5.1445 0 -6.7355 -1.756 -4.208 -5.1515 -4.067 -2.5685 -4.684 -3.741 -5.272 -4.474 -1.934 -1.4985 -6.433 
-4.972 -3.995 -3.8225 -8.228001 -7.271501 -8.293 -7.673501 -4.238 -4.2125 -4.2125 -4.4545 -4.4545 -4.314 -4.314 -5.1425 -6.5695 -6.051 -6.95 -9.0385 -6.213 -7.501 -6.396 -7.184501 -5.6665 -6.911 -3.678 -7.3985 -5.7065 -5.1445 -5.1445 -6.7355 -7.56 -5.64 -7.158501 -9.0625 -5.208 -6.87 -9.311001 -7.271501 -7.915501 -5.244 -2.6125 -6.8695 
-4.972 -8.413 -8.228001 -9.597001 -10.304 -10.5535 -7.673501 -8.355501 -4.2125 -8.196501 -4.4545 -6.296 -4.314 -7.665501 -6.5695 -8.951501 -7.84 -10.476 -10.4355 -9.396501 -9.6945 -9.738501 -8.5705 -7.2175 -6.921 -8.1505 -7.3985 -7.7275 -5.1445 -7.96 -7.56 -10.76 -7.9335 -10.3675 -9.6085 -9.729001 -10.5535 -10.4045 -9.484501 -8.59 -5.7705 -7.210001 
-9.684501 -10.575 -9.597001 -10.555 -10.6835 -10.5535 -10.586 -8.355501 -8.196501 -8.196501 -6.296 -6.296 -7.665501 -8.670501 -8.951501 -10.2435 -10.523 -10.537 -10.5475 -10.2495 -10.535 -9.948 -9.187501 -7.227 -8.803 -8.1505 -8.923 -7.7275 -7.96 -8.25 -10.76 -13.0535 -10.451 -10.5245 -10.612 -10.5665 -10.5815 -10.5775 -9.735001 -9.142 -9.285501 
-10.5775 -10.5935 -10.555 -10.693 -10.6835 -10.6915 -10.586 -10.013 -8.196501 -9.6175 -6.296 -8.447001 -8.670501 -10.208 -10.2435 -10.5315 -10.5395 -10.5635 -10.5645 -10.5425 -10.552 -10.348 -9.1885 -8.972 -8.803 -8.961 -8.923 -9.805 -8.25 -12.2398 -13.0535 -15.571 -10.537 -10.649 -10.632 -10.5845 -10.5995 -10.5955 -9.776 -9.757501 
-3.9345 -1.7695 -1.4985 -4.9285 -4.179 0 -1.4985 -3.7825 -3.741 -4.763 0 -1.4985 -3.995 -2.9705 -3.952 -3.8515 -2.5195 -1.4985 -3.7075 -2.4285 -2.7455 -1.4985 -3.7075 -1.934 -3.1435 -5.1795 0 -1.4985 -4.1925 -4.764 -4.9375 -3.602 -2.186 -5.703 0 -2.7835 -5.6195 -5.284 -4.295 -2.186 -4.3655 -2.7455 -1.4985 -3.7075 -3.321 -1.4985 -4.631 -2.742 -2.489 -3.8535 -2.264 -3.5155 0 
-3.94 -2.7955 -6.9185 -10.115 -4.179 -1.4985 -4.8035 -8.5905 -7.503 -4.763 -1.4985 -4.712 -6.7085 -7.128 -5.968 -4.4615 -3.1695 -4.6235 -6.3465 -5.5565 -3.637 -4.6235 -6.0775 -4.335 -6.968 -5.1795 -1.4985 -4.4615 -9.603001 -7.004001 -8.0955 -5.1035 -9.091001 -5.703 -2.7835 -9.647501 -10.9315 -8.055 -6.095 -6.342501 -7.217 -3.637 -4.6235 -7.35 -4.481 -5.429 -6.9805 -3.301 -4.6325 -5.469 -4.979 -3.5155 
-4.4455 -8.1405 -12.8948 -10.115 -5.8035 -4.8035 -9.439501 -10.3285 -7.503 -6.3305 -4.712 -7.0895 -11.3056 -9.211 -6.1265 -4.964 -5.905 -6.7085 -9.082001 -6.4265 -6.891 -6.389501 -7.9655 -7.52 -6.968 -6.601 -4.4615 -10.025 -12.0706 -11.0244 -9.338 -12.4807 -9.091001 -8.8725 -9.647501 -15.1035 -13.7025 -9.626 -9.5515 -9.826 -7.9465 -6.891 -7.593 -8.387 -8.4725 -8.055 -7.216 -5.8065 -6.112 -7.781 -4.979 
-10.4505 -14.403 -12.8948 -12.4021 -9.305 -9.439501 -10.5985 -10.3285 -9.5515 -9.188 -7.0895 -11.9284 -13.3886 -9.2495 -6.6465 -7.193501 -7.714 -9.178 -10.361 -8.647501 -8.649 -8.096001 -9.075001 -7.52 -8.2305 -10.3285 -10.025 -12.3516 -16.091 -12.2669 -16.9366 -12.4807 -12.4373 -16.0507 -15.1035 -17.8745 -15.2735 -13.0825 -13.2998 -10.6927 -11.4415 -9.7165 -8.528501 -12.5483 -9.8785 -8.274 -9.5645 -6.9665 -8.2875 -7.781 
-16.713 -14.403 -15.1819 -15.9036 -13.9726 -10.5985 -10.5985 -12.377 -12.409 -11.8725 -11.9284 -14.0114 -13.4271 -9.616001 -9.2675 -9.224501 -10.0035 -10.419 -12.582 -12.1997 -10.621 -9.088 -9.075001 -8.6525 -12.0094 -15.892 -12.3516 -16.372 -17.3335 -19.8655 -16.9366 -15.827 -19.6155 -21.5067 -17.8745 -19.4455 -18.73 -16.8308 -14.1665 -14.1877 -14.267 -10.4365 -12.7416 -13.9543 -10.242 -10.5425 -10.735 -9.5795 -8.2875 
-3.9345 -1.4985 -1.4985 -4.3645 -3.326 0 -1.4985 -3.7825 -4.763 0 -3.995 -4.6175 -1.934 -5.1795 -4.33 -1.7695 -3.7075 -2.4285 -3.8515 -2.5195 -3.7075 -2.3335 -1.4985 -5.703 -1.756 -5.6195 -2.742 -2.489 -4.4015 
-6.4925 -4.935 -5.8055 -8.245501 -3.326 -1.4985 -4.8035 -5.558001 -4.763 -3.995 -7.629 -5.923 -6.3005 -9.276501 -7.474 -6.146501 -6.3465 -6.638 -4.4615 -6.1755 -6.7075 -3.3515 -6.611 -7.3595 -7.633 -8.3745 -3.301 -5.915 
-7.643001 -9.338 -9.805 -8.245501 -5.3015 -4.8035 -6.167 -5.558001 -8.306 -7.629 -8.821 -9.834001 -10.9711 -12.7421 -10.298 -8.2735 -9.642 -6.890501 -8.378 -8.572001 -8.061501 -8.9575 -8.293 -8.5515 -10.1945 -8.9355 -6.587 
-12.2902 -13.4045 -9.805 -10.0545 -8.3175 -6.167 -6.167 -10.151 -12.9432 -8.821 -10.459 -14.7918 -14.4367 -15.5661 -12.8598 -11.8636 -9.6805 -11.2884 -10.9451 -10.2285 -13.8975 -10.3165 -9.1425 -10.6345 -10.7555 -12.5381 
-16.3567 -13.4045 -11.685 -13.4003 -10.1232 -6.167 -10.609 -14.7882 -14.1352 -10.459 -15.4168 -18.2574 -17.2607 -18.1279 -16.4499 -11.9021 -14.4266 -13.8555 -12.6016 -16.2589 -15.2565 -11.3966 -11.3551 -11.1955 -14.3581 
