-4.759 
n/a 
n/a 
n/a 
n/a 
-4.759 
n/a 
n/a 
n/a 
n/a 
-4.759 
n/a 
n/a 
n/a 
n/a 
-4.759 
n/a 
n/a 
n/a 
n/a 
-2.3345 -3.5035 -1.7565 -5.569 0 -1.934 -5.569 0 -5.569 -1.756 -3.6085 -2.4945 -1.4985 -3.17 -4.377 -3.6885 
-4.959 -5.0195 -6.2485 -5.569 -1.934 -6.6375 -5.569 -5.569 -8.8815 -5.505 -6.704 -3.9315 -3.7115 -5.395 -7.434 
-7.198 -10.4265 -6.2485 -9.3555 -6.6375 -6.6375 -9.509001 -8.8815 -12.8911 -7.528 -7.946001 -5.324 -5.598001 -8.654501 
-13.2448 -10.4265 -10.5035 -14.1154 -6.6375 -10.9943 -11.8081 -12.8911 -14.9141 -8.3035 -9.257001 -7.308001 -8.7165 
-13.2448 -14.4657 -15.2634 -14.1154 -10.9943 -13.2934 -15.8177 -14.9141 -15.6896 -9.7915 -11.2756 -10.8073 
-3.9345 -1.7695 -4.179 -5.2185 -2.3345 -1.4985 -5.094 -3.5435 0 -5.569 -1.756 -3.6085 -4.118 -3.915 -3.6885 -3.7095 
-3.94 -6.657001 -7.0755 -5.8945 -3.233 -6.183001 -7.690001 -3.5435 -5.569 -8.8815 -5.505 -8.333501 -8.425 -6.26 -7.614 
-7.881001 -8.823001 -7.5305 -6.021 -8.111 -8.456501 -7.690001 -9.899 -8.8815 -12.8911 -9.7845 -12.7369 -11.2896 -8.843 
-10.1375 -9.158001 -7.819001 -12.334 -9.448 -8.456501 -14.7909 -13.5265 -12.8911 -17.1706 -14.2375 -15.6015 -13.8726 
-10.6519 -9.372001 -14.5766 -13.671 -9.448 -15.2694 -18.4184 -17.5361 -17.1706 -21.6236 -17.1021 -18.1845 
-1.4985 -4.38 -3.1715 -3.5035 -5.066 -3.5155 -5.094 -3.6885 -1.756 -3.6085 -2.5045 -3.1435 -3.915 -3.6885 0 
-6.276 -6.601 -5.3265 -8.0485 -7.4805 -8.6505 -7.185 -5.041 -5.505 -5.552 -5.120501 -6.311501 -6.26 -3.6885 
-7.3625 -8.591001 -10.5745 -11.386 -12.9989 -10.5975 -8.2375 -7.491 -7.1825 -8.4945 -7.5345 -8.331 -6.26 
-10.107 -14.1392 -13.912 -16.9044 -14.9459 -10.7075 -10.3745 -8.644501 -9.935 -9.113501 -8.7675 -8.331 
-15.7718 -17.4767 -19.4304 -18.8514 -15.0559 -12.8445 -11.528 -11.511 -10.415 -9.1675 -8.7675 
-8.3105 -3.5435 -3.5035 -1.7565 -8.3105 -3.6885 -1.756 -3.074 -3.6085 -3.6885 0 
-12.321 -6.2355 -5.0195 -9.8205 -12.466 -5.041 -4.566 -7.5415 -5.021 -3.6885 
-15.013 -8.749001 -14.1433 -14.8694 -13.8185 -7.759501 -8.843 -8.846001 -5.021 
-17.5265 -18.3832 -19.1922 -16.2219 -16.537 -10.4035 -10.151 -8.846001 
-27.1607 -23.4321 -20.5447 -18.9404 -19.181 -11.7115 -10.151 
