-4.759 
n/a 
n/a 
n/a 
n/a 
-4.759 
n/a 
n/a 
n/a 
n/a 
-4.759 
n/a 
n/a 
n/a 
n/a 
-4.759 
n/a 
n/a 
n/a 
n/a 
-3.326 -3.837 -2.3335 -1.4985 -3.0835 -4.7855 -4.7445 -1.934 -3.8655 -3.458 -6.8925 -1.756 -6.8605 -3.277 -3.393 -2.925 -2.4945 -4.493 -1.7695 -2.489 -1.4985 -5.3595 -1.7565 -1.4985 -3.485 -4.02 -1.7565 -4.891 -5.6025 0 
-5.889 -4.933 -3.3515 -3.535 -7.54 -8.3025 -5.51 -4.9135 -7.59 -10.1395 -8.158501 -8.677 -8.679001 -4.243 -6.1225 -3.7675 -6.843 -5.584 -3.1405 -3.9675 -6.564501 -6.184 -2.4195 -4.147 -6.074 -5.1665 -5.8275 -6.6165 -5.6025 
-6.0925 -5.5955 -5.6515 -7.613501 -9.299 -8.8555 -7.39 -8.0765 -13.5601 -10.857 -13.422 -10.9995 -9.578501 -6.4145 -7.2305 -8.112 -8.8035 -6.9565 -4.568 -8.566 -6.895501 -6.981501 -5.0865 -6.6755 -7.5235 -8.650001 -7.468 -6.6165 
-7.026 -7.958 -8.8765 -9.318001 -9.639 -9.7635 -9.489 -14.1636 -13.6501 -10.864 -11.8875 -10.4885 -11.5865 -7.598001 -11.8326 -10.031 -9.989501 -8.894 -8.752501 -8.611 -7.294501 -8.653501 -7.630001 -7.754001 -11.1398 -9.762 -7.468 
-9.246 -11.3154 -10.335 -9.649501 -10.6428 -12.1015 -15.7087 -14.2536 -14.7456 -11.328 -11.2545 -11.9631 -12.5981 -12.2363 -13.7516 -11.217 -11.927 -13.1471 -8.787001 -9.0045 -9.019501 -10.2815 -8.675 -11.3543 -12.2518 -9.762 
-1.4985 -3.0835 -1.7695 -3.8725 -3.222 -3.8655 -3.1425 -2.489 -3.436 -6.482 -1.7695 -6.105 -3.277 -3.393 -2.5045 -3.543 -4.0005 -3.724 0 -3.1015 -1.4985 -4.3105 -5.2135 -3.1425 -2.489 -1.7565 -2.985 -4.2085 
-3.535 -4.578 -5.2995 -5.8865 -6.85 -7.1235 -3.7875 -6.373 -11.0078 -9.3465 -6.422 -10.884 -4.243 -5.9975 -5.323 -8.7115 -7.522 -3.724 -3.1015 -4.7205 -4.977 -8.677 -7.7945 -3.7875 -4.9805 -3.9355 -6.943 
-4.658 -8.120501 -6.632 -10.403 -9.226501 -7.719501 -7.564001 -14.2666 -13.8723 -10.3975 -12.9592 -11.85 -6.357 -8.783501 -9.4185 -10.411 -7.522 -6.8435 -4.7205 -8.285 -9.5065 -11.4554 -8.5055 -6.0715 -8.1055 -7.4075 
-8.192 -9.35 -11.4199 -12.7795 -9.870501 -11.664 -15.6254 -17.1311 -14.9233 -17.5821 -13.9252 -13.964 -9.615001 -13.195 -10.4125 -10.411 -10.7495 -8.783001 -8.285 -12.9805 -12.2479 -12.1664 -10.9331 -9.392501 -11.8397 
-9.411501 -14.4401 -13.7964 -13.4235 -13.9566 -19.7254 -18.4899 -18.1821 -22.1079 -18.5481 -16.0392 -17.222 -14.1337 -14.189 -10.4125 -14.2107 -12.689 -12.4915 -12.9805 -15.7219 -12.9589 -14.594 -14.2541 -13.1149 
-5.9155 -3.6785 -2.3335 -3.0835 -3.6835 -7.572001 -1.934 -3.8655 -2.7415 -3.6215 -6.8925 0 -6.8605 -3.277 -6.318 -2.4945 -1.4985 -6.394001 -1.7565 -5.5965 -4.3105 -5.2135 
-8.9305 -4.529 -5.6115 -6.68 -8.791 -8.7755 -4.9135 -6.652 -6.0725 -9.851501 -6.1565 -6.190001 -8.679001 -6.9725 -6.965 -3.9315 -7.5135 -7.643001 -6.913001 -9.623501 -8.677 
-9.4195 -7.9465 -9.521501 -10.586 -9.8105 -12.0284 -7.3735 -9.626 -10.2925 -8.501 -9.2005 -9.1035 -11.75 -7.522501 -8.785 -9.186501 -7.828001 -13.2575 -11.2366 -14.1892 
-12.8636 -12.3285 -13.4863 -11.6055 -13.073 -14.4884 -9.848001 -13.858 -10.3045 -11.3021 -12.409 -11.5865 -12.77 -8.939 -13.192 -9.249001 -13.5421 -17.5811 -15.8023 
-17.2456 -16.2933 -14.5058 -14.868 -15.533 -16.9629 -14.08 -13.858 -13.1056 -15.1429 -14.6689 -12.5981 -13.9211 -13.6829 -13.3809 -14.9985 -17.8657 -22.1468 
-1.4985 -3.0835 -3.1385 -1.934 -3.8655 -4.0555 -3.436 -6.482 -1.7695 -6.105 -3.277 -3.644 -3.326 
-3.535 -6.479 -4.522 -4.9135 -8.0515 -6.369 -11.0078 -9.3465 -6.422 -10.884 -6.7405 -7.3725 
-6.699501 -7.7275 -7.251 -8.668 -10.5766 -14.5556 -13.8723 -10.3975 -12.9592 -14.3475 -9.828001 
-7.781001 -9.7615 -11.3743 -11.5225 -18.7632 -17.4201 -14.9233 -17.5821 -16.4227 -17.435 
-9.779001 -14.4072 -14.2288 -19.7091 -21.6277 -18.4711 -22.1079 -21.0456 -19.5102 
