-4.759 
n/a 
n/a 
n/a 
n/a 
-4.759 
n/a 
n/a 
n/a 
n/a 
-4.759 
n/a 
n/a 
n/a 
n/a 
-4.759 
n/a 
n/a 
n/a 
n/a 
-21.67 -1.756 -4.4515 -2.5195 -4.8 0 -4.8 -3.997 -3.9595 -2.3345 -3.188 -10.0235 
-21.483 -6.289 -7.120001 -6.262 -4.8 -4.8 -8.5035 -6.2275 -5.1685 -5.9645 -14.3489 
-25.1438 -8.627 -9.316501 -6.262 -6.686501 -8.5035 -11.2782 -7.4635 -8.895 -18.2018 
-26.9586 -9.405 -9.316501 -8.9755 -11.0206 -11.2782 -12.5142 -11.3576 -21.4911 
-27.3701 -9.405 -12.3476 -13.6992 -13.7953 -12.5142 -16.4083 -23.9537 
-2.4265 -2.186 -5.7055 -4.707 -1.7695 -3.2345 -4.079 -8.1555 -5.0425 -2.645 -3.1575 -2.7455 -3.2495 -3.9765 -4.4045 0 -5.5385 -2.664 -4.285 -4.2305 -1.7695 -4.0245 -2.0935 -4.38 -4.951 -4.6625 
-3.292 -6.821501 -8.12 -5.0995 -3.713 -7.464001 -13.2005 -12.807 -7.9555 -3.72 -5.971001 -5.46 -4.974 -6.7965 -4.4045 -5.5385 -7.0585 -5.7405 -5.916 -5.638 -5.830501 -5.061501 -5.657001 -7.861 -8.514 
-7.327001 -8.5445 -8.7135 -6.849 -7.7805 -11.6785 -14.2455 -12.426 -9.186 -6.6745 -8.160501 -6.410501 -7.767 -6.7965 -10.304 -7.0585 -8.883 -6.6955 -7.34 -9.618501 -8.097 -7.757501 -8.8745 -10.375 
-8.885501 -9.041 -10.2185 -10.0215 -10.6905 -15.3435 -14.535 -11.136 -10.635 -8.458 -9.354 -8.995501 -7.767 -10.66 -10.67 -8.883 -9.403001 -7.6515 -10.304 -10.636 -9.972 -10.459 -10.66 
-9.109501 -10.404 -10.6685 -10.6925 -12.3205 -13.047 -11.45 -10.7615 -10.696 -9.527 -10.4865 -8.995501 -10.66 -10.6825 -10.6925 -9.403001 -10.2105 -10.403 -10.684 -10.697 -10.678 -10.688 
-1.4985 -3.562 -3.9595 -2.3345 -3.188 -4.518 -2.5195 -4.8 -1.7695 -3.995 -1.756 -4.4515 0 
-5.2065 -5.582 -5.1685 -5.9645 -8.7985 -7.369 -6.262 -6.877 -5.497 -5.3025 -6.289 -4.4515 
-7.899 -6.973001 -8.895 -12.6514 -11.9877 -11.4087 -7.6405 -8.416 -6.5715 -7.31 -6.289 
-8.6335 -10.2975 -15.9407 -15.8406 -16.0274 -12.7872 -8.6885 -9.740001 -9.705501 -7.31 
-12.1794 -17.662 -19.1299 -19.8803 -17.4059 -13.8352 -9.8015 -13.0718 -9.705501 
-2.3615 -2.186 -3.997 -1.7565 -6.443 -3.9595 -2.5195 -3.995 -2.3345 -4.5235 
-3.5005 -7.3265 -4.925 -8.778501 -11.2347 -5.087 -6.152 -6.273 -6.2075 
-7.9405 -8.243 -12.5434 -13.6738 -12.3622 -8.620001 -8.2025 -10.66 
-8.7805 -16.0492 -17.4387 -14.8013 -15.8952 -10.181 -12.9455 
-16.9847 -20.9445 -18.5662 -18.3343 -17.4562 -15.0332 
