-4.759 
n/a 
n/a 
n/a 
n/a 
-4.759 
n/a 
n/a 
n/a 
n/a 
-4.759 
n/a 
n/a 
n/a 
n/a 
-4.759 
n/a 
n/a 
n/a 
n/a 
-8.004001 -3.8935 -7.2185 -7.523 -3.9795 -2.5195 -6.557 -3.5435 0 -1.934 -1.4985 -3.158 -3.842 -3.8935 -3.7745 -3.5435 -2.229 -6.95 -6.963 -3.9795 -1.934 -1.4985 -3.158 -3.9985 -2.9805 -3.8935 -5.4885 -3.5435 -3.9795 0 -1.934 -4.1045 -2.9805 -3.8935 -3.9795 -2.5195 -7.2145 -3.35 -2.0935 -3.091 -4.7115 -1.934 -3.3195 0 -1.934 -1.4985 -3.158 -3.9415 -2.9805 -3.8935 -1.8085 -4.082 -1.7565 -4.2555 -1.7565 -4.0245 -2.5195 -6.3215 -7.5605 -3.35 
-12.5645 -12.327 -10.2435 -10.8625 -5.775001 -8.5205 -8.731501 -3.5435 -1.934 -2.6125 -4.178 -6.0305 -7.786 -8.6755 -5.717 -4.973001 -9.1575 -9.998 -9.223001 -5.5905 -2.6125 -4.178 -6.1875 -6.48 -5.5395 -10.3615 -7.921 -7.0975 -3.9795 -1.934 -5.346 -6.52 -5.5395 -8.02 -5.775001 -8.883 -7.561501 -5.867001 -4.5345 -7.263 -5.8905 -5.256001 -3.3195 -1.934 -2.6125 -4.178 -6.126 -6.440001 -5.5395 -4.919 -5.2615 -4.8955 -6.0955 -5.602 -6.3685 -5.151 -8.212 -7.835001 -7.8475 
-20.998 -15.352 -13.8182 -12.658 -10.674 -10.368 -8.731501 -5.3395 -2.6125 -5.265 -7.2705 -10.2865 -13.0588 -9.754 -7.2205 -13.1045 -12.3569 -12.258 -9.535 -6.3285 -5.265 -7.4375 -9.3675 -8.076 -12.7319 -12.794 -11.9128 -7.0975 -5.5905 -5.346 -6.791 -8.156501 -10.0475 -8.9195 -12.7791 -9.0045 -10.0095 -7.6195 -8.189001 -8.131001 -7.904 -5.256001 -5.3225 -2.6125 -5.265 -7.429501 -9.188001 -8.070001 -6.214 -7.3255 -5.9685 -6.9175 -6.897 -10.181 -7.323 -11.5773 -9.2285 -7.8555 
-24.023 -18.9267 -15.6137 -17.557 -12.5215 -10.368 -10.647 -6.039001 -5.265 -7.908 -11.9339 -15.5593 -14.1373 -11.4995 -15.679 -16.3039 -14.6169 -12.57 -11.4352 -8.554501 -8.022 -9.593 -10.9583 -15.8636 -15.1644 -16.7858 -11.9128 -8.97 -7.871 -6.791 -8.271 -13.1765 -11.029 -15.9098 -12.9006 -11.6887 -11.7692 -11.7952 -8.7115 -10.553 -7.904 -6.661 -5.9445 -5.265 -8.0245 -9.394 -10.9292 -8.7995 -7.9455 -8.839001 -8.474501 -6.945 -10.6875 -11.2665 -14.0005 -12.5938 -9.2375 
-27.5977 -20.7222 -20.5127 -19.4045 -12.5215 -12.6475 -11.3465 -8.653501 -7.908 -12.8194 -17.2067 -16.6378 -15.8828 -19.958 -18.8784 -18.5639 -14.9289 -14.4702 -13.6612 -10.6465 -9.889501 -11.2272 -18.7459 -18.2961 -19.1562 -16.7858 -13.7853 -11.5275 -9.012001 -8.271 -13.3706 -14.158 -18.0193 -16.0313 -15.5848 -13.4484 -15.9449 -12.3177 -11.2305 -10.553 -9.6355 -8.0605 -8.9385 -8.0245 -9.820001 -11.3066 -11.6587 -10.6215 -9.6225 -9.7075 -8.52 -10.7495 -11.773 -17.944 -15.017 -12.6028 
-8.004001 -7.2115 -8.729501 -3.9795 -2.5195 -5.1845 -5.74 -3.5435 0 -6.95 -6.963 -3.9795 -2.5195 -6.204 -5.447 -2.264 -4.377 0 -5.4885 -3.5435 -3.9795 -2.264 -3.9985 0 -1.934 -4.1045 -7.2145 -3.35 -1.756 -3.9415 -6.3215 -7.5605 -3.35 -2.674 -3.7855 -4.082 -1.7565 -4.2555 -1.7565 -4.0245 0 
-15.8825 -16.7442 -9.444501 -5.775001 -7.594501 -5.7465 -7.83 -3.5435 -6.95 -9.998 -9.223001 -5.775001 -8.3915 -6.238501 -7.9595 -7.813001 -4.377 -5.4885 -7.921 -7.0975 -6.448501 -7.3795 -3.9985 -1.934 -5.346 -11.716 -7.561501 -5.1005 -6.293 -10.718 -7.835001 -7.8475 -6.6125 -5.347 -7.703001 -4.8955 -6.0955 -5.602 -6.3685 -4.0245 
-25.4152 -17.4592 -10.2935 -10.523 -7.825 -7.8315 -7.83 -11.9205 -9.998 -12.258 -11.3713 -10.7025 -8.413 -8.780001 -14.0101 -7.813001 -9.883 -7.921 -11.9128 -9.846001 -12.2222 -7.3795 -6.153 -5.346 -13.5087 -12.063 -9.509501 -10.3225 -13.4225 -12.2315 -7.8555 -11.7258 -9.231001 -9.959701 -8.1315 -6.9175 -6.897 -10.181 -6.3685 
-26.1302 -18.3082 -15.0057 -10.734 -10.155 -7.8315 -16.6804 -14.9685 -12.258 -14.4063 -16.2988 -10.724 -10.688 -14.8646 -14.0101 -13.6662 -12.5933 -11.9128 -14.6613 -15.6727 -12.2222 -9.801001 -8.368 -13.5087 -13.8557 -14.011 -14.7029 -17.7096 -14.936 -12.252 -11.7406 -14.3443 -14.0743 -10.3882 -10.2959 -6.945 -10.6875 -10.181 
-26.9792 -23.0204 -15.2167 -13.064 -10.155 -16.6835 -19.7284 -17.2285 -14.4063 -19.3338 -16.3203 -12.999 -16.7726 -14.8646 -19.8633 -16.3765 -16.5851 -14.6613 -20.488 -15.6727 -14.6437 -12.1594 -16.8665 -13.8557 -15.8037 -19.2044 -22.09 -19.2231 -14.9565 -16.1371 -14.3591 -19.1876 -14.5028 -12.5526 -10.3234 -10.7495 -10.6875 
-7.4445 -3.8935 -5.1845 -3.5435 -2.229 -8.729501 -3.9795 0 -6.204 -5.447 -6.95 -6.963 -3.9795 -1.934 -3.842 0 -5.4885 -3.5435 -3.9795 -1.934 -3.9985 0 -1.756 -2.0935 -3.091 -3.3195 -2.9805 -3.7555 -5.384 -5.512 -4.082 -1.934 -4.1045 -2.5195 -7.2145 -3.35 -1.756 -1.934 -3.9415 -2.5195 -6.3215 -8.445001 -3.35 0 
-12.1658 -10.7335 -9.41 -4.973001 -10.622 -9.444501 -3.9795 -6.204 -6.238501 -13.3348 -9.998 -9.223001 -5.5905 -5.18 -3.842 -5.4885 -7.921 -7.0975 -5.5905 -5.277 -3.9985 -1.756 -4.3175 -4.5345 -5.8145 -6.275001 -5.3095 -9.2655 -6.6895 -6.5085 -5.011 -5.346 -7.019501 -8.883 -7.561501 -5.1005 -4.0205 -5.2535 -6.861 -8.212 -9.855 -9.901501 -3.35 
-19.0058 -14.959 -11.0211 -14.569 -10.754 -9.444501 -10.4765 -6.238501 -14.3819 -16.3828 -12.258 -9.535 -7.6335 -5.18 -9.8675 -7.921 -11.9128 -8.97 -7.802001 -5.277 -5.669 -4.3175 -6.499001 -7.377501 -7.504 -8.784 -11.2749 -10.4045 -7.9775 -7.28 -8.346001 -7.5925 -13.6154 -9.0045 -9.509501 -7.147501 -7.2605 -7.5 -12.8039 -10.76 -9.939 -9.901501 
-23.2313 -16.5701 -20.6171 -14.701 -10.754 -16.1127 -10.509 -14.3819 -17.4299 -18.6428 -12.57 -12.7402 -7.6335 -11.7373 -12.3532 -11.9128 -13.7853 -10.564 -7.802001 -6.2775 -7.825 -6.499001 -9.5415 -8.815001 -9.93 -15.0552 -12.4139 -12.5661 -8.651501 -10.3035 -9.0395 -14.393 -13.7369 -10.135 -11.5279 -9.4425 -10.126 -13.6575 -15.3519 -10.844 -9.939 
-24.8424 -26.1661 -20.7491 -14.701 -17.4222 -16.1452 -18.6524 -17.4299 -19.6899 -18.9548 -15.7752 -12.7402 -14.4496 -14.223 -16.345 -13.7853 -15.3793 -10.564 -8.540001 -8.776001 -10.3745 -9.5415 -11.1086 -11.3802 -16.1832 -16.1942 -14.5755 -13.2401 -12.1562 -10.997 -16.0138 -14.5145 -14.8674 -12.1534 -13.8229 -12.6128 -16.4735 -16.2055 -15.4359 -10.844 
-5.1845 -5.74 -3.5435 -8.729501 -3.9795 0 -1.934 -4.377 -7.8625 -5.447 -3.5435 -6.3225 -6.963 -3.9795 0 -1.934 -3.9985 -5.4885 -3.5435 -3.9795 0 -8.004001 -3.7555 -4.082 -1.7565 -4.2555 -1.7565 -4.0245 -2.0935 -3.3195 -4.7115 -1.934 -4.1045 -7.2145 -3.35 -1.756 -1.934 -3.9415 -6.3215 -8.445001 -3.35 0 
-5.7465 -7.83 -11.1415 -9.444501 -3.9795 -1.934 -5.5775 -12.5985 -8.625 -7.554 -11.293 -7.0245 -9.223001 -3.9795 -1.934 -5.277 -10.0315 -7.921 -7.0975 -3.9795 -8.004001 -12.4265 -9.324 -4.8955 -6.0955 -5.602 -6.3685 -6.0675 -5.596 -8.276 -5.8905 -5.346 -11.716 -7.561501 -5.1005 -4.0205 -5.2535 -10.718 -9.855 -9.901501 -3.35 
-7.8315 -15.9014 -11.8565 -9.444501 -5.5905 -5.5775 -14.3644 -13.361 -11.0014 -15.8487 -11.995 -9.302501 -9.223001 -5.5905 -5.277 -11.825 -12.464 -11.9128 -7.0975 -13.0577 -12.4265 -17.995 -10.7345 -6.9175 -6.897 -10.181 -8.772 -10.1185 -10.2865 -10.0615 -9.349501 -13.5087 -12.063 -9.509501 -7.147501 -7.2605 -12.5386 -14.2515 -9.939 -9.901501 
-15.9045 -16.6164 -11.8565 -10.505 -8.126 -14.3644 -15.1269 -15.7374 -19.2961 -16.5507 -14.273 -9.302501 -9.535 -7.802001 -11.825 -14.2575 -16.4558 -11.9128 -16.8843 -17.4802 -17.995 -19.4055 -12.7565 -6.945 -10.6875 -12.7155 -12.8856 -15.0732 -12.072 -13.5205 -17.6694 -13.8557 -14.011 -11.5279 -9.4425 -14.8164 -16.0721 -14.3355 -9.939 
-16.6195 -16.6164 -12.917 -13.0405 -17.1081 -15.1269 -17.5033 -24.0321 -19.9981 -18.8287 -14.273 -9.535001 -12.9087 -14.5792 -14.2575 -18.2493 -16.4558 -21.6996 -21.3068 -23.0487 -19.4055 -21.4275 -12.784 -10.7495 -13.222 -16.8291 -17.8403 -16.8587 -15.531 -21.8404 -18.0164 -15.8037 -16.0294 -13.8229 -17.3032 -18.3499 -16.1561 -14.3355 
