-4.759 
n/a 
n/a 
n/a 
n/a 
-4.759 
n/a 
n/a 
n/a 
n/a 
-4.759 
n/a 
n/a 
n/a 
n/a 
-4.759 
n/a 
n/a 
n/a 
n/a 
-3.1015 -1.4985 -4.3105 -3.4005 -4.612 -4.66 -3.5015 -3.9225 -1.4985 -3.188 
-4.7205 -4.977 -7.1285 -8.521501 -10.368 -7.003 -6.5105 -4.463 -3.619 
-8.285 -7.8065 -13.1103 -14.7795 -12.711 -9.513 -6.81 -6.5165 
-11.2805 -14.6307 -19.3683 -17.1225 -15.221 -10.0025 -8.112 
-18.1047 -20.8887 -21.7113 -19.6325 -15.7105 -11.4029 
-3.88 0 -1.4985 -4.3105 -3.723 -1.7565 -3.4005 -2.186 -1.934 -1.4985 -4.66 -3.8685 -3.9225 -1.4985 -3.188 -3.959 0 
-3.88 -1.4985 -4.977 -6.716001 -5.216001 -4.473 -5.4505 -4.0835 -2.6125 -5.731 -8.0985 -7.061501 -4.463 -3.619 -6.2425 -3.959 
-5.4635 -4.977 -7.462501 -9.323501 -7.458 -6.4475 -7.4785 -4.6915 -6.621 -8.6875 -10.1115 -7.413 -6.5165 -7.77 -6.2425 
-8.958 -7.462501 -9.534 -11.6447 -8.870001 -8.313001 -8.1665 -8.525001 -9.201 -10.259 -10.7565 -8.745 -10.044 -7.77 
-11.4991 -9.534 -11.8638 -13.0567 -10.8647 -8.7925 -12.3106 -10.564 -10.718 -10.7685 -12.0885 -12.0577 -10.044 
-1.4985 -3.4005 -3.3755 -1.7565 -3.8655 -2.186 -5.1235 -3.5015 -1.934 -4.1865 -3.1015 
-5.183001 -8.2685 -4.5295 -5.196 -5.968 -7.928 -6.879001 -4.704 -6.652 -7.422 
-10.248 -9.669001 -9.047501 -7.193501 -12.2882 -10.1385 -7.783501 -9.092501 -10.564 
-11.6485 -14.5706 -11.142 -13.6877 -14.4987 -11.1588 -12.812 -13.3145 
-16.5501 -16.6651 -17.6362 -15.8982 -15.519 -16.1873 -17.034 
-8.3895 -3.4005 -1.934 -3.8655 -5.048 -1.934 -4.66 -3.8685 -1.934 -3.188 -3.4005 0 
-13.891 -5.069 -4.9135 -8.403501 -6.4945 -6.7105 -8.0985 -5.1635 -5.387 -6.165501 -3.4005 
-12.3045 -7.3375 -10.111 -9.648001 -11.9214 -8.743501 -8.959001 -8.047001 -9.2945 -6.165501 
-13.0747 -12.8566 -11.4775 -15.5893 -13.9544 -9.7305 -11.9175 -12.2945 -9.2945 
-20.0154 -14.2231 -17.4188 -17.6223 -14.9414 -12.6442 -16.165 -12.2945 
