-4.759 
n/a 
n/a 
n/a 
n/a 
-4.759 
n/a 
n/a 
n/a 
n/a 
-4.759 
n/a 
n/a 
n/a 
n/a 
-4.759 
n/a 
n/a 
n/a 
n/a 
-4.649 -2.7415 -4.2215 -1.934 -1.8085 -3.9785 -3.391 -5.2815 -2.229 -3.3975 0 
-7.1915 -4.7885 -4.885 -3.2685 -5.666 -5.38 -9.4655 -6.709001 -5.2825 -3.3975 
-8.2395 -5.2365 -6.5425 -6.9725 -6.677 -12.4653 -11.114 -9.0695 -5.2825 
-8.7275 -6.9585 -9.076501 -7.651501 -14.2553 -14.1138 -13.4745 -9.0695 
-10.4627 -9.493501 -9.112 -15.7526 -15.9038 -16.4743 -13.4745 
-4.649 -2.7415 -4.2215 -1.934 -1.8085 -3.9785 -3.391 -5.2815 -2.229 -3.3975 -1.934 -7.5135 0 
-7.1915 -4.7885 -4.885 -3.2685 -5.666 -5.38 -9.4655 -6.709001 -5.2825 -5.415 -8.644501 -7.5135 
-8.2395 -5.2365 -6.5425 -6.9725 -6.677 -12.4653 -11.114 -9.0695 -7.0165 -12.6027 -8.644501 
-8.7275 -6.9585 -9.076501 -7.651501 -14.2553 -14.1138 -13.4745 -10.335 -14.4106 -12.6027 
-10.4627 -9.493501 -9.112 -15.7526 -15.9038 -16.4743 -14.74 -17.7291 -14.4106 
-4.649 0 -4.2215 -1.934 -12.16972 -1.934 -3.9785 -3.391 -5.5995 -4.6245 -3.3975 0 
-4.649 -4.2215 -4.885 -15.11012 -14.10372 -5.7575 -5.38 -9.247001 -10.884 -7.81 -3.3975 
-8.1595 -4.885 -18.81152 -17.04412 -17.92722 -7.061501 -12.2468 -14.6495 -14.0695 -7.81 
-9.133 -18.81152 -20.74552 -20.86762 -19.23122 -14.8019 -17.6493 -17.835 -14.0695 
-23.12892 -20.74552 -24.56902 -22.17162 -26.97162 -20.2044 -20.8348 -17.835 
-4.649 -2.7415 -4.2215 -1.934 -1.4985 -3.9785 -3.391 -5.2815 -2.229 -3.3975 -1.934 -7.5135 
-7.1915 -4.7885 -4.885 -2.6125 -4.496 -5.38 -9.4655 -6.709001 -5.2825 -5.415 -8.644501 
-8.2395 -5.2365 -5.842501 -4.783 -5.942 -12.4653 -11.114 -9.0695 -7.0165 -12.6027 
-8.7275 -6.389 -8.053501 -7.429 -13.3859 -14.1138 -13.4745 -10.335 -14.4106 
-10.2485 -8.4965 -10.0475 -15.0555 -15.0344 -16.4743 -14.74 -17.7291 
