-4.759 
n/a 
n/a 
n/a 
n/a 
-4.759 
n/a 
n/a 
n/a 
n/a 
-4.759 
n/a 
n/a 
n/a 
n/a 
-4.759 
n/a 
n/a 
n/a 
n/a 
-3.488 -3.06 0 -2.7405 0 -3.6835 -4.3185 -4.931 -6.377 -3.1385 -5.037 
-5.4465 -3.06 -2.7405 -2.7405 -3.6835 -7.238501 -9.171 -12.3966 -9.0895 -7.04 
-5.4465 -4.644 -2.7405 -6.900001 -7.238501 -9.362 -16.9324 -15.1091 -13.2392 
-6.224 -4.644 -6.900001 -9.946001 -9.362 -17.231 -19.6449 -19.2588 
-6.224 -8.797001 -9.946001 -12.4979 -17.231 -19.9435 -23.7946 
-3.488 -3.06 0 -2.7405 -3.691 -3.6835 -4.9225 -6.442 -4.9395 -6.377 -4.9225 -2.4945 -5.037 
-5.4465 -3.06 -2.7405 -6.679501 -7.589001 -8.723501 -12.3787 -12.2047 -12.7223 -11.9543 -6.9525 -8.6145 
-5.4465 -4.644 -6.679501 -11.3897 -13.5062 -16.6917 -18.1414 -19.9875 -18.2996 -13.9843 -13.3905 
-6.224 -8.634501 -11.3897 -17.3069 -21.4744 -22.4544 -25.9242 -25.5648 -20.3296 -20.4223 
-10.513 -13.6167 -17.3069 -25.2751 -27.2371 -30.2372 -31.5015 -27.5948 -26.7676 
-1.934 -3.488 -3.06 0 -2.7405 -4.3435 -6.377 -3.1385 -4.0875 -3.355 -1.934 -1.8085 -8.002001 -4.8115 -1.934 -3.691 0 
-4.9205 -5.4465 -3.06 -2.7405 -7.3465 -9.8265 -9.0895 -6.646501 -5.7705 -4.8475 -3.2685 -8.660501 -12.341 -6.84 -4.8225 -3.691 
-7.908 -5.4465 -4.644 -7.3465 -13.4865 -12.653 -12.8457 -7.413001 -5.8455 -5.946 -9.237 -13.6361 -15.4093 -9.748501 -4.8225 
-7.908 -6.224 -9.283501 -13.4865 -16.313 -16.4092 -13.6122 -7.507501 -6.6975 -11.7795 -15.3737 -16.5344 -18.3178 -9.748501 
-9.6285 -10.609 -15.5017 -16.313 -20.0692 -17.1757 -13.7067 -8.366 -11.155 -16.8865 -17.7712 -19.4429 -18.3178 
-3.488 -3.06 0 -2.7405 -3.691 -3.6835 -4.3185 -4.866 0 -6.377 -3.1385 -5.037 0 
-5.4465 -3.06 -2.7405 -6.679501 -7.589001 -7.238501 -9.450001 -4.866 -6.377 -9.0895 -7.04 -5.037 
-5.4465 -4.644 -6.679501 -11.3897 -12.0212 -13.1176 -9.450001 -12.5164 -9.0895 -13.2392 -7.04 
-6.224 -8.634501 -11.3897 -15.8219 -17.9003 -13.1176 -17.4266 -15.2289 -13.2392 -13.2392 
-10.513 -13.6167 -15.8219 -21.701 -17.9003 -21.0942 -20.1391 -19.3786 -13.2392 
