-4.759 
n/a 
n/a 
n/a 
n/a 
-4.759 
n/a 
n/a 
n/a 
n/a 
-4.759 
n/a 
n/a 
n/a 
n/a 
-4.759 
n/a 
n/a 
n/a 
n/a 
-2.872 0 -2.3615 -4.957 -1.7565 -3.429 -1.4985 -3.469 -2.95 0 
-2.872 -2.3615 -9.080501 -6.0415 -6.4965 -4.4635 -4.636 -4.7535 -2.95 
-4.6665 -9.080501 -10.622 -11.3585 -7.862 -7.065 -6.606 -4.7535 
-11.8289 -10.622 -15.939 -12.724 -10.228 -10.155 -6.606 
-13.3704 -15.939 -17.3045 -15.09 -13.8036 -10.155 
-2.872 -2.3615 -3.4715 -3.013 -3.465 -3.4915 -2.645 -2.95 0 
-4.6665 -5.3475 -6.865 -5.9665 -7.514 -4.402 -5.117001 -2.95 
-7.529 -8.828 -10.7495 -10.1185 -8.203 -6.83 -5.117001 
-11.5971 -12.7325 -14.9015 -10.5925 -10.586 -6.83 
-15.5016 -16.8845 -15.3755 -12.9755 -10.586 
-2.872 -2.4265 -4.0705 -3.135 -2.95 
-4.062 -4.783 -6.23 -4.868 
-6.423 -6.689 -6.8075 
-7.845 -7.1895 
-8.406 
-2.872 -2.4265 -4.116 -2.95 -1.7695 -4.305 
-4.062 -6.882 -7.108 -4.11 -4.667 
-9.036001 -9.804501 -7.7675 -7.042 
-12.1137 -10.479 -10.057 
-12.7882 -12.7685 
