-4.759 
n/a 
n/a 
n/a 
n/a 
-4.759 
n/a 
n/a 
n/a 
n/a 
-4.759 
n/a 
n/a 
n/a 
n/a 
-4.759 
n/a 
n/a 
n/a 
n/a 
-1.934 -5.4905 -8.192 -9.1225 -7.7475 -1.4985 -5.0405 -3.5965 
-6.7485 -14.3125 -17.7395 -17.1824 -9.553 -6.138 -8.966001 
-16.1795 -23.86 -25.7994 -18.9879 -14.2671 -10.213 
-25.727 -31.9199 -27.6049 -23.702 -18.3421 
-33.7869 -33.7254 -32.319 -27.777 
-4.165 -6.478 -4.09 -1.4985 -3.0835 -3.6705 -3.5965 -1.934 -5.4905 
-7.179 -10.01 -5.5375 -3.535 -6.594 -7.423 -5.7545 -6.7485 
-10.2535 -10.394 -6.940001 -6.882 -9.443501 -8.499001 -11.4794 
-10.618 -11.7965 -9.528 -9.541 -10.3295 -15.1055 
-12.0205 -14.3845 -12.285 -10.39 -17.243 
-1.4985 -3.0835 -2.9645 -1.7565 -1.4985 -3.8235 0 -3.5965 0 -2.7415 -4.4105 -1.934 -5.4905 0 -4.9725 -1.7695 -1.8085 -3.6765 -3.0695 -4.504 -2.9905 -4.982 0 -2.4285 -5.7245 0 -1.756 -1.4985 -3.8235 -4.289 -1.7695 -2.489 -3.2955 -1.934 -2.3335 -4.1645 -3.834 -1.4985 -3.9785 -1.7565 -1.4985 -4.602 -4.153 
-3.535 -6.016 -3.7825 -2.4195 -4.53 -3.8235 -3.5965 -3.5965 -2.7415 -5.7325 -5.307 -6.7485 -5.4905 -4.9725 -5.1235 -3.41 -4.452 -4.7945 -6.6085 -4.8085 -7.9405 -4.982 -2.4285 -8.2705 -5.7245 -1.756 -3.0405 -4.53 -8.484 -5.0125 -3.1405 -3.979 -4.2285 -4.359 -6.127501 -7.688001 -4.5435 -4.496 -4.924 -2.4195 -5.3995 -5.112 
-6.827001 -6.6895 -4.56 -5.455501 -4.53 -7.639501 -3.5965 -6.466001 -5.7325 -6.4165 -10.0285 -6.7485 -10.784 -5.1235 -6.3335 -5.715 -5.2675 -7.9585 -7.0295 -8.943501 -7.9405 -7.2355 -8.2705 -8.2705 -6.8885 -3.0405 -6.239 -8.926001 -9.1075 -6.0555 -4.7755 -4.8875 -6.881 -6.319 -9.709001 -8.544001 -6.9855 -4.959 -5.224 -5.785501 -5.5865 
-7.0055 -7.27 -6.3225 -5.455501 -8.171 -7.639501 -6.466001 -9.687 -6.4165 -11.2826 -10.0285 -12.651 -10.7895 -6.3335 -8.1835 -6.434 -9.1425 -8.09 -9.9975 -8.943501 -9.729 -9.781 -8.2705 -9.173501 -8.1765 -6.239 -9.8155 -9.496501 -9.612 -7.464 -5.407001 -7.5825 -8.585501 -9.7825 -9.98 -9.981001 -7.045 -5.2625 -7.5465 -5.842 
-7.5265 -8.413 -6.3225 -9.153501 -8.171 -9.484 -9.687 -9.963501 -11.2826 -11.2826 -15.931 -12.6565 -11.9995 -8.1835 -8.852 -9.858001 -9.481501 -10.0215 -9.9975 -10.0285 -10.04 -9.781 -9.173501 -10.0285 -10.051 -9.8155 -9.9505 -9.738501 -9.7665 -8.250501 -8.0235 -9.4565 -10.074 -9.989 -10.1065 -9.991501 -7.3785 -7.552001 -7.556 
-1.4985 -3.0835 -4.196 -4.544 -3.5965 -2.7415 -3.961 -2.3345 -1.4985 -4.0395 -1.7565 -4.165 -6.478 -1.934 -1.4985 -3.158 -5.4905 0 
-3.535 -6.791 -6.297 -8.113001 -6.466001 -5.274 -4.878 -3.233 -4.6255 -4.757 -5.8325 -7.179 -8.597 -2.6125 -4.178 -8.273001 -5.4905 
-7.075001 -8.6485 -9.358 -11.6689 -8.6365 -6.1375 -6.0905 -6.6285 -4.998 -9.423 -8.382001 -9.083 -9.3435 -5.265 -8.446 -8.273001 
-8.837501 -11.8559 -13.1409 -13.8394 -9.627001 -7.035 -9.394501 -6.8885 -9.644501 -12.0327 -9.986001 -9.575 -12.1914 -8.712001 -8.446 
-12.0629 -15.6388 -15.3114 -14.8299 -10.649 -10.6465 -10.5663 -11.6668 -12.2542 -13.6367 -10.4805 -12.5235 -15.6384 -8.712001 
