-4.759 
n/a 
n/a 
n/a 
n/a 
-4.759 
n/a 
n/a 
n/a 
n/a 
-4.759 
n/a 
n/a 
n/a 
n/a 
-4.759 
n/a 
n/a 
n/a 
n/a 
-2.9805 -4.8275 -1.4985 -3.0435 -4.6945 -2.6165 -1.7695 -5.8995 -2.356 -1.4985 -3.59 -1.7565 -4.8385 -3.851 -1.7695 -1.4985 -3.8275 -1.934 -7.7405 0 
-6.674001 -6.222 -4.4865 -6.4545 -7.251501 -4.153 -6.523001 -7.5045 -3.1615 -4.268 -5.228 -6.329501 -8.795 -4.0015 -2.7955 -4.726 -5.2615 -9.458 -7.7405 
-7.494501 -9.508 -8.0315 -9.156501 -8.707001 -9.097501 -7.842 -8.3295 -6.524 -5.877 -8.7425 -9.920501 -8.8135 -4.5775 -6.153 -5.692 -13.8699 -9.458 
-10.553 -13.2336 -11.0387 -10.806 -13.9175 -9.734001 -8.6105 -11.976 -7.7425 -9.119 -12.4909 -9.968501 -9.255501 -7.684 -6.940001 -14.9236 -13.8699 
-14.2786 -16.2408 -12.6882 -16.0165 -14.554 -10.736 -12.33 -13.1945 -10.4675 -12.9424 -12.5389 -10.331 -10.599 -8.511001 -16.649 -14.9236 
-2.9805 -4.8275 -3.013 -2.6165 -3.7085 -1.4985 -3.891 -3.0105 -2.356 -4.8385 -3.59 -3.433 -1.4985 -4.031 -1.7565 -9.843 -3.8275 0 
-6.674001 -8.59 -3.724 -6.018001 -4.704 -5.2725 -7.212 -4.921 -7.405001 -8.030001 -6.5995 -4.3795 -4.771 -5.571 -12.5487 -13.7469 -3.8275 
-9.922501 -8.797001 -6.586501 -7.042 -8.7275 -9.706 -9.227501 -9.572001 -10.3745 -11.9797 -7.681 -7.8615 -6.571 -17.43 -16.4526 -13.7469 
-10.1805 -11.8359 -7.778501 -11.2835 -13.3968 -11.7215 -13.9315 -13.2817 -15.282 -13.0612 -11.3672 -9.68 -18.6636 -21.3339 -16.4526 
-13.2194 -13.0279 -12.2014 -15.9528 -15.4123 -16.4255 -17.6412 -18.1892 -16.3635 -16.7474 -13.1857 -21.8188 -22.5675 -21.3339 
-2.9805 -4.1585 -3.013 -5.651501 -3.013 -3.8355 -3.7495 -3.0435 -2.356 -4.8385 -3.851 -1.7695 -1.4985 -10.1105 -3.8275 
-5.319 -8.051001 -8.529501 -7.033 -7.602501 -7.462 -6.781 -5.1645 -7.405001 -8.795 -4.0015 -2.7955 -11.306 -14.07 
-9.419701 -13.3375 -11.1545 -13.0165 -11.7096 -9.826 -9.113001 -8.829 -10.733 -8.8135 -4.5775 -12.9685 -16.1827 
-14.7062 -15.299 -14.5239 -17.4438 -14.0736 -12.5928 -13.4739 -12.2102 -10.7755 -9.255501 -15.5157 -17.8154 
-16.6677 -20.3317 -19.1406 -19.8078 -16.8404 -16.9537 -16.8551 -12.2527 -11.2175 -20.4299 -20.1794 
-5.487 -3.8275 -2.7415 -6.0525 -5.6295 -3.8565 -1.934 -4.8385 -3.59 -2.7415 -3.627 -2.6165 -6.0525 -2.9195 0 
-8.339001 -5.9615 -10.019 -12.7668 -10.2335 -7.348001 -6.0525 -8.030001 -6.039001 -7.8625 -6.963 -7.825001 -9.431001 -2.9195 
-11.0542 -13.7956 -16.8271 -17.3708 -13.725 -11.9359 -9.696 -11.4192 -11.5116 -10.3285 -12.8227 -11.4601 -9.431001 
-18.8883 -20.6037 -21.4311 -20.8623 -18.3129 -15.5794 -13.4376 -16.8918 -13.9776 -16.1882 -16.4578 -11.4601 
-25.6964 -25.2077 -24.9226 -25.4502 -21.9564 -19.321 -18.9102 -19.3578 -19.8373 -19.8233 -16.4578 
