-4.759 
n/a 
n/a 
n/a 
n/a 
-4.759 
n/a 
n/a 
n/a 
n/a 
-4.759 
n/a 
n/a 
n/a 
n/a 
-4.759 
n/a 
n/a 
n/a 
n/a 
-9.022501 -3.4605 -1.934 -2.8845 0 -3.6845 -3.595 -1.4985 -4.748 -3.5015 -2.5045 -1.8085 -7.737 -4.285 -3.545 -3.4185 
-12.5895 -5.5225 -4.7805 -2.8845 -3.6845 -5.4585 -5.0915 -5.7545 -7.1735 -5.7065 -3.3625 -10.0439 -12.7954 -6.5315 -6.7995 
-14.956 -8.3245 -4.7805 -7.298 -5.4585 -6.325 -9.2545 -8.6175 -9.6285 -6.5425 -12.5775 -15.1023 -15.0419 -8.996 
-17.758 -8.3245 -9.118501 -9.805 -6.325 -11.0476 -12.2815 -11.2617 -10.3005 -16.1247 -17.6359 -17.3488 -17.5064 
-17.758 -12.8159 -11.6997 -10.6885 -11.0476 -14.0746 -14.9257 -11.9337 -20.1191 -21.1831 -19.8824 -19.8133 
-4.203 -5.2225 -4.0395 -2.9825 -1.7695 -2.489 -4.3215 -2.5045 -1.4985 -3.818 -4.285 -3.4185 
-9.769001 -9.6885 -8.027 -4.86 -3.1405 -5.5635 -6.389 -3.583 -5.0925 -8.427 -7.753 
-15.028 -13.7244 -9.880501 -6.3155 -5.939 -7.2905 -7.055501 -7.326 -9.254 -12.6676 
-19.0639 -15.5779 -11.336 -8.189501 -8 -8.123 -11.4135 -11.4865 -13.6978 
-20.9174 -17.0334 -13.21 -10.5745 -8.736 -12.6402 -15.574 -15.9303 
-9.022501 -3.4605 -4.5875 -2.9805 -2.186 -1.4985 -5.674 -3.17 -5.886 -3.4185 -1.7565 -4.698 -1.934 -2.8845 0 
-12.5895 -7.481 -8.406 -4.1635 -3.339 -6.027 -8.723001 -9.450001 -10.111 -4.2475 -5.5475 -6.177001 -4.7805 -2.8845 
-17.1704 -11.4919 -9.513 -5.312 -7.6585 -8.820001 -15.4506 -13.9588 -11.0886 -6.2225 -6.946 -8.606001 -4.7805 
-21.1813 -12.5989 -10.7505 -9.788001 -9.2865 -15.5784 -19.9594 -14.9364 -13.0636 -7.762001 -9.8715 -8.606001 
-22.2883 -13.8364 -15.2265 -11.416 -16.2437 -20.0872 -20.937 -16.9114 -14.6031 -10.8745 -9.8715 
-1.934 -2.8845 0 -1.4985 -4.203 -4.8195 -4.5085 -3.595 -2.5045 -1.4985 -4.748 -3.17 -4.377 -3.4185 -1.7565 -1.4985 -4.285 -3.545 
-4.7805 -2.8845 -1.4985 -5.438 -9.2535 -9.676001 -7.5475 -5.227 -3.583 -5.7545 -7.884 -5.395 -7.901501 -4.2475 -2.4195 -4.774 -6.5315 
-4.7805 -4.696 -5.438 -11.1305 -14.328 -12.7844 -9.774 -6.2635 -7.735001 -8.3465 -9.8485 -8.302 -8.087501 -4.482 -5.76 -6.723001 
-5.85 -8.2205 -11.1305 -16.205 -17.4364 -15.0109 -10.6765 -9.933001 -9.179001 -9.9865 -13.1141 -8.489 -8.248501 -7.829 -7.606 
-8.7425 -14.5716 -16.205 -19.3134 -19.6629 -15.9134 -14.346 -11.4726 -10.4195 -13.2327 -13.3011 -8.6125 -11.8219 -8.1335 
