-4.759 
n/a 
n/a 
n/a 
n/a 
-4.759 
n/a 
n/a 
n/a 
n/a 
-4.759 
n/a 
n/a 
n/a 
n/a 
-4.759 
n/a 
n/a 
n/a 
n/a 
-3.1495 -4.547 -2.742 -3.7085 -2.264 -4.3905 -1.934 -3.739 0 
-6.5465 -6.892 -5.235 -5.496 -6.261001 -6.151 -5.3175 -3.739 
-7.9975 -9.580001 -6.918 -8.168 -8.308001 -9.2255 -5.3175 
-10.9397 -11.4536 -8.937 -9.539001 -11.9117 -9.2255 
-12.8133 -13.4726 -10.096 -13.3379 -11.9117 
-3.0415 0 -2.3615 -4.602 -4.09 -1.934 -3.4795 0 
-3.0415 -2.3615 -6.9825 -8.8365 -5.2875 -5.9385 -3.4795 
-5.189 -6.9825 -10.7025 -9.814501 -9.6885 -5.9385 
-9.925 -10.7025 -11.6805 -14.2851 -9.6885 
-13.8714 -11.6805 -16.1511 -14.2851 
-1.934 -3.333 -1.7695 -3.2345 -1.4985 -3.6005 -3.777 -1.934 -1.4985 -3.127 -3.135 -4.8695 -2.915 -1.7695 -2.489 -3.7855 -1.7695 -1.4985 -3.2 -2.3335 -3.2645 -2.489 -1.934 -1.4985 -3.519 -1.7565 -3.598 -5.036 -2.228 -1.756 -2.1715 0 
-3.9835 -4.022 -3.713 -4.328 -4.9615 -7.752 -4.5805 -2.6125 -4.269 -6.8155 -8.028501 -7.395 -4.548 -3.1405 -4.789001 -4.793 -2.7955 -4.259 -4.957 -4.997 -3.7195 -4.348 -2.6125 -4.4155 -4.4175 -5.209 -8.23 -6.459 -4.89 -4.749 -2.1715 
-4.0425 -5.5905 -4.717 -7.085001 -7.891 -9.2445 -5.495 -5.548 -7.862 -12.0652 -10.6714 -8.603001 -5.77 -5.6465 -5.3715 -5.356501 -5.609 -6.179501 -7.0365 -5.3065 -5.5955 -4.967 -4.8345 -4.839 -7.522501 -10.509 -11.189 -8.849501 -6.1155 -4.749 
-5.5995 -6.3195 -7.323 -10.7035 -9.43 -9.981501 -8.5865 -8.8655 -13.2729 -14.7081 -11.8794 -9.1045 -7.630001 -6.2075 -5.9095 -8.402 -7.41 -7.139501 -7.1005 -7.002501 -6.1465 -6.2475 -4.9455 -7.9325 -12.9005 -12.6646 -13.4416 -10.3115 -6.1155 
-6.325 -9.142 -11.0423 -12.2425 -10.093 -13.073 -12.2416 -14.35 -15.9158 -15.9161 -12.3809 -9.3505 -7.942 -6.6385 -9.1355 -10.13 -9.7915 -7.147 -9.665501 -7.548 -7.482 -6.3225 -7.9605 -13.6189 -15.3321 -14.8436 -14.1391 -9.346001 
-7.727 -4.602 -1.7565 -4.739 -4.126 -2.742 -2.4265 -4.052 0 
-12.7376 -6.4945 -6.449 -9.1565 -6.715501 -5.221 -7.1945 -4.052 
-14.6301 -10.647 -11.1915 -11.9146 -9.305 -8.009501 -7.1945 
-18.7826 -15.9075 -13.9496 -14.5041 -12.2937 -8.009501 
-24.0431 -18.6656 -16.5391 -17.4928 -12.2937 
