-4.759 
n/a 
n/a 
n/a 
n/a 
-4.759 
n/a 
n/a 
n/a 
n/a 
-4.759 
n/a 
n/a 
n/a 
n/a 
-4.759 
n/a 
n/a 
n/a 
n/a 
-3.524 -3.1475 -4.1125 -3.0835 -8.445001 -4.3645 -5.355 -2.3085 -4.541 -4.622 -2.5195 -3.8005 -2.229 -4.7015 -3.4425 0 
-5.502 -7.705 -8.014501 -11.117 -13.1681 -11.0845 -7.3245 -6.8955 -6.857 -6.4445 -5.533 -5.0465 -6.7625 -7.267501 -3.4425 
-10.7575 -12.0914 -16.407 -15.8401 -19.8881 -13.054 -12.4539 -9.734501 -8.3535 -9.017501 -6.973001 -8.1415 -9.347 -7.267501 
-15.1439 -20.4839 -21.1301 -22.5601 -21.8576 -18.1834 -15.2929 -11.3392 -11.4555 -10.27 -10.286 -11.5048 -9.347 
-23.5364 -25.207 -27.8501 -24.5296 -26.987 -21.0224 -16.8976 -14.4412 -12.708 -13.753 -13.6493 -11.5048 
-3.524 -3.1475 0 -1.4985 -3.0835 -6.4855 -4.3645 -10.0025 -2.7415 -4.541 -4.622 -2.5195 -1.4985 -5.166 -3.307 -1.934 -7.143001 -1.7565 -3.8005 -1.7695 -5.25 -1.934 -1.4985 -5.1795 -1.7565 -4.4515 0 
-5.502 -3.1475 -1.4985 -3.535 -9.547501 -11.1745 -16.1045 -13.9025 -6.1245 -6.857 -6.4445 -3.1695 -6.457001 -9.132 -5.094501 -6.5325 -6.7765 -5.0365 -5.803 -6.051001 -6.966001 -2.6125 -6.346001 -6.6205 -6.639 -4.4515 
-5.502 -5.485 -3.535 -10.2415 -15.8496 -24.3171 -19.632 -16.869 -7.606501 -8.3535 -7.071 -8.288 -10.451 -9.719001 -9.3015 -7.8275 -9.384001 -7.016 -10.9119 -7.454501 -7.580501 -7.509 -6.863 -9.657001 -6.639 
-7.592 -7.615 -10.185 -16.6115 -28.041 -27.8446 -22.5985 -17.5865 -8.781501 -9.044001 -10.7495 -12.2258 -11.038 -14.8525 -12.0575 -11.299 -10.9115 -12.3949 -12.3154 -8.012501 -13.0124 -7.9505 -10.275 -9.657001 
-9.8245 -14.3178 -16.6115 -28.7665 -31.5685 -30.8111 -23.316 -18.437 -9.371 -13.0379 -14.6873 -12.8128 -16.1715 -16.9854 -13.9149 -12.1009 -16.4192 -13.7984 -12.8734 -13.5588 -13.4539 -11.3803 -10.275 
-3.524 -3.1475 0 -3.8005 -2.229 -3.0835 -4.4515 -6.036 0 -10.0135 0 -4.541 -5.764 -3.4045 -2.5195 -1.4985 -4.3645 -4.31 -3.307 -1.934 -4.7015 -3.8005 0 
-5.502 -3.1475 -3.8005 -5.0465 -4.6705 -7.448501 -8.310501 -6.036 -9.336 -9.336 -4.541 -9.178501 -7.198 -5.461 -3.1695 -5.8055 -7.165 -7.514501 -5.094501 -6.07 -7.070001 -3.8005 
-5.502 -7.6005 -5.0465 -6.955 -8.4165 -9.264001 -8.310501 -9.929001 -7.697 -12.8 -9.178501 -9.514001 -7.820001 -5.8915 -7.178 -8.568501 -8.224 -8.47 -8.371 -7.406 -7.070001 
-9.9895 -8.6735 -6.955 -9.333 -9.595 -9.264001 -10.2005 -9.627001 -10.1945 -15.6118 -9.514001 -9.873501 -8.362 -10.702 -10.553 -10.733 -8.5845 -9.452001 -9.1765 -7.406 
-11.2019 -10.494 -9.333 -9.719 -9.595 -10.534 -10.329 -12.2947 -15.5736 -15.9091 -9.873501 -10.015 -14.0347 -14.077 -12.7175 -11.0935 -9.4775 -9.467501 -9.1765 
-3.524 -3.1475 -4.4515 -3.925 -1.7565 -4.4515 -4.4695 -1.7695 -3.8005 -4.3645 -1.7565 -8.226 -3.973 -1.7695 -4.541 0 
-5.502 -8.138 -7.875 -5.082 -6.639 -8.291 -6.528 -5.519001 -8.18 -6.9915 -10.8125 -11.7195 -6.4565 -5.581 -4.541 
-11.6155 -11.9941 -9.585501 -10.0505 -10.2925 -10.4765 -10.66 -10.126 -11.2848 -16.8055 -15.3805 -14.0381 -10.298 -5.581 
-15.4716 -13.7046 -14.9058 -13.8848 -12.7854 -14.9393 -15.267 -13.2308 -21.0988 -21.2101 -17.1295 -18.3556 -10.298 
-17.1821 -19.0249 -18.7401 -16.3777 -17.2482 -19.5463 -18.3718 -23.0448 -25.5034 -22.9591 -21.447 -18.3556 
