-4.759 
n/a 
n/a 
n/a 
n/a 
-4.759 
n/a 
n/a 
n/a 
n/a 
-4.759 
n/a 
n/a 
n/a 
n/a 
-4.759 
n/a 
n/a 
n/a 
n/a 
-2.3335 -2.186 -3.571 -3.098 -2.186 -3.849 -12.16972 0 
-3.7085 -5.0315 -5.5455 -4.7005 -4.8565 -16.17932 -12.16972 
-6.674 -7.179501 -8.160501 -7.468 -17.46782 -16.17932 
-9.465 -11.3677 -9.455501 -20.39592 -17.46782 
-13.3726 -12.6627 -22.92302 -20.39592 
-3.571 -6.864 -3.9725 -2.186 -12.16972 -12.16972 
-10.504 -8.775001 -6.1365 -15.56612 -24.33944 
-12.415 -11.1676 -19.98862 -27.73584 
-14.8076 -25.01972 -32.15834 
-28.65972 -37.18944 
-2.8965 -3.1575 -6.864 -3.737 -3.3715 -3.9365 -12.16972 -8.624001 -3.9915 0 
-4.4055 -10.784 -11.3888 -6.877501 -6.827001 -17.36682 -20.79372 -13.0207 -3.9915 
-12.2388 -15.3088 -14.5293 -10.757 -21.07592 -25.99082 -25.19042 -13.0207 
-16.7636 -18.4493 -18.4088 -25.00592 -29.69992 -30.38752 -25.19042 
-19.9041 -22.3288 -32.65772 -33.62992 -34.09662 -30.38752 
-7.1905 -6.864 -3.9725 -3.098 -2.7415 -9.686501 -11.128 -12.16972 -8.624001 0 
-14.5309 -8.775001 -8.243501 -5.572001 -13.7938 -20.8511 -23.29772 -20.79372 -8.624001 
-16.4419 -13.2746 -10.4345 -16.6811 -24.9584 -33.02082 -31.92172 -20.79372 
-20.9415 -15.4656 -21.5436 -27.8457 -37.12812 -41.64482 -31.92172 
-23.1325 -26.5747 -32.7082 -40.01542 -45.75212 -41.64482 
