-4.759 
n/a 
n/a 
n/a 
n/a 
-4.759 
n/a 
n/a 
n/a 
n/a 
-4.759 
n/a 
n/a 
n/a 
n/a 
-4.759 
n/a 
n/a 
n/a 
n/a 
-3.535 -4.867 0 -4.592 -3.635 -1.7565 -6.6585 
-8.498 -4.867 -4.592 -8.442 -4.736 -8.343 
-8.498 -9.3095 -8.442 -8.8885 -12.0693 
-13.1095 -13.9537 -8.8885 -16.5908 
-17.7537 -14.4002 -16.5908 
-3.0835 -3.473 0 -4.628 -4.743 -4.712 -4.052 
-6.9355 -3.473 -4.628 -4.7515 -10.7335 -10.7175 
-6.9355 -8.226 -4.7515 -10.8368 -16.739 
-12.4753 -8.899 -10.8368 -16.8423 
-13.1483 -15.4835 -16.8423 
-3.0835 -4.584 0 -12.16972 -1.7565 -6.6585 
-7.693501 -4.584 -12.16972 -13.92622 -8.343 
-7.693501 -17.72092 -13.92622 -20.51272 
-21.19402 -19.47742 -20.51272 
-22.95052 -26.06392 
-3.0835 -3.522 0 -4.628 -4.743 -2.229 -6.037 -4.6555 
-6.3975 -3.522 -4.628 -4.7515 -6.5015 -8.1985 -11.1415 
-6.3975 -8.1315 -4.7515 -6.5135 -13.3134 -13.5746 
-11.7028 -8.279 -6.5135 -13.3618 -18.6895 
-11.8503 -9.6665 -13.3618 -18.7379 
