-4.759 
n/a 
n/a 
n/a 
n/a 
-4.759 
n/a 
n/a 
n/a 
n/a 
-4.759 
n/a 
n/a 
n/a 
n/a 
-4.759 
n/a 
n/a 
n/a 
n/a 
-1.934 -2.3615 -3.976 -5.0455 -3.277 -3.7075 -3.3975 -5.128 -4.201 -6.873 
-3.539 -6.866 -8.406 -7.504001 -7.9115 -7.3555 -8.1925 -7.704 -12.1742 
-8.541 -11.8666 -11.5091 -12.6467 -11.8317 -13.1133 -11.2191 -16.0638 
-13.9298 -14.9697 -16.6518 -16.5669 -17.5895 -16.1399 -19.5789 
-17.0329 -20.1124 -20.572 -22.3247 -20.6161 -24.4997 
-2.356 -2.3615 -3.976 -3.7075 -1.934 -5.0455 -3.277 -3.1425 -2.674 -5.2635 -2.7455 -2.1715 -3.7805 -3.158 0 
-4.2185 -6.866 -8.276 -6.0775 -7.308 -7.504001 -6.469501 -4.2225 -6.4755 -7.724501 -4.9165 -6.3125 -7.127 -3.158 
-8.4875 -11.7366 -11.2242 -12.1025 -9.2335 -10.757 -7.488501 -8.274 -9.031 -9.384001 -9.555 -8.5625 -7.127 
-13.4747 -14.6848 -17.2492 -14.028 -12.4543 -11.776 -11.7286 -10.1675 -10.3545 -14.2453 -9.7155 -8.5625 
-16.4229 -20.7098 -19.1747 -17.2488 -13.4733 -16.0161 -13.6221 -11.491 -15.2158 -14.4058 -9.7155 
-2.1715 -3.7805 -3.158 -2.8645 -3.6215 -5.0455 -3.277 
-6.3125 -7.127 -5.899 -6.7925 -7.705001 -7.504001 
-8.5625 -10.078 -10.172 -9.7325 -9.639501 
-11.8421 -14.351 -13.112 -11.7898 
-16.1151 -17.291 -15.1693 
-2.3615 -3.976 -2.186 -1.934 -5.0455 -3.158 -5.2635 -2.3345 -3.7075 -4.1095 -4.201 -2.186 -2.1715 -3.7805 -3.158 0 
-6.866 -5.852 -4.0835 -7.308 -8.203001 -8.8725 -6.797 -6.118 -8.085 -8.328001 -6.1715 -4.986 -6.3125 -7.127 -3.158 
-7.8285 -8.0385 -10.6605 -11.2593 -14.5345 -10.119 -11.2871 -11.3167 -13.3403 -9.633501 -8.252001 -9.2405 -8.5625 -7.127 
-10.1675 -14.9807 -14.6118 -17.5908 -15.781 -14.6091 -16.4858 -16.572 -14.6458 -11.7236 -12.6137 -9.776501 -8.5625 
-17.1097 -18.932 -20.9433 -18.8373 -20.2711 -19.8078 -21.7411 -17.8775 -16.7359 -16.0853 -13.1497 -9.776501 
