-4.759 
n/a 
n/a 
n/a 
n/a 
-4.759 
n/a 
n/a 
n/a 
n/a 
-4.759 
n/a 
n/a 
n/a 
n/a 
-4.759 
n/a 
n/a 
n/a 
n/a 
-4.0375 0 -3.8825 -5.1845 -4.0375 0 0 -4.677 0 -3.711 0 -6.144 0 -6.9985 -7.716001 0 -6.5395 0 0 -3.8495 0 -4.3705 -3.8495 0 0 -6.208 0 -3.8245 -6.208 0 0 -3.5025 -3.402 -3.711 0 -4.085 0 -8.0435 0 -4.6315 -4.0375 0 -4.295 0 -5.2925 -3.152 -3.557 -1.934 -5.1845 -3.8475 0 
-4.0375 -3.8825 -9.504001 -8.8695 -4.0375 0 -4.677 -4.677 -3.711 -3.711 -6.144 -6.144 -6.9985 -15.5693 -7.716001 -6.5395 -6.5395 0 -3.8495 -3.8495 -4.3705 -7.799 -3.8495 0 -6.208 -6.208 -3.8245 -11.3649 -6.208 0 -3.5025 -5.7215 -6.7965 -3.711 -4.085 -4.085 -8.0435 -8.0435 -4.6315 -8.539001 -4.0375 -4.295 -4.295 -5.2925 -7.58 -5.1785 -4.4175 -6.564 -8.566501 -3.8475 
-8.4905 -9.504001 -13.418 -8.8695 -4.0375 -4.677 -4.677 -9.0525 -3.711 -9.885501 -6.144 -14.1423 -15.5693 -15.5693 -11.0145 -6.5395 -6.5395 -3.8495 -3.8495 -8.506001 -7.799 -7.799 -3.8495 -6.208 -6.208 -11.08 -11.3649 -11.3649 -6.208 -3.5025 -5.7215 -9.432 -6.7965 -7.604 -4.085 -13.3559 -8.0435 -13.1788 -8.539001 -8.539001 -9.009001 -4.295 -9.193001 -7.58 -9.9355 -5.9905 -9.347501 -9.534 -8.566501 
-14.3236 -13.418 -13.418 -8.8695 -8.294001 -4.677 -9.0525 -9.0525 -9.885501 -9.885501 -14.1423 -22.7131 -15.5693 -18.8678 -11.0145 -6.5395 -11.3558 -3.8495 -8.506001 -12.5289 -7.799 -7.799 -11.1415 -6.208 -11.08 -18.6204 -11.3649 -11.3649 -10.4765 -5.7215 -9.432 -9.432 -11.2541 -7.604 -13.3559 -13.3559 -13.1788 -17.0863 -8.539001 -13.9283 -9.009001 -9.193001 -11.8069 -9.9355 -11.0725 -11.2997 -12.5391 -9.534 
-18.2376 -13.418 -13.418 -13.5164 -8.294001 -9.0525 -9.0525 -15.397 -9.885501 -18.0262 -22.7131 -22.7131 -18.8678 -18.8678 -11.0145 -11.3558 -11.3558 -8.506001 -12.5289 -12.5289 -7.799 -15.4034 -11.1415 -11.08 -18.6204 -18.6204 -11.3649 -15.6334 -12.6955 -9.432 -9.432 -13.9472 -11.2541 -17.5545 -13.3559 -18.4912 -17.0863 -17.0863 -13.9283 -13.9283 -14.1844 -11.8069 -14.1624 -11.0725 -16.3817 -14.4913 -12.5391 
-4.0805 0 -3.8825 -5.1845 -4.0805 0 0 -4.677 0 -5.2405 -3.711 0 -5.1845 -5.3745 -4.891 0 -6.9985 -3.8475 0 -6.5395 -4.925 0 0 -3.711 0 -4.3705 -3.711 0 0 -5.1335 0 -4.235 -3.8495 -5.3435 0 0 -4.267 -5.789001 0 -4.085 0 -4.955 -3.989 0 -3.999 -5.133 -3.545 0 -4.285 -5.133 -3.545 0 -8.6215 -4.925 0 -3.564 -5.196 0 -4.295 0 -3.8955 -3.9555 -1.756 -3.8955 -4.698 -2.4945 -5.0455 -5.1845 -7.8145 0 
-4.0805 -3.8825 -9.504001 -9.3195 -4.0805 0 -4.677 -4.677 -5.2405 -6.929 -3.711 -5.1845 -8.960501 -7.061501 -4.891 -6.9985 -10.3475 -3.8475 -6.5395 -10.841 -4.925 0 -3.711 -3.711 -4.3705 -6.2205 -3.711 0 -5.1335 -5.1335 -4.235 -6.982 -10.054 -5.3435 0 -4.267 -10.151 -5.789001 -4.085 -4.085 -4.955 -6.199 -3.989 -3.999 -9.461 -8.321501 -3.545 -4.285 -9.4925 -8.321501 -3.545 -5.6315 -7.824 -4.925 -3.564 -8.6175 -5.196 -4.295 -4.295 -3.8955 -7.849 -5.1795 -6.021 -9.050501 -7.157001 -6.9505 -9.150001 -13.107 -6.396501 
-7.756001 -9.504001 -13.868 -9.3195 -4.0805 -4.677 -4.677 -10.6345 -6.929 -6.929 -9.359 -8.960501 -10.375 -7.061501 -13.1543 -10.3475 -10.3475 -9.857 -10.841 -10.841 -4.925 -3.711 -3.711 -7.469501 -6.2205 -6.2205 -3.711 -5.1335 -5.1335 -9.004 -6.982 -13.5017 -10.054 -5.3435 -4.267 -10.151 -10.151 -10.3225 -4.085 -9.087 -6.199 -6.199 -8.6005 -9.461 -9.968 -8.321501 -7.593 -9.4925 -10.033 -8.321501 -9.347501 -7.400001 -7.400001 -7.820001 -8.6175 -8.6175 -8.274 -4.295 -8.583 -7.849 -9.125 -9.515501 -11.9248 -11.7515 -11.9212 -11.6622 -17.5305 -13.2274 
-13.9509 -13.868 -13.868 -9.3195 -9.1385 -4.677 -10.6345 -12.323 -6.929 -13.1658 -13.2488 -10.375 -10.375 -16.717 -16.5033 -10.3475 -16.357 -14.2171 -10.841 -10.841 -7.719501 -3.711 -7.469501 -8.113501 -6.2205 -6.2205 -8.498 -5.1335 -9.004 -10.5335 -13.5017 -13.5017 -10.054 -9.9725 -10.151 -10.151 -14.6845 -10.3225 -9.087 -10.894 -6.199 -10.3955 -14.5467 -9.968 -9.968 -13.3577 -13.4983 -10.033 -10.033 -15.1122 -11.3062 -7.400001 -10.6095 -13.3565 -8.6175 -11.8333 -8.274 -8.583 -13.1861 -9.125 -10.3965 -15.7215 -14.6258 -16.5157 -16.6329 -20.0427 -17.5305 
-18.3149 -13.868 -13.868 -14.5151 -9.1385 -10.6345 -12.323 -12.323 -13.1658 -17.0556 -14.6633 -10.375 -20.0305 -20.066 -16.5033 -16.357 -20.7171 -14.2171 -10.841 -13.6355 -7.719501 -7.469501 -8.113501 -8.113501 -6.2205 -11.6861 -8.498 -9.004 -10.5335 -17.0532 -13.5017 -13.5017 -14.9138 -16.2953 -10.151 -14.6845 -14.6845 -15.3245 -10.894 -10.894 -10.3955 -16.9679 -15.0537 -9.968 -15.1096 -19.263 -14.0388 -10.033 -16.9073 -17.0709 -11.3062 -10.6095 -16.6314 -13.3565 -11.8333 -11.8333 -13.1242 -13.1861 -14.4621 -10.3965 -16.7255 -18.4225 -19.39 -21.2274 -25.0134 -20.0427 
-6.933001 0 -4.4895 -5.1845 -6.933001 0 0 -4.677 0 -3.6825 0 -10.5165 -4.248 -4.891 0 -7.539001 -3.6825 0 -6.5395 -4.085 0 0 -8.530001 0 -4.273 -8.530001 0 0 -4.3325 -3.9235 0 -3.6825 0 -3.989 0 -6.249 0 -7.2955 0 -3.564 -4.085 0 -4.295 0 -3.922 -3.1495 -2.4945 -3.9235 -1.934 -5.1845 -3.6445 0 
-6.933001 -4.4895 -11.117 -8.3245 -6.933001 0 -4.677 -4.677 -3.6825 -3.6825 -10.5165 -14.7645 -10.533 -4.891 -7.539001 -10.404 -3.6825 -6.5395 -9.677501 -4.085 0 -8.530001 -8.530001 -4.273 -13.8288 -8.530001 0 -4.3325 -7.9455 -3.9235 -3.6825 -3.6825 -3.989 -3.989 -6.249 -6.249 -7.2955 -7.2955 -3.564 -8.1645 -4.085 -4.295 -4.295 -3.922 -7.548 -4.459 -7.904 -5.6035 -6.564 -10.1725 -3.6445 
-12.0381 -11.117 -14.257 -8.3245 -6.933001 -4.677 -4.677 -9.082001 -3.6825 -15.296 -14.7645 -21.0495 -10.533 -13.6948 -10.404 -10.404 -9.973001 -9.677501 -9.677501 -4.085 -8.530001 -8.530001 -13.0634 -13.8288 -13.8288 -8.530001 -4.3325 -7.9455 -7.9455 -8.3155 -3.6825 -8.134001 -3.989 -11.3382 -6.249 -14.4921 -7.2955 -10.209 -8.1645 -8.1645 -9.0915 -4.295 -8.542 -7.548 -8.833 -9.790001 -10.2645 -10.181 -12.1642 -10.1725 
-18.6656 -14.257 -14.257 -8.3245 -10.361 -4.677 -9.082001 -9.082001 -15.296 -19.544 -21.0495 -21.0495 -19.3368 -16.5598 -10.404 -16.6945 -13.4038 -9.677501 -9.677501 -13.8424 -8.530001 -13.0634 -22.6192 -13.8288 -13.8288 -13.1229 -7.9455 -7.9455 -12.7301 -8.3155 -8.134001 -8.134001 -11.3382 -11.3382 -14.4921 -14.4921 -10.209 -16.1025 -8.1645 -13.3226 -9.0915 -8.542 -12.5646 -8.833 -14.217 -12.1401 -14.9838 -16.5362 -12.1642 
-21.8056 -14.257 -14.257 -12.0677 -10.361 -9.082001 -9.082001 -20.8935 -19.544 -25.829 -21.0495 -29.8533 -22.2018 -16.5598 -16.6945 -20.1253 -13.4038 -9.677501 -19.4555 -13.8424 -13.0634 -22.6192 -22.6192 -13.8288 -18.4217 -16.7359 -7.9455 -12.7301 -12.7301 -13.1316 -8.134001 -15.8648 -11.3382 -19.5813 -14.4921 -17.4056 -16.1025 -16.1025 -13.3226 -13.3226 -13.6535 -12.5646 -13.8496 -14.217 -16.5671 -16.8594 -21.339 -16.5362 
-6.933001 0 -5.5965 -5.1845 -6.933001 0 0 -4.677 0 -4.676 0 -5.3745 -4.891 -1.7565 -5.1845 -6.844 0 -12.16972 -9.539001 0 -12.16972 -4.676 0 0 -3.8495 0 -5.891 -3.8495 0 0 -4.0375 0 -12.16972 -3.8955 -4.0375 0 0 -3.5025 -4.676 0 -3.355 -2.229 0 -5.13 0 -4.6315 0 -8.6215 0 -7.679501 -4.2275 0 -9.1815 0 -6.601501 0 -3.1495 -2.4945 -5.1845 -4.925 -4.676 0 
-6.933001 -5.5965 -11.753 -8.3245 -6.933001 0 -4.677 -4.677 -4.676 -4.676 -5.3745 -7.061501 -6.8725 -6.580501 -6.9655 -6.844 -12.16972 -21.70872 -9.539001 -12.16972 -16.84572 -4.676 0 -3.8495 -3.8495 -5.891 -9.455501 -3.8495 0 -4.0375 -4.0375 -12.16972 -16.06522 -8.265501 -4.0375 0 -3.5025 -8.722 -4.676 -3.355 -6.4655 -2.229 -5.13 -5.13 -4.6315 -4.6315 -5.6315 -5.6315 -7.679501 -12.4164 -4.2275 -9.1815 -9.1815 -6.601501 -6.601501 -3.1495 -4.459 -8.5895 -10.3545 -8.382501 -4.676 
-13.1451 -11.753 -14.893 -8.3245 -6.933001 -4.677 -4.677 -10.389 -4.676 -10.168 -7.061501 -7.1715 -7.181 -7.1625 -6.9655 -19.95232 -21.70872 -21.70872 -21.94832 -16.84572 -16.84572 -4.676 -3.8495 -3.8495 -10.841 -9.455501 -9.455501 -3.8495 -4.0375 -4.0375 -17.19782 -16.06522 -20.43522 -8.265501 -4.0375 -3.5025 -8.722 -8.722 -8.0865 -6.4655 -6.4655 -7.344501 -5.13 -10.5865 -4.6315 -9.7515 -5.6315 -10.674 -12.4164 -12.4164 -14.6164 -9.1815 -16.1432 -6.601501 -9.913 -4.459 -10.31 -13.8515 -13.812 -8.382501 
-19.3016 -14.893 -14.893 -8.3245 -10.361 -4.677 -10.389 -10.389 -10.168 -12.096 -7.1715 -7.185 -7.202001 -7.1625 -20.24322 -29.49132 -21.70872 -34.11804 -26.62432 -16.84572 -16.84572 -8.157001 -3.8495 -10.841 -14.4055 -9.455501 -9.455501 -8.114 -4.0375 -17.19782 -21.09332 -20.43522 -20.43522 -8.265501 -8.0425 -8.722 -8.722 -12.3569 -12.0854 -6.4655 -12.1298 -7.344501 -10.5865 -10.5865 -9.7515 -9.7515 -10.674 -15.4109 -12.4164 -22.8053 -14.6164 -16.1432 -16.1432 -9.913 -11.2225 -10.31 -15.572 -17.309 -13.812 
-22.4416 -14.893 -14.893 -12.0677 -10.361 -10.389 -10.389 -16.1128 -12.096 -12.206 -7.185 -7.2055 -7.202001 -20.64802 -29.78222 -29.49132 -34.11804 -38.79404 -26.62432 -16.84572 -20.32672 -8.157001 -10.841 -14.4055 -14.4055 -9.455501 -13.8338 -8.114 -17.19782 -21.09332 -25.46332 -20.43522 -20.43522 -12.6209 -13.8642 -8.722 -12.3569 -16.3558 -12.0854 -12.1298 -12.1298 -13.275 -10.5865 -15.7065 -9.7515 -15.023 -15.4109 -15.4109 -22.8053 -22.8053 -21.5781 -16.1432 -19.4547 -11.2225 -17.0735 -15.572 -19.0295 -17.309 
