-4.759 
n/a 
n/a 
n/a 
n/a 
-4.759 
n/a 
n/a 
n/a 
n/a 
-4.759 
n/a 
n/a 
n/a 
n/a 
-4.759 
n/a 
n/a 
n/a 
n/a 
-2.3615 -4.0215 -3.319 -2.186 -3.383 -3.5905 0 -1.756 -2.4265 -2.186 -4.85 -3.3035 -2.4945 -3.2955 -1.934 -2.3615 -4.0215 0 
-5.855 -7.991 -5.404 -4.438 -5.951 -3.5905 -1.756 -3.949 -3.292 -6.283501 -8.856501 -5.024 -4.6305 -4.2285 -3.539 -5.855 -4.0215 
-10.5325 -10.6656 -8.118 -7.0905 -5.951 -5.0695 -3.949 -4.7355 -7.3665 -10.9086 -10.0785 -6.655 -5.474 -5.3765 -8.281 -5.855 
-13.6835 -13.3796 -10.749 -7.0905 -6.9425 -7.0485 -4.7355 -8.829 -12.261 -12.1306 -11.8525 -7.1455 -6.705501 -10.3095 -8.281 
-16.3975 -16.0106 -10.749 -7.651 -8.735001 -7.842 -8.829 -13.7977 -13.483 -13.9046 -12.343 -9.492001 -11.8041 -10.3095 
-1.4985 -3.8665 -4.2745 -3.2775 -2.5045 -4.7515 0 -5.1035 0 -4.0455 0 -4.2335 0 -4.238 0 -5.333 0 -3.9355 0 -4.565 0 -3.6605 -4.5375 0 -4.6135 0 -4.9765 0 -1.756 -4.9155 -4.921 0 -3.8975 -1.756 -4.6895 -1.756 -2.8965 -3.8975 0 -5.595 -3.6065 -4.7005 -4.536 -3.843 -2.4945 -3.2955 -1.7695 -3.2345 -8.26 -4.0215 0 
-4.915 -7.7985 -6.7005 -3.678 -7.224 -4.7515 -5.1035 -5.1035 -4.0455 -4.0455 -4.2335 -4.2335 -4.238 -4.238 -5.333 -5.333 -3.9355 -3.9355 -4.565 -4.565 -3.6605 -7.496 -4.5375 -4.6135 -4.6135 -4.9765 -4.9765 -1.756 -6.297 -6.3155 -4.921 -3.8975 -4.9005 -6.351 -6.259501 -3.751 -5.609 -3.8975 -5.595 -10.718 -5.6825 -9.908501 -7.809501 -5.682 -4.6305 -3.9425 -3.713 -12.8647 -10.322 -4.0215 
-9.202001 -10.0475 -6.726 -7.6355 -7.224 -8.973001 -5.1035 -9.68 -4.0455 -8.106001 -4.2335 -8.2295 -4.238 -7.625501 -5.333 -9.654501 -3.9355 -9.449 -4.565 -7.5835 -7.496 -7.496 -7.518001 -4.6135 -8.8645 -4.9765 -5.5555 -6.297 -7.243501 -6.3155 -8.724501 -4.9005 -9.901501 -7.9835 -7.4715 -6.0325 -5.609 -9.930501 -10.718 -12.794 -11.3649 -13.182 -9.370001 -7.5445 -5.1225 -5.679 -13.6612 -14.9267 -10.322 
-11.8134 -10.053 -11.3227 -7.6355 -11.8783 -8.973001 -9.68 -9.68 -8.106001 -8.106001 -8.2295 -8.2295 -7.625501 -7.625501 -9.654501 -9.654501 -9.449 -9.449 -7.5835 -10.304 -7.496 -10.1345 -7.518001 -8.8645 -8.8645 -5.5555 -10.0345 -7.243501 -7.243501 -10.4765 -9.836 -9.901501 -11.6538 -9.458 -9.581501 -6.0325 -12.3302 -15.2453 -12.794 -18.4764 -14.6384 -14.7425 -11.3117 -8.079 -6.860001 -15.6682 -15.7232 -14.9267 
-11.8189 -14.6497 -11.3227 -12.6342 -11.8783 -13.9215 -9.68 -13.7405 -8.106001 -12.4612 -8.2295 -12.125 -7.625501 -12.3768 -9.654501 -15.2642 -9.449 -12.6519 -10.304 -10.304 -10.1345 -10.1345 -12.488 -8.8645 -9.739 -10.0345 -11.0762 -7.243501 -11.7275 -11.588 -15.0326 -11.6538 -13.1283 -11.556 -9.581501 -13.0299 -17.645 -17.3213 -18.4764 -21.7499 -16.1989 -16.6842 -11.8462 -9.8275 -17.0344 -17.7302 -15.7232 
-2.3615 -3.8785 -2.186 -3.8535 -2.356 -4.85 -7.612 -3.47 -3.115 -4.7515 0 -5.1035 0 -4.0455 0 -4.055 0 -6.2835 0 -4.754 0 -4.6955 0 -4.565 0 -5.2335 0 -4.893 0 -4.9765 0 -4.8385 -1.756 -3.074 -2.356 -10.337 0 -15.24372 -2.4265 -2.186 -3.8535 -2.356 -7.0145 0 -9.9495 0 -6.6305 0 -7.703001 0 -12.16972 0 -7.243001 0 -14.81472 -3.2295 -3.1435 -3.8535 -2.356 -3.3715 -2.8965 -3.47 0 
-6.131001 -5.6325 -4.972 -5.2305 -7.178 -13.4792 -12.0276 -6.6265 -7.438001 -4.7515 -5.1035 -5.1035 -4.0455 -4.0455 -4.055 -4.055 -6.2835 -6.2835 -4.754 -4.754 -4.6955 -4.6955 -4.565 -4.565 -5.2335 -5.2335 -4.893 -4.893 -4.9765 -4.9765 -4.8385 -5.992 -4.566 -5.756001 -13.6038 -10.337 -15.24372 -17.82272 -3.292 -4.972 -5.2305 -9.3955 -7.0145 -9.9495 -9.9495 -6.6305 -6.6305 -7.703001 -7.703001 -12.16972 -12.16972 -7.243001 -7.243001 -14.81472 -18.38422 -5.8045 -6.744 -5.2305 -5.039001 -4.827001 -5.2775 -3.47 
-7.014 -8.019501 -6.2745 -10.304 -16.418 -17.8948 -15.1841 -10.598 -7.438001 -8.973001 -5.1035 -9.68 -4.0455 -7.3785 -4.055 -10.155 -6.2835 -10.6605 -4.754 -8.869 -4.6955 -7.718 -4.565 -7.3645 -5.2335 -10.884 -4.893 -6.7385 -4.9765 -7.824 -5.992 -8.7995 -6.562 -17.2062 -13.6038 -25.85732 -17.82272 -18.44272 -6.1065 -6.2745 -12.6852 -9.3955 -17.527 -9.9495 -16.58 -6.6305 -15.1143 -7.703001 -20.32812 -12.16972 -19.41272 -7.243001 -22.79952 -18.38422 -21.12522 -9.4315 -8.461 -8.195001 -6.2805 -7.504001 -5.2775 
-9.050501 -9.347 -11.5564 -19.544 -20.8336 -21.0513 -19.1556 -10.598 -12.0909 -8.973001 -9.68 -9.68 -7.3785 -7.3785 -10.155 -10.155 -10.6605 -10.6605 -8.869 -8.869 -7.718 -7.718 -7.3645 -7.3645 -10.884 -10.884 -6.7385 -6.7385 -7.824 -8.371 -8.7995 -10.8419 -18.1454 -17.2062 -29.12412 -28.43632 -18.44272 -22.11822 -7.415 -13.9376 -12.6852 -20.2612 -17.527 -16.58 -16.58 -15.1143 -15.1143 -20.32812 -20.32812 -19.41272 -19.41272 -22.79952 -26.36902 -21.12522 -24.93822 -11.4743 -11.4773 -8.881001 -9.172001 -7.504001 
-10.3415 -14.6103 -20.7964 -23.9596 -23.9901 -25.0228 -19.1556 -15.2509 -12.0909 -13.9215 -9.68 -13.013 -7.3785 -13.9781 -10.155 -14.755 -10.6605 -14.7755 -8.869 -12.2047 -7.718 -9.880501 -7.3645 -13.5598 -10.884 -12.7295 -6.7385 -9.215 -8.371 -11.6431 -10.8419 -22.4253 -18.1454 -32.72652 -31.70312 -29.05632 -22.11822 -23.52972 -15.2761 -13.9376 -23.5509 -20.2612 -24.1575 -16.58 -25.0638 -15.1143 -27.73942 -20.32812 -27.57112 -19.41272 -34.96924 -26.36902 -29.11002 -24.93822 -26.98102 -14.4906 -12.1633 -12.0771 -9.172001 
-1.4985 -4.71 -1.7565 -5.1845 -4.664 -2.4945 0 -1.4985 -3.681 -2.9705 -2.7295 -2.4945 -3.8255 -2.5195 -1.4985 -3.9745 0 -3.115 0 -4.7515 0 -5.1035 0 -4.442 0 -4.2335 0 -6.541 0 -6.284 0 -4.3705 0 -6.3575 -4.5375 0 -4.9765 0 -4.893 0 -4.8385 0 -2.5685 -5.126 -1.7565 -5.187 0 -2.5685 -5.126 -1.7565 -4.8465 0 -5.016 -6.1725 0 -7.665 0 -8.434 0 -1.4985 -3.54 -3.4865 -6.202 0 -3.6065 -3.9755 -1.7565 -4.536 0 -6.371 0 -12.16972 0 -4.902 0 -5.803 0 -5.412 0 -5.829 0 -3.321 -4.6425 -3.4715 0 -4.1115 -3.4715 0 -3.4715 -4.359 -3.4715 0 -3.3235 -2.229 -3.4715 0 -1.756 -4.5605 0 -4.8895 0 -4.5055 0 -6.469501 0 -1.756 -5.0015 -3.115 -6.3075 -3.9185 0 -5.2555 -3.9185 0 -7.664001 -3.9185 
-5.79 -6.309 -6.580501 -11.1429 -6.22 -2.4945 -1.4985 -4.9615 -5.784 -4.8125 -3.7725 -5.2 -6.452001 -3.1695 -4.7475 -3.9745 -3.115 -3.115 -4.7515 -4.7515 -5.1035 -5.1035 -4.442 -4.442 -4.2335 -4.2335 -6.541 -6.541 -6.284 -6.284 -4.3705 -4.3705 -6.3575 -9.9255 -4.5375 -4.9765 -4.9765 -4.893 -4.893 -4.8385 -4.8385 -2.5685 -5.4015 -5.308001 -6.8945 -5.187 -2.5685 -5.4015 -5.308001 -6.2035 -4.8465 -5.016 -11.8809 -6.1725 -7.665 -7.665 -8.434 -8.434 -1.4985 -4.529 -6.9305 -10.348 -6.202 -3.6065 -5.153 -4.312 -5.9405 -4.536 -6.371 -6.371 -12.16972 -12.16972 -4.902 -4.902 -5.803 -5.803 -5.412 -5.412 -5.829 -5.829 -3.321 -8.1425 -5.203001 -3.4715 -4.1115 -6.271 -3.4715 -3.4715 -7.035501 -7.7155 -3.4715 -3.3235 -6.8435 -5.6685 -3.4715 -1.756 -6.0505 -4.5605 -4.8895 -4.8895 -4.5055 -4.5055 -6.469501 -6.469501 -1.756 -6.3305 -7.635 -8.815001 -7.187 -3.9185 -5.2555 -6.238501 -3.9185 -7.664001 -9.486001 
-6.7945 -11.6908 -13.3819 -12.6989 -6.22 -3.9315 -4.9615 -6.5655 -7.285 -5.9115 -6.1505 -7.412001 -7.1745 -6.851 -4.7475 -7.2775 -3.115 -7.438001 -4.7515 -8.973001 -5.1035 -10.2865 -4.442 -6.829 -4.2335 -9.109501 -6.541 -13.6102 -6.284 -9.844001 -4.3705 -10.3545 -9.9255 -9.9255 -7.718501 -4.9765 -6.104 -4.893 -8.0465 -4.8385 -7.3765 -5.4015 -5.4455 -9.3505 -6.8945 -7.767 -5.4015 -5.4455 -9.4575 -6.2035 -10.841 -11.8809 -11.8809 -14.6927 -7.665 -16.5986 -8.434 -10.907 -4.529 -8.0535 -14.0776 -10.348 -10.9075 -5.153 -5.1935 -8.1435 -5.9405 -10.2185 -6.371 -19.39172 -12.16972 -17.07172 -4.902 -8.271501 -5.803 -12.1754 -5.412 -11.136 -5.829 -8.925001 -8.1425 -9.5015 -5.203001 -7.304501 -6.271 -6.271 -5.9455 -7.035501 -8.594 -7.7155 -6.3415 -6.8435 -9.012001 -5.6685 -4.7575 -6.0505 -6.0505 -7.0885 -4.8895 -7.7565 -4.5055 -8.810501 -6.469501 -7.743001 -6.3305 -9.356 -10.4345 -9.630501 -7.187 -7.370501 -6.238501 -6.238501 -8.807 -9.486001 
-12.4821 -18.4922 -14.9379 -12.6989 -8.014501 -6.49 -6.5655 -7.917 -8.608001 -8.837501 -7.9495 -8.005 -11.0816 -6.851 -9.071 -7.2775 -7.438001 -7.438001 -8.973001 -8.973001 -10.2865 -10.2865 -6.829 -6.829 -9.109501 -9.109501 -13.6102 -13.6102 -9.844001 -9.844001 -10.3545 -13.9225 -9.9255 -13.1939 -7.718501 -6.104 -6.104 -8.0465 -8.0465 -7.3765 -10.259 -5.4455 -9.477 -9.3505 -9.861 -11.2782 -5.4455 -9.58 -9.4575 -12.7766 -17.7059 -11.8809 -20.4011 -14.6927 -16.5986 -16.5986 -10.907 -13.9375 -8.0535 -15.3526 -14.0776 -15.0535 -12.454 -5.1935 -8.647 -8.1435 -12.218 -10.2185 -19.39172 -19.39172 -17.07172 -17.07172 -8.271501 -8.271501 -12.1754 -12.1754 -11.136 -11.136 -8.925001 -13.8703 -9.5015 -9.5015 -9.500501 -8.2515 -6.271 -8.832001 -7.7795 -8.594 -8.594 -10.3285 -9.1435 -9.012001 -9.012001 -7.1385 -7.8915 -6.0505 -9.296 -7.0885 -7.7565 -7.7565 -8.810501 -8.810501 -7.743001 -10.3415 -9.356 -12.1739 -11.25 -9.630501 -10.3815 -7.52 -6.238501 -10.361 -10.757 
-19.2835 -20.0482 -14.9379 -14.4934 -11.0146 -7.969 -7.917 -9.193001 -11.8082 -10.051 -8.516001 -12.0101 -11.0816 -10.007 -9.071 -10.151 -7.438001 -12.0909 -8.973001 -14.528 -10.2865 -12.6735 -6.829 -12.6582 -9.109501 -17.0847 -13.6102 -17.1702 -9.844001 -16.2112 -13.9225 -13.9225 -13.1939 -13.1939 -9.059001 -6.104 -8.732 -8.0465 -11.0893 -10.259 -10.656 -9.477 -9.477 -12.3454 -13.4154 -11.3222 -9.58 -9.58 -16.0484 -19.6415 -17.7059 -20.4011 -20.4011 -23.6263 -16.5986 -19.0716 -13.9375 -17.462 -15.3526 -15.3526 -18.7831 -16.6 -12.4945 -8.647 -8.647 -14.6202 -12.218 -23.43662 -19.39172 -24.29372 -17.07172 -20.44122 -8.271501 -15.4841 -12.1754 -17.8994 -11.136 -14.232 -13.8703 -15.2293 -9.5015 -13.8282 -9.8415 -8.2515 -8.832001 -10.919 -9.2335 -8.594 -12.0872 -13.4113 -11.4148 -9.012001 -10.5755 -10.733 -7.8915 -9.296 -9.296 -9.637501 -7.7565 -10.7025 -8.810501 -9.828501 -10.3415 -13.367 -12.1739 -12.9894 -11.25 -13.0036 -10.4225 -7.52 -10.361 -11.9726 
