-4.759 
n/a 
n/a 
n/a 
n/a 
-4.759 
n/a 
n/a 
n/a 
n/a 
-4.759 
n/a 
n/a 
n/a 
n/a 
-4.759 
n/a 
n/a 
n/a 
n/a 
-4.3925 -5.3085 -4.191 -3.307 -2.7415 -4.196 -1.934 -4.782 
-10.504 -6.580501 -7.1035 -6.1595 -5.228 -5.016 -6.01 
-12.1008 -7.299 -9.549 -7.316501 -5.583 -7.5965 
-12.8193 -9.7845 -10.206 -7.618001 -7.968 
-15.3048 -10.267 -10.421 -10.181 
-1.934 -4.782 -9.155001 -5.3085 -4.4755 -3.307 -2.7415 -3.8755 0 
-6.01 -14.512 -14.7317 -8.3055 -7.642 -6.1595 -5.065001 -3.8755 
-16.1634 -20.0887 -17.7287 -12.139 -10.2595 -7.6635 -5.065001 
-21.7401 -23.0857 -21.5622 -14.7565 -11.7635 -7.6635 
-24.7371 -26.9192 -24.1797 -16.2605 -11.7635 
-1.934 -4.782 -3.38 -5.3085 -4.191 -3.9235 -2.8645 -3.1125 -3.557 
-6.01 -8.530001 -8.018 -6.580501 -9.5815 -5.948 -3.5345 -5.366 
-10.0475 -13.3886 -9.038 -10.6095 -11.6498 -6.904 -5.7555 
-14.9061 -14.4086 -13.736 -12.6778 -12.6058 -9.342501 
-15.9261 -19.1066 -15.8043 -13.6338 -15.0443 
-4.782 -6.4705 -5.3085 -4.191 -3.307 -2.7415 -4.196 
-11.8275 -12.5776 -6.580501 -7.1035 -6.1595 -5.228 
-17.9346 -13.8496 -7.299 -9.549 -7.316501 
-19.2066 -14.5681 -9.7845 -10.206 
-19.9251 -17.0536 -10.267 
