-4.759 
n/a 
n/a 
n/a 
n/a 
-4.759 
n/a 
n/a 
n/a 
n/a 
-4.759 
n/a 
n/a 
n/a 
n/a 
-4.759 
n/a 
n/a 
n/a 
n/a 
-1.934 -4.152 -1.4985 -3.4795 -2.4945 -5.044 -1.756 -3.741 -2.186 -4.2875 
-5.5915 -6.138501 -5.2115 -5.6685 -6.784501 -6.3875 -5.49 -5.827001 -6.3995 
-6.941501 -8.809001 -6.773 -8.184 -7.561501 -10.2865 -8.188001 -7.7945 
-9.2475 -9.0305 -8.4235 -8.669001 -10.757 -12.9845 -10.5325 
-9.488001 -9.910501 -8.835 -12.3017 -13.455 -15.329 
-4.1455 -4.2485 -4.461 -1.934 -3.9995 -4.0195 -4.153 -4.461 
-6.0765 -7.1105 -5.015501 -5.0145 -7.526501 -7.873 -7.554001 
-9.059501 -7.895 -8.966001 -7.642 -10.1385 -9.797001 
-9.9835 -10.172 -10.1075 -10.1385 -10.22 
-10.1945 -10.211 -10.2105 -10.22 
-2.5045 -4.152 -3.852 0 -1.4985 -3.741 -2.742 -2.489 -3.962 -2.5045 -4.13 -1.756 -1.4985 -3.4795 -2.742 -2.489 -3.815 0 
-6.628 -6.307501 -3.852 -1.4985 -4.967 -6.6825 -3.301 -4.8355 -5.124 -6.461 -5.582 -3.0405 -5.2115 -6.304 -3.301 -6.198 -3.815 
-9.7045 -6.307501 -5.46 -4.967 -7.107 -7.159 -6.150001 -5.5925 -8.3625 -7.666 -7.087 -6.9445 -7.745 -6.687 -6.9585 -6.198 
-9.7045 -7.617001 -8.239 -7.107 -7.422 -10.243 -6.926001 -8.589001 -9.347 -9.658001 -9.4475 -8.889 -8.326 -9.927501 -6.9585 
-11.3152 -9.833501 -9.896501 -7.422 -10.9422 -11.2314 -10.434 -9.7165 -10.6885 -12.0785 -11.6612 -9.543501 -10.5325 -9.927501 
-3.5455 -4.152 0 -1.4985 -4.113 -2.186 -4.13 -1.756 -4.847 -1.756 -3.4795 -2.4945 -5.044 
-6.305 -4.152 -1.4985 -5.425 -6.241 -5.8435 -5.582 -6.2395 -6.16 -6.006 -5.6685 -6.784501 
-6.305 -6.138501 -5.425 -6.6715 -8.576 -6.876 -8.2275 -7.737 -11.376 -7.967 -8.184 
-7.766 -8.941501 -6.6715 -8.68 -8.9965 -9.203501 -9.3535 -13.2702 -13.337 -9.959001 
-10.5645 -9.403001 -8.68 -9.078501 -10.354 -10.0135 -15.0339 -15.2312 -15.329 
