-4.759 
n/a 
n/a 
n/a 
n/a 
-4.759 
n/a 
n/a 
n/a 
n/a 
-4.759 
n/a 
n/a 
n/a 
n/a 
-4.759 
n/a 
n/a 
n/a 
n/a 
-2.3615 -3.452 -2.186 -4.067 -3.533 -3.277 -3.5905 0 
-4.5465 -5.049 -5.135 -7.347501 -6.4985 -4.7035 -3.5905 
-5.4745 -7.8955 -9.1335 -7.835001 -7.7735 -4.7035 
-8.5045 -12.1082 -9.809 -9.436001 -7.7735 
-12.9256 -12.7837 -9.919001 -9.436001 
-2.3615 -3.452 -2.186 -2.5045 -3.76 -3.533 -3.277 -3.5905 0 
-4.5465 -5.049 -4.660501 -3.8195 -7.392 -6.4985 -4.7035 -3.5905 
-5.4745 -7.765 -5.4385 -7.395 -8.494 -7.7735 -4.7035 
-8.4235 -8.876 -9.050501 -8.4945 -9.35 -7.7735 
-9.454 -12.5456 -9.781501 -9.349501 -9.35 
-2.3615 -3.452 -2.8645 -3.1125 -4.554 -2.5045 -4.347 -3.533 -3.277 -3.5905 0 
-4.5465 -5.886 -3.5345 -6.343 -5.7705 -7.217 -7.237 -6.4985 -4.7035 -3.5905 
-6.3245 -6.46 -6.766 -7.7165 -9.192 -10.082 -8.764501 -7.7735 -4.7035 
-6.9215 -10.4197 -7.955 -10.163 -12.144 -11.6095 -9.781 -7.7735 
-11.288 -11.6087 -10.2325 -13.115 -13.6715 -12.626 -9.781 
-1.7695 -4.82 -4.094 -2.3615 -3.452 -3.533 -3.277 -3.5905 0 
-7.9705 -9.126 -6.948501 -4.5465 -6.504 -6.4985 -4.7035 -3.5905 
-12.1099 -12.2875 -9.610001 -9.7165 -9.874001 -7.7735 -4.7035 
-15.2714 -14.949 -14.8368 -13.0865 -10.761 -7.7735 
-17.9329 -20.1758 -18.2068 -13.9735 -10.761 
