-4.759 
n/a 
n/a 
n/a 
n/a 
-4.759 
n/a 
n/a 
n/a 
n/a 
-4.759 
n/a 
n/a 
n/a 
n/a 
-4.759 
n/a 
n/a 
n/a 
n/a 
-2.925 -3.098 -3.819 -3.3985 -5.3195 -1.7695 -3.8275 -2.356 -6.848001 0 
-5.658501 -5.6375 -8.384501 -8.705001 -6.6215 -5.686 -5.674 -9.127001 -6.848001 
-9.611501 -9.9405 -14.035 -10.4035 -11.1836 -6.7175 -13.2234 -9.127001 
-13.9919 -15.7322 -15.7335 -14.9656 -12.2151 -14.7029 -13.2234 
-19.7836 -17.4307 -20.2956 -15.9971 -20.2005 -14.7029 
-2.925 -4.69 -2.985 -4.8225 -2.985 -3.8275 -3.819 -3.034 -2.925 -3.152 -3.6955 -5.3195 -1.934 -9.9315 
-6.4055 -7.296 -6.802 -8.087501 -6.771501 -7.4645 -6.3245 -4.4 -4.203 -7.2065 -9.4025 -6.7485 -12.8719 
-8.251 -10.2805 -9.008 -12.031 -10.647 -10.1185 -7.817 -5.573 -7.5695 -13.5251 -11.0405 -18.3676 
-11.4411 -12.6901 -13.0127 -15.9065 -13.301 -11.611 -8.512 -7.714 -14.2735 -15.1631 -22.6596 
-13.8507 -16.6948 -16.8882 -18.5605 -14.7935 -12.306 -10.819 -14.9446 -15.9115 -26.7822 
-2.925 -5.806 -2.985 -5.0225 -1.7695 -4.319 -1.4985 -6.848001 -2.0935 -2.871 -3.228 -2.95 0 
-7.751501 -8.0275 -7.257 -6.4785 -4.9595 -5.62 -7.449 -9.0255 -4.604 -5.5515 -5.1415 -2.95 
-9.369 -10.451 -8.655001 -9.715 -5.9505 -10.3965 -9.473001 -11.7482 -7.0015 -6.4715 -5.1415 
-11.8667 -11.849 -12.0461 -11.0404 -10.5425 -12.4205 -12.3021 -14.1457 -7.813 -6.4715 
-13.2647 -15.2401 -13.3715 -15.6324 -12.5665 -15.2496 -14.6996 -14.9572 -7.813 
-2.925 -3.152 -3.098 -3.819 -3.7555 -4.403 -2.5195 -1.4985 -3.8275 -2.5195 -6.848001 0 
-4.203 -5.6155 -5.6375 -7.142 -8.4145 -6.961 -3.1695 -4.726 -6.468 -9.4525 -6.848001 
-6.6125 -9.0585 -9.4145 -12.1022 -9.213 -7.6505 -6.504 -7.246 -13.9254 -9.4525 
-9.375 -13.1373 -14.4367 -12.9007 -10.648 -11.4336 -9.3055 -14.979 -13.9254 
-14.0334 -18.1595 -15.2352 -14.3357 -14.4311 -14.2351 -17.0211 -14.979 
