-4.759 
n/a 
n/a 
n/a 
n/a 
-4.759 
n/a 
n/a 
n/a 
n/a 
-4.759 
n/a 
n/a 
n/a 
n/a 
-4.759 
n/a 
n/a 
n/a 
n/a 
-2.3615 -2.742 -2.489 -3.335 -2.3335 -3.1635 0 -4.3845 -1.756 -3.1205 0 -4.375 -2.5195 -3.676 
-4.486 -3.301 -7.241 -4.79 -6.737 -3.1635 -4.3845 -5.9675 -5.6285 -3.1205 -4.375 -6.0295 -6.0905 
-5.1425 -7.9255 -8.963 -8.8435 -6.737 -8.2925 -5.9675 -9.967 -5.6285 -7.612 -6.0295 -9.363 
-9.715 -10.103 -13.1375 -8.8435 -12.3518 -10.3285 -9.967 -9.967 -10.4794 -10.2755 -9.363 
-11.9411 -14.2775 -13.1375 -14.7595 -14.3878 -14.525 -9.967 -15.6287 -13.1429 -13.609 
-2.3615 -3.602 -2.9905 -1.4985 -3.676 -4.3845 -3.1635 0 -1.756 -4.375 -3.1205 0 
-4.868 -5.261 -4.143 -6.125 -8.355 -8.5935 -3.1635 -1.756 -5.9465 -8.3075 -3.1205 
-8.2845 -6.152 -8.3415 -11.8006 -13.1126 -8.5935 -5.7545 -5.9465 -10.3745 -8.3075 
-9.4335 -10.7825 -14.7695 -16.5582 -13.1126 -11.4285 -10.248 -10.3745 -10.3745 
-14.11 -17.2105 -19.5271 -16.5582 -15.9476 -15.922 -15.0828 -10.3745 
-2.3615 -2.186 -3.1635 0 -4.3845 -1.756 -3.1205 0 -1.7565 -4.375 -1.7695 -3.676 
-3.5005 -6.3985 -3.1635 -4.3845 -5.9675 -5.6285 -3.1205 -1.7565 -6.251 -6.6365 -5.5605 
-8.468 -6.3985 -8.2925 -5.9675 -9.967 -5.6285 -5.587 -6.251 -8.018001 -9.683001 
-8.468 -12.0107 -10.3285 -9.967 -9.967 -7.0905 -10.9193 -8.018001 -11.4443 
-14.2616 -14.0467 -14.525 -9.967 -12.2398 -12.7714 -12.6863 -11.4443 
-2.4265 -2.186 -4.744 -2.3335 -3.676 -2.229 -3.1635 0 -1.7565 -4.3845 -1.756 -3.1205 0 -1.7565 -4.375 0 
-3.292 -6.535501 -5.3415 -6.085 -4.593 -6.124001 -3.1635 -1.7565 -6.1305 -5.9675 -5.6285 -3.1205 -1.7565 -6.251 -4.375 
-6.661 -7.95 -9.476001 -6.8065 -9.266001 -6.124001 -5.737 -6.1305 -7.4665 -9.967 -5.6285 -5.587 -6.251 -6.251 
-7.975501 -12.1599 -9.955001 -11.6935 -9.266001 -8.212 -10.442 -7.4665 -11.8944 -9.967 -7.0905 -10.9193 -6.251 
-12.2236 -12.6389 -15.0202 -11.6935 -11.7146 -13.5896 -11.778 -11.8944 -11.8944 -12.2398 -12.7714 -10.9193 
