-4.759 
n/a 
n/a 
n/a 
n/a 
-4.759 
n/a 
n/a 
n/a 
n/a 
-4.759 
n/a 
n/a 
n/a 
n/a 
-4.759 
n/a 
n/a 
n/a 
n/a 
-4.7155 -1.4985 -3.301 -4.177 -3.458 -1.4985 -3.7745 -3.5435 -1.756 -1.4985 -5.204 -2.186 -3.074 -2.985 -3.535 -4.384 0 
-5.4705 -4.6235 -6.469501 -4.8925 -4.063 -4.753 -5.717 -4.862 -3.0405 -6.075001 -7.568501 -4.156 -6.416 -6.027 -7.7255 -4.384 
-8.4355 -8.123001 -7.712 -5.488 -7.033 -6.116 -6.848001 -5.71 -7.3595 -8.316001 -9.31 -7.616001 -9.1285 -8.8925 -7.7255 
-10.2985 -8.631001 -8.1295 -8.377501 -7.931 -7.1755 -7.502501 -8.362 -9.531 -10.1675 -12.7644 -9.670001 -12.106 -8.8925 
-10.8065 -8.998001 -11.202 -9.058001 -8.0165 -7.697001 -9.1995 -10.2275 -11.3933 -13.6219 -14.8184 -12.7099 -12.106 
-1.7695 -3.7085 -1.4985 -3.301 -4.177 -3.458 -1.4985 -4.7315 -1.756 -1.4985 -4.0965 -2.7415 -3.074 -2.985 -4.384 0 
-4.19 -4.704 -4.6235 -6.469501 -4.8925 -4.063 -6.2285 -5.8825 -3.0405 -5.3165 -6.906501 -4.727 -6.416 -6.392 -4.384 
-5.0195 -7.0735 -8.123001 -7.712 -5.488 -8.203501 -7.4535 -6.993 -6.489 -7.488 -8.991501 -7.9115 -9.0795 -6.392 
-7.864 -10.001 -8.631001 -8.1295 -10.2435 -8.7395 -8.2375 -10.8667 -8.716001 -9.692501 -12.2072 -9.911 -9.0795 
-10.159 -10.7218 -8.998001 -13.068 -10.595 -8.9145 -12.2344 -13.0937 -10.6465 -12.9082 -14.2067 -9.911 
-3.074 -1.4985 -4.177 -3.458 -3.59 -1.756 -3.1715 -2.186 -3.571 -3.699 -3.6175 -3.8535 -2.3345 -3.277 
-4.6505 -4.9125 -4.8925 -7.4575 -5.017 -4.88 -5.3485 -5.0315 -5.9465 -6.8325 -5.763 -5.069 -5.5635 
-8.061501 -5.134501 -8.7875 -8.1055 -7.551001 -7.3985 -8.505 -6.8085 -9.107 -9.264 -7.482 -7.580501 
-8.284 -8.975 -9.744 -10.138 -9.6595 -10.134 -10.185 -10.0815 -11.6569 -10.298 -10.1505 
-12.2107 -10.103 -11.8545 -12.5275 -12.5142 -11.814 -13.458 -12.6716 -12.6909 -13.1601 
-2.9805 -3.2955 -1.7695 -3.7085 -1.934 -3.301 -1.4985 -2.915 -1.756 -6.2085 -4.53 -2.186 -2.985 -4.384 
-5.6305 -3.9425 -4.19 -5.002 -5.044 -5.3905 -4.1675 -4.266 -7.374 -9.1735 -6.4995 -5.3955 -6.392 
-6.028 -6.488 -5.7085 -7.8525 -8.675501 -7.899 -5.587 -11.303 -10.228 -11.5704 -10.181 -7.427 
-8.47 -8.4115 -8.183001 -12.1694 -11.2252 -10.4185 -13.3178 -14.157 -12.7249 -15.2519 -12.3643 
-9.459001 -10.8822 -12.6187 -14.7191 -13.7447 -18.1493 -16.1718 -16.6539 -16.4064 -17.4352 
