-4.759 
n/a 
n/a 
n/a 
n/a 
-4.759 
n/a 
n/a 
n/a 
n/a 
-4.759 
n/a 
n/a 
n/a 
n/a 
-4.759 
n/a 
n/a 
n/a 
n/a 
-1.4985 -6.0515 -3.892 -2.688 -3.502 -4.4925 -2.7415 -4.09 -2.3345 -4.687 -4.7415 -1.934 -3.488 -8.977 0 -4.2375 -3.6215 0 
-6.751 -9.906 -6.561 -5.0815 -5.05 -7.113501 -5.289001 -4.8155 -6.0195 -8.492001 -7.4715 -4.9205 -10.4595 -8.296 -4.2375 -8.367001 -3.6215 
-10.66 -12.575 -8.084001 -5.102 -7.657001 -10.0445 -5.882 -8.834001 -10.485 -10.76 -10.533 -11.6255 -9.1595 -12.6031 -8.367001 -8.367001 
-13.329 -14.098 -8.088 -7.704501 -10.8378 -10.6375 -9.51 -13.5611 -12.753 -13.8215 -17.677 -12.0645 -13.6014 -16.9388 -8.367001 
-14.852 -14.102 -11.1571 -10.9485 -11.4308 -14.2655 -14.3393 -15.8291 -15.8145 -20.9655 -17.677 -16.5064 -17.9371 -16.9388 
-2.264 -3.488 -3.281 -4.184 -1.7565 -5.696 -4.687 -4.7415 -2.8645 -5.189 -1.8085 -2.688 -3.502 -4.4925 -1.7565 -10.8685 -3.892 0 
-4.790501 -5.4445 -6.2335 -6.162 -7.947001 -9.726 -8.492001 -7.6875 -7.0615 -6.5375 -3.642 -5.0815 -5.05 -7.129001 -13.5742 -14.7605 -3.892 
-6.324501 -7.8615 -7.7995 -13.5455 -12.1918 -13.9652 -11.8554 -12.0871 -7.5145 -9.0015 -7.2235 -5.102 -7.3905 -19.7319 -17.4662 -14.7605 
-8.522501 -10.354 -15.776 -17.7903 -16.431 -17.3286 -16.255 -12.5401 -9.903501 -12.641 -7.5685 -7.395 -20.9082 -23.6239 -17.4662 
-10.523 -18.3305 -20.0208 -22.0295 -19.7944 -21.7282 -16.708 -14.9291 -13.543 -12.986 -10.4639 -20.9621 -24.8002 -23.6239 
-2.688 -3.502 -8.226501 -2.186 -12.16972 -4.3355 -2.871 -1.7565 -7.0925 -5.111 -4.0835 -3.609 -8.977 -2.3345 -4.687 -4.7415 
-5.0815 -13.2271 -10.4855 -15.56612 -16.50522 -7.468 -3.5385 -8.9495 -13.1206 -9.423 -8.459001 -10.4375 -10.689 -6.0195 -8.492001 
-16.3838 -15.4861 -23.86562 -19.90162 -19.63772 -8.213 -10.3475 -15.0308 -17.4191 -14.7481 -14.763 -11.929 -12.9325 -10.485 
-18.6428 -28.86622 -28.20112 -23.03412 -20.38272 -15.3052 -16.4288 -19.3293 -22.4518 -21.3573 -17.1139 -14.5788 -17.398 
-32.02292 -33.20172 -31.33362 -23.77912 -27.47492 -21.3865 -20.7273 -24.362 -28.9364 -23.5276 -19.6719 -19.0443 
-2.688 -3.502 -8.226501 -9.335501 -3.979 -1.7695 -4.1115 -8.316 -9.4175 -4.7415 -1.756 -4.2375 -8.695001 -3.5155 -1.7565 -3.584 -2.356 -3.488 -3.281 0 -5.696 
-5.0815 -13.2271 -18.0102 -13.6885 -6.34 -5.9195 -13.3881 -18.0737 -14.3312 -6.691501 -6.331 -10.766 -12.4027 -4.8955 -6.086501 -5.0575 -7.1175 -5.4445 -3.281 -5.696 
-16.3838 -23.0108 -22.3632 -16.0495 -10.9594 -15.7253 -23.1458 -22.9874 -16.2812 -9.564501 -13.4353 -14.4737 -13.7827 -10.3035 -8.604001 -9.2005 -9.4545 -5.4445 -8.296 
-26.1675 -27.3638 -24.7242 -20.6689 -20.7652 -25.483 -28.0595 -24.9374 -19.1542 -16.9016 -17.143 -15.8537 -19.1907 -12.821 -13.0324 -11.6577 -9.4545 -9.1595 
-30.5205 -29.7248 -29.3436 -30.4747 -30.5229 -30.3967 -30.0095 -27.8104 -26.4913 -20.6093 -18.523 -21.2617 -21.7082 -17.2494 -15.4896 -11.6577 -13.3237 
