-4.759 
n/a 
n/a 
n/a 
n/a 
-4.759 
n/a 
n/a 
n/a 
n/a 
-4.759 
n/a 
n/a 
n/a 
n/a 
-4.759 
n/a 
n/a 
n/a 
n/a 
-4.426 -1.7565 -1.4985 -3.0835 -4.7285 -4.1555 -6.019 -1.4985 -3.275 -4.245 -3.35 -3.833 -2.8645 -3.1125 -3.961 -1.756 -5.111 -2.3345 -1.4985 -3.5435 0 
-5.47 -2.4195 -3.535 -6.042 -8.4455 -7.97 -6.51 -4.7845 -5.8715 -6.553 -6.635 -6.754001 -3.5345 -5.604 -5.160501 -6.804 -5.1875 -3.233 -4.2755 -3.5435 
-5.9535 -4.6785 -6.335501 -9.523001 -12.4095 -9.835001 -9.716001 -7.291501 -8.460501 -9.6145 -9.6225 -7.309501 -5.794 -6.772501 -9.441501 -6.9635 -5.6875 -5.4055 -4.2755 
-8.021 -7.476501 -10.0095 -13.5715 -13.81 -13.139 -12.6459 -10.2805 -10.096 -12.726 -10.35 -9.5415 -7.0185 -11.4329 -9.6835 -7.2635 -8.982 -5.4055 
-9.983001 -11.3061 -14.168 -14.972 -16.9105 -16.3004 -15.7949 -11.916 -13.2075 -13.4535 -12.582 -10.9098 -11.8297 -11.6749 -10.399 -10.3605 -8.982 
-2.872 -3.35 -3.93 -3.4005 -2.186 -3.961 -1.756 -4.8645 -2.3345 -3.5435 0 
-7.827001 -7.3065 -4.708 -5.4505 -4.726 -5.160501 -6.15 -5.761 -5.752501 -3.5435 
-12.1853 -7.493001 -6.4395 -7.896501 -6.469501 -7.5165 -6.945 -9.184 -5.752501 
-12.3718 -9.591001 -9.3695 -10.028 -9.1665 -8.1885 -9.945001 -9.184 
-14.4698 -12.6208 -11.5546 -12.8466 -9.8485 -11.1981 -9.945001 
-2.872 0 -5.369 -2.0935 -1.4985 -3.93 -4.641 -2.4945 -3.8535 -2.3345 -3.5435 -4.179 0 
-2.872 -5.369 -6.752 -2.9725 -5.065001 -9.282001 -6.285 -5.5465 -5.069 -5.752501 -6.8745 -4.179 
-10.341 -6.752 -7.5385 -6.556 -10.322 -11.107 -10.2645 -6.829 -8.1005 -8.927501 -6.8745 
-11.724 -7.5385 -10.5635 -11.8452 -12.147 -15.0865 -11.547 -9.992001 -10.7595 -8.927501 
-12.5105 -10.5635 -15.8527 -13.6702 -16.1265 -16.369 -14.71 -12.651 -10.7595 
-2.872 -3.93 -3.35 -3.833 -3.961 -1.756 -4.306 -2.3345 -6.0655 -4.179 
-6.839001 -8.139501 -6.635 -7.257501 -5.160501 -5.402 -5.181 -8.590501 -9.621 
-11.2763 -10.168 -10.5795 -9.1675 -6.9855 -5.7745 -10.7605 -12.2736 
-13.3048 -14.1125 -12.4895 -11.3131 -7.1195 -12.04 -14.4436 
-17.2493 -16.0225 -14.6351 -11.4471 -14.2462 -15.7231 
