-4.759 
n/a 
n/a 
n/a 
n/a 
-4.759 
n/a 
n/a 
n/a 
n/a 
-4.759 
n/a 
n/a 
n/a 
n/a 
-4.759 
n/a 
n/a 
n/a 
n/a 
-3.2615 -1.4985 -3.9955 -3.9955 -1.934 -5.2505 0 -3.4975 -3.5435 -4.164 -3.54 -1.7565 -2.985 -3.5035 0 -2.9705 -2.6165 -3.098 -5.267 -1.4985 -3.6915 -1.7565 -4.347 -2.543 -3.748 -7.71 -5.309 0 -2.872 -3.074 -4.174 -4.969 -1.756 -4.498 -3.2895 -1.7695 -3.277 0 
-4.032 -5.289001 -8.491501 -6.0695 -6.502 -5.2505 -3.4975 -6.2345 -7.6695 -7.937 -5.1655 -3.9355 -6.8945 -3.5035 -2.9705 -6.266 -4.283 -7.4935 -6.149 -4.9775 -4.8385 -5.3115 -5.9625 -5.124001 -8.3195 -8.971001 -5.309 -2.872 -4.5415 -5.9385 -8.765501 -5.877501 -5.9935 -5.5245 -4.985001 -4.619 -3.277 
-7.8855 -9.2925 -10.622 -10.322 -6.502 -8.404 -6.2345 -10.3885 -12.0467 -9.5365 -6.881001 -7.862 -6.8945 -5.9165 -6.266 -6.5165 -8.341001 -8.131001 -9.228001 -5.23 -8.500501 -6.917 -7.368 -9.781501 -11.5415 -7.9465 -7.3405 -4.5415 -7.277 -10.8336 -10.8016 -8.161 -7.1135 -7.398 -7.837001 -4.619 
-12.2706 -11.5256 -14.8745 -10.322 -10.078 -11.5948 -10.3885 -14.7657 -13.6462 -11.456 -11.4049 -7.862 -9.4575 -9.262501 -6.5165 -9.611 -8.762 -11.3568 -9.411501 -8.7425 -10.1675 -8.1365 -11.8857 -10.9135 -10.025 -10.181 -8.7965 -7.277 -12.3467 -12.8697 -13.0851 -8.7915 -8.896 -10.485 -7.837001 
-14.5037 -15.7781 -14.8745 -13.898 -13.2688 -15.7488 -14.7657 -16.3652 -15.5657 -15.9799 -11.4049 -10.1545 -12.8753 -9.378 -9.611 -10.1165 -12.051 -11.5403 -13.122 -10.485 -11.387 -12.7908 -13.8571 -11.3159 -12.3979 -11.7752 -11.7282 -12.3467 -14.3828 -15.1532 -13.7156 -9.661501 -12.1308 -10.485 
-4.1265 -3.251 -4.83 -4.682 -3.3255 -5.595 0 -6.034 0 -1.756 -4.767 -1.7695 -3.7905 -1.4985 -4.29 -4.6825 0 -2.9705 -2.7415 -1.4985 -3.859 -4.1735 -4.6825 -1.934 -3.5125 0 -5.3915 -2.5195 -4.465 -1.934 -3.875 -1.7695 -4.3185 -1.934 -3.5455 -3.676 0 
-7.1035 -7.3745 -6.773001 -7.426001 -8.122001 -5.595 -6.034 -6.034 -1.756 -6.131 -6.9655 -4.482 -4.969 -5.2375 -6.846001 -4.6825 -2.9705 -4.512 -4.063 -4.4795 -6.051001 -8.176001 -6.343501 -5.129 -3.5125 -5.3915 -6.625 -6.445 -6.5225 -4.7225 -5.9875 -6.106 -6.6655 -4.8495 -4.521501 -3.676 
-10.172 -8.935501 -9.118 -10.0255 -8.122001 -9.8325 -6.034 -7.3595 -6.131 -8.231 -9.675501 -5.547 -9.2995 -7.054 -6.846001 -7.077001 -4.512 -5.831 -6.4305 -6.298 -9.935 -8.5895 -8.401001 -5.129 -7.877501 -6.625 -9.76 -8.181 -8.967501 -6.6385 -9.038 -7.6685 -9.598001 -5.2535 -4.521501 
-10.311 -10.186 -10.281 -10.0255 -10.2235 -9.8325 -7.3595 -10.243 -8.231 -10.0995 -10.201 -9.693001 -10.1115 -7.054 -8.944 -8.043501 -5.831 -8.249001 -7.795 -9.963501 -10.1985 -9.16 -8.401001 -9.724001 -9.1 -9.76 -10.535 -10.19 -10.543 -10.597 -10.397 -10.3745 -9.714001 -5.2535 
-10.321 -10.289 -10.281 -10.254 -10.2235 -10.051 -10.243 -10.257 -10.0995 -10.2545 -10.357 -10.17 -10.1115 -9.0315 -9.635001 -9.1735 -8.249001 -9.348001 -10.248 -10.203 -10.3215 -9.16 -10.209 -10.109 -10.382 -10.535 -10.6285 -10.605 -10.6265 -10.6285 -10.6225 -10.386 -9.714001 
-1.934 -5.2505 -2.925 -3.9955 0 -3.7555 -4.712 
-6.502 -8.3295 -5.459001 -3.9955 -3.7555 -8.482 
-8.820001 -11.1313 -5.459001 -8.617001 -8.482 
-11.5898 -11.1313 -10.4945 -13.6125 
-11.5898 -16.1668 -15.49 
-3.468 -1.7565 -5.2505 -3.158 -3.973 -1.7695 -3.956 -1.4985 -3.676 -2.229 -3.5035 -2.461 -4.705 -1.934 -1.7695 -1.4985 -3.5035 0 
-4.7385 -7.420001 -9.188001 -7.5585 -6.4565 -4.6005 -5.458 -6.125 -4.593 -5.3825 -6.233 -7.7845 -6.422 -4.0395 -2.7955 -4.4895 -3.5035 
-11.802 -11.7739 -14.0217 -10.5425 -9.1455 -5.759 -10.3675 -6.428 -8.356001 -8.2005 -12.0603 -9.351001 -10.164 -5.3685 -5.923501 -4.4895 
-16.1559 -16.6076 -17.0057 -13.2315 -10.238 -10.8085 -10.6705 -10.5325 -12.2202 -14.2796 -13.6268 -13.3372 -11.78 -9.053 -5.923501 
-20.9896 -19.5916 -19.6947 -14.324 -15.2875 -11.1115 -14.775 -15.0709 -18.2993 -15.8461 -17.613 -14.9532 -15.4645 -9.053 
