-4.759 
n/a 
n/a 
n/a 
n/a 
-4.759 
n/a 
n/a 
n/a 
n/a 
-4.759 
n/a 
n/a 
n/a 
n/a 
-4.759 
n/a 
n/a 
n/a 
n/a 
-4.1715 -2.3615 0 -4.35 -3.098 -8.615001 -2.742 -2.489 -4.661 -4.692 -4.35 
-5.907001 -2.3615 -4.35 -7.0505 -12.1064 -11.6816 -3.301 -6.785 -8.156 -7.302501 
-5.907001 -6.4445 -7.0505 -16.4119 -15.173 -12.2406 -8.127501 -10.97 -9.101001 
-9.822001 -9.403 -16.4119 -19.4785 -15.732 -17.0671 -12.7047 -11.915 
-12.8913 -18.9546 -19.4785 -20.0375 -20.5585 -21.6443 -13.6497 
-4.392 -4.0775 -4.69 -4.0035 -3.955 -4.31 -3.7715 -2.0935 -3.1435 -3.992 -4.2675 -3.527 0 -6.29 0 0 -5.8495 -2.8645 -3.264 -2.3335 -2.3615 -2.742 -3.6845 -4.066 -4.4495 -2.664 -5.2035 -4.2785 -1.756 -2.882 -3.9665 -4.392 -1.7695 -4.384 -4.2045 -6.531 -4.472 -2.0935 -3.895 -2.356 -1.4985 -4.7845 -4.3125 0 
-8.8675 -7.399501 -6.1035 -8.933001 -7.912001 -7.407001 -5.087 -4.568 -6.8545 -7.5505 -7.105 -3.527 -6.29 -6.29 0 -5.8495 -7.2675 -5.4505 -4.533 -4.2805 -4.486 -4.8705 -8.196501 -7.614 -7.558001 -6.154 -6.57 -6.093 -4.536 -6.744 -8.9855 -6.5895 -4.95 -7.4375 -10.229 -8.6335 -6.1875 -5.474 -5.46 -3.1615 -5.804 -6.96 -4.3125 
-12.3099 -8.760501 -12.1254 -13.0902 -11.516 -9.297001 -7.272 -8.2565 -9.896501 -7.6335 -7.105 -7.514 -6.29 -6.29 -5.8495 -7.2675 -9.181001 -6.0845 -6.34 -5.934 -5.86 -9.134001 -12.0885 -10.096 -11.3882 -6.793 -8.061501 -8.7355 -8.165501 -10.634 -9.334001 -9.874001 -7.725 -13.0162 -9.658001 -7.7915 -9.428 -6.9265 -6.337501 -6.9755 -7.308 -6.96 
-13.6709 -15.153 -16.2826 -16.6942 -13.406 -11.6502 -11.4679 -11.4191 -9.924001 -7.6335 -8.0655 -7.514 -6.29 -10.523 -7.2675 -9.181001 -9.725 -7.8395 -8.191501 -7.9645 -10.1855 -13.1628 -14.5705 -14.2508 -12.0272 -8.204 -10.597 -12.44 -12.3573 -10.9825 -13.2155 -12.718 -13.3467 -13.4227 -11.3545 -10.608 -10.7185 -8.309 -10.6735 -8.776 -7.308 
-20.0634 -19.3102 -19.8866 -18.5842 -15.7592 -15.8461 -14.6305 -11.4466 -9.924001 -8.079 -8.0655 -7.514 -10.523 -11.941 -9.181001 -9.725 -11.705 -9.150001 -10.037 -11.8002 -14.2143 -15.6448 -18.7253 -14.8898 -13.4382 -10.634 -14.3015 -16.6318 -12.7058 -14.864 -16.0595 -18.3397 -13.7532 -15.3463 -14.4131 -11.899 -12.101 -12.8158 -12.474 -8.776 
-6.0725 -4.35 -2.4285 -1.4985 -4.7885 -4.35 -4.431 -1.4985 -4.9795 -4.692 -4.35 
-11.1557 -6.5515 -4.002501 -5.282001 -6.498 -8.722 -6.6835 -6.388 -9.9925 -7.302501 
-13.3572 -7.654001 -7.81 -6.845 -11.5766 -11.3829 -11.8614 -11.807 -12.9202 
-14.4597 -9.978001 -9.209001 -12.2528 -14.2375 -16.5608 -17.2804 -14.7347 
-16.7837 -10.309 -14.7414 -14.9137 -19.4154 -21.9798 -20.2081 
-4.685 -2.5195 -2.3615 0 -1.4985 -7.6125 -2.9705 -2.186 -1.4985 -4.7885 -3.355 -1.7565 -1.4985 -4.6985 -5.25 -2.356 -1.4985 -4.692 -4.35 
-5.093 -4.4095 -2.3615 -1.4985 -8.256001 -9.7185 -3.89 -3.339 -5.282001 -7.1815 -3.725 -2.4195 -5.1995 -9.507 -6.849501 -3.1615 -5.687 -7.302501 
-6.587 -4.4095 -4.913 -8.256001 -9.8335 -10.0155 -5.027 -7.412001 -7.2965 -7.317501 -4.0515 -6.2165 -9.846001 -10.132 -7.420001 -7.3295 -7.932501 
-6.587 -6.8825 -11.8711 -9.8335 -10.074 -10.1625 -8.715501 -9.127001 -7.3945 -7.441501 -7.834001 -11.466 -10.536 -10.7575 -11.9468 -9.889001 
-7.613 -13.9468 -13.4486 -10.074 -10.1635 -14.8412 -10.199 -9.206 -7.501 -10.4265 -13.3093 -12.156 -11.1615 -15.2843 -14.5063 
