-4.759 
n/a 
n/a 
n/a 
n/a 
-4.759 
n/a 
n/a 
n/a 
n/a 
-4.759 
n/a 
n/a 
n/a 
n/a 
-4.759 
n/a 
n/a 
n/a 
n/a 
-4.365 -3.8465 -7.6365 -4.4525 -1.934 -1.4985 -4.365 -4.4155 
-6.72 -12.2512 -12.8682 -5.908501 -2.6125 -5.4465 -6.259 
-15.7809 -17.4829 -14.3242 -6.434 -6.366 -7.1745 
-21.0126 -18.9389 -14.8497 -10.442 -9.671501 
-22.4686 -19.4644 -18.8577 -13.7475 
-1.4985 -4.5235 -5.3545 -2.3335 -1.4985 -4.365 -3.8465 -4.303 -1.8085 -4.703 -3.9825 -1.934 -1.4985 -4.3845 -1.7565 -4.365 -3.2 
-5.561 -9.532001 -5.883 -3.3515 -5.4465 -6.72 -8.712001 -5.363 -5.545 -6.0655 -4.624 -2.6125 -4.936501 -4.873 -5.782001 -5.4195 
-11.1743 -9.871 -6.615 -7.387 -7.953 -12.2417 -9.1295 -7.067 -6.205 -6.253 -5.1565 -5.923 -5.0275 -9.0635 -7.427501 
-11.5133 -10.528 -9.969001 -9.482 -13.7741 -12.6592 -11.2507 -7.12 -6.304501 -6.792 -7.341001 -6.04 -9.274501 -10.3965 
-12.1703 -13.882 -13.0432 -15.3937 -14.1916 -14.7804 -11.3037 -7.1755 -6.8285 -8.884501 -7.433001 -10.126 -10.6935 
-1.4985 -4.6195 -3.9765 -2.3335 -1.4985 -4.365 -3.772 -3.251 -3.9595 -3.8175 -3.4465 -1.934 -1.4985 -4.2705 -1.7565 -4.365 -6.6055 0 
-5.9655 -6.7285 -4.531 -3.3515 -5.4465 -8.3865 -7.231 -5.561 -8.0055 -7.2985 -5.361 -2.6125 -5.383 -5.4125 -5.782001 -8.7735 -6.6055 
-8.210501 -7.102 -5.2865 -7.387 -9.56 -12.0591 -9.073 -9.571001 -12.1673 -8.4715 -5.722 -6.9445 -5.585001 -9.562 -10.1265 -8.7735 
-8.611 -7.776 -9.311501 -11.5601 -13.3906 -13.9011 -13.8976 -13.761 -13.3403 -8.8175 -9.632 -7.3255 -9.937 -14.3817 -10.1265 
-9.137 -10.0925 -13.6524 -15.3907 -15.2326 -18.7257 -18.0876 -14.934 -13.6863 -12.8527 -9.9005 -11.8271 -14.8539 -14.3817 
-3.17 -1.7565 -1.4985 -4.6195 -3.9765 -2.3335 -1.4985 -4.365 -3.772 -4.683 -1.934 -1.4985 -3.7075 -2.674 -3.8535 -1.4985 -3.4155 -3.6175 -1.7565 -4.365 -3.2 0 
-4.179 -2.4195 -5.9655 -6.7285 -4.531 -3.3515 -5.4465 -8.3865 -7.654 -5.473 -2.6125 -4.6235 -7.315001 -4.9155 -5.394 -4.4155 -5.355 -5.328 -5.782001 -5.4195 -3.2 
-4.497 -6.976001 -8.210501 -7.102 -5.2865 -7.387 -9.56 -12.4821 -8.207001 -5.949 -5.5835 -7.68 -9.328501 -6.2345 -8.507501 -7.099 -6.363 -10.31 -7.427501 -5.4195 
-8.314 -9.927501 -8.611 -7.776 -9.311501 -11.5601 -13.8136 -13.0351 -8.7445 -9.820001 -8.547001 -10.2485 -10.8069 -9.359501 -9.796 -8.751 -11.8362 -11.9555 -7.427501 
-11.4381 -10.2905 -9.137 -10.0925 -13.6524 -15.8137 -14.3666 -13.5726 -12.8077 -12.8405 -11.3565 -11.7269 -13.9319 -10.135 -11.448 -14.3578 -13.4817 -11.9555 
