-4.759 
n/a 
n/a 
n/a 
n/a 
-4.759 
n/a 
n/a 
n/a 
n/a 
-4.759 
n/a 
n/a 
n/a 
n/a 
-4.759 
n/a 
n/a 
n/a 
n/a 
-3.0415 -3.5025 -2.186 -3.849 -2.5045 -4.1865 -3.473 0 
-7.8135 -5.481 -4.8565 -6.305 -7.376 -6.538 -3.473 
-9.3205 -8.5935 -7.104 -11.2801 -10.419 -6.538 
-12.51 -10.4765 -12.2089 -14.3231 -10.419 
-14.393 -15.5814 -15.2519 -14.3231 
-4.122 0 -3.5025 -1.756 -3.188 -4.0005 -3.16 -2.186 -3.6065 -2.5195 -3.345 -2.8965 0 
-4.122 -3.5025 -5.073 -5.351 -4.969501 -5.2365 -5.883 -5.206 -4.897 -5.099 -4.4605 -2.8965 
-8.5255 -5.073 -7.345 -6.765501 -5.246 -7.176001 -8.4345 -5.675 -6.722 -5.6735 -4.4605 
-10.4345 -7.345 -7.352 -7.192 -7.187 -10.6335 -9.05 -8.443501 -6.739 -5.6735 
-12.7065 -7.352 -7.3545 -9.3155 -10.634 -11.249 -11.9869 -8.6875 -6.739 
-4.7475 -3.5025 -2.186 -3.6065 -2.5195 -3.188 -4.0005 -3.16 0 
-9.133001 -5.481 -5.206 -4.897 -6.0275 -4.969501 -5.2365 -3.16 
-10.75 -8.509501 -5.675 -9.222 -7.2305 -5.246 -5.2365 
-13.7785 -8.9495 -10.354 -10.6744 -7.3295 -5.246 
-14.2185 -13.8011 -11.8064 -10.7734 -7.3295 
-4.122 0 -3.5025 -5.4015 -2.5195 -3.188 -4.0005 -3.16 0 
-4.122 -3.5025 -9.1005 -5.6195 -6.0275 -4.969501 -5.2365 -3.16 
-8.5255 -9.1005 -9.339 -10.0505 -7.2305 -5.246 -5.2365 
-14.4793 -9.339 -13.804 -11.2535 -7.3295 -5.246 
-14.7178 -13.804 -15.007 -11.3525 -7.3295 
