-4.759 
n/a 
n/a 
n/a 
n/a 
-4.759 
n/a 
n/a 
n/a 
n/a 
-4.759 
n/a 
n/a 
n/a 
n/a 
-4.759 
n/a 
n/a 
n/a 
n/a 
-3.6135 -4.167 -3.85 0 -4.7065 0 -4.621 0 -4.4565 0 -5.0935 0 -4.864 0 -4.828 0 -5.287 -5.042 0 -4.156 -3.307 0 -1.756 -5.0245 
-6.365 -6.993501 -3.85 -4.7065 -4.7065 -4.621 -4.621 -4.4565 -4.4565 -5.0935 -5.0935 -4.864 -4.864 -4.828 -4.828 -5.287 -10.598 -5.042 -4.156 -7.4715 -3.307 -1.756 -6.948 
-9.6075 -6.993501 -7.137 -4.7065 -9.984 -4.621 -9.315001 -4.4565 -9.8765 -5.0935 -8.683001 -4.864 -8.259001 -4.828 -10.9315 -10.598 -10.598 -9.224001 -7.4715 -7.4715 -5.071 -6.948 
-9.6075 -8.5345 -7.137 -9.984 -9.984 -9.315001 -9.315001 -9.8765 -9.8765 -8.683001 -8.683001 -8.259001 -8.259001 -10.9315 -16.2425 -10.598 -14.78 -12.6487 -7.4715 -9.2895 -10.4595 
-11.3637 -8.5345 -13.4711 -9.984 -15.0106 -9.315001 -15.0614 -9.8765 -13.8504 -8.683001 -9.995001 -8.259001 -15.1887 -16.2425 -16.2425 -14.78 -18.2047 -12.6487 -9.2895 -14.8898 
-4.4665 -3.2875 -3.85 0 -9.0115 0 -12.16972 0 -5.0075 0 -7.98 0 -12.16972 0 -12.16972 0 -5.3295 -1.756 -2.688 -9.064501 
-7.0655 -6.365 -3.85 -9.0115 -9.0115 -12.16972 -12.16972 -5.0075 -5.0075 -7.98 -7.98 -12.16972 -12.16972 -12.16972 -12.16972 -5.3295 -7.0965 -4.619 -12.8263 
-10.6875 -6.365 -13.8649 -9.0115 -21.98102 -12.16972 -17.17722 -5.0075 -14.0035 -7.98 -20.71092 -12.16972 -24.33944 -12.16972 -17.49922 -7.0965 -9.953501 -15.3121 
-10.6875 -17.3623 -13.8649 -21.98102 -21.98102 -17.17722 -17.17722 -14.0035 -14.0035 -20.71092 -20.71092 -24.33944 -24.33944 -17.49922 -19.26622 -9.953501 -20.861 
-21.6848 -17.3623 -26.83442 -21.98102 -26.98852 -17.17722 -26.17322 -14.0035 -26.73442 -20.71092 -32.88064 -24.33944 -29.66894 -19.26622 -22.12322 -20.861 
-3.6135 -4.167 -2.4945 -3.85 0 -5.9955 0 -5.1635 0 -5.0075 0 -9.429001 0 -4.864 0 -12.16972 0 -12.16972 0 -12.16972 -1.756 -2.688 -10.4975 0 
-6.365 -6.1715 -6.217 -3.85 -5.9955 -5.9955 -5.1635 -5.1635 -5.0075 -5.0075 -9.429001 -9.429001 -4.864 -4.864 -12.16972 -12.16972 -12.16972 -12.16972 -12.16972 -13.92572 -4.619 -14.2593 -10.4975 
-7.949 -9.654 -6.217 -10.8489 -5.9955 -12.1146 -5.1635 -11.0145 -5.0075 -15.4525 -9.429001 -14.4938 -4.864 -18.13932 -12.16972 -24.33944 -12.16972 -24.33944 -13.92572 -16.78872 -16.7451 -14.2593 
-11.6275 -9.654 -15.0873 -10.8489 -12.1146 -12.1146 -11.0145 -11.0145 -15.4525 -15.4525 -14.4938 -14.4938 -18.13932 -18.13932 -24.33944 -24.33944 -24.33944 -26.09544 -16.78872 -28.91482 -16.7451 
-11.6275 -18.7629 -15.0873 -16.968 -12.1146 -17.9656 -11.0145 -21.4595 -15.4525 -20.5173 -14.4938 -27.76912 -18.13932 -30.30904 -24.33944 -36.50916 -26.09544 -28.95844 -28.91482 -28.91482 
-3.6135 -4.167 -2.4945 0 -3.85 0 -4.7065 0 -4.594 0 -4.4565 0 -4.864 0 -4.828 0 -5.225 0 -5.5865 -5.6385 -1.756 -2.688 -4.656 
-6.365 -6.1715 -2.4945 -3.85 -3.85 -4.7065 -4.7065 -4.594 -4.594 -4.4565 -4.4565 -4.864 -4.864 -4.828 -4.828 -5.225 -5.225 -5.5865 -12.0554 -7.204 -4.619 -5.8405 
-7.949 -6.1715 -6.217 -3.85 -7.137 -4.7065 -7.3115 -4.594 -9.443001 -4.4565 -9.214001 -4.864 -8.259001 -4.828 -8.526501 -5.225 -11.7817 -12.0554 -13.6209 -10.4904 -7.9615 
-7.949 -9.654 -6.217 -7.137 -7.137 -7.3115 -7.3115 -9.443001 -9.443001 -9.214001 -9.214001 -8.259001 -8.259001 -8.526501 -8.526501 -11.7817 -18.2506 -13.6209 -16.9073 -13.8329 
-11.6275 -9.654 -9.995001 -7.137 -7.8265 -7.3115 -13.1497 -9.443001 -14.5857 -9.214001 -13.313 -8.259001 -10.4855 -8.526501 -15.773 -18.2506 -19.8161 -16.9073 -20.2498 
