-4.759 
n/a 
n/a 
n/a 
n/a 
-4.759 
n/a 
n/a 
n/a 
n/a 
-4.759 
n/a 
n/a 
n/a 
n/a 
-4.759 
n/a 
n/a 
n/a 
n/a 
-3.4635 -2.3335 -1.934 -3.522 0 -1.4985 -4.628 -5.939 -3.5435 -1.756 -1.4985 -4.891 -4.222 -2.664 -3.8675 -1.7565 -6.2675 -3.8275 0 
-6.2075 -4.468 -5.0285 -3.522 -1.4985 -6.298 -5.9615 -7.053 -4.862 -3.0405 -5.891001 -8.42 -6.0875 -5.2005 -5.702 -7.4135 -10.2385 -3.8275 
-7.740001 -7.403 -5.0285 -5.1385 -6.298 -6.5895 -7.0565 -8.06 -5.71 -7.405 -8.955001 -10.4701 -6.3575 -7.1335 -12.2766 -11.9235 -10.2385 
-11.4956 -7.403 -6.0365 -9.506001 -6.5895 -7.161001 -8.062 -8.3135 -9.3205 -10.5425 -11.2233 -10.7401 -8.358001 -14.0977 -16.7866 -11.9235 
-11.4956 -8.150001 -10.3155 -9.6945 -7.161001 -8.106001 -8.315001 -9.9305 -12.526 -12.8108 -11.4933 -12.7406 -15.597 -18.6077 -16.7866 
-4.3895 -2.3345 -2.3335 -1.934 -3.522 0 -4.628 -5.939 -3.5435 -1.756 -6.144 -3.251 -4.222 -2.264 -1.4985 -5.263 -3.898 -3.8675 0 
-4.6785 -5.2215 -4.468 -5.0285 -3.522 -4.628 -5.9615 -7.053 -4.862 -8.08 -8.1085 -6.4425 -5.773 -2.9195 -6.819 -6.269001 -7.358001 -3.8675 
-7.624 -7.7875 -7.403 -5.0285 -8.288 -5.9615 -7.0565 -8.06 -8.634001 -10.27 -11.3682 -7.789001 -7.0195 -8.731 -6.965001 -7.470001 -7.358001 
-9.488501 -10.9463 -7.403 -9.679501 -9.736 -7.0565 -8.062 -9.455501 -10.634 -13.5297 -12.7147 -9.077001 -13.4636 -8.882501 -7.93 -7.470001 
-12.6823 -10.9463 -12.1964 -11.2013 -10.831 -8.062 -9.4565 -11.6643 -13.8937 -14.8762 -14.0027 -15.6529 -13.6151 -9.762 -7.93 

n/a 
n/a 
n/a 
n/a 
-1.934 -3.956 -2.3335 -6.6585 -1.756 -6.144 -4.891 -4.222 -1.4985 -6.1495 -3.8675 
-6.9485 -6.706 -9.776001 -8.549 -8.08 -9.338 -8.42 -5.4895 -6.842 -7.3085 
-10.3955 -14.6333 -11.8643 -15.1162 -11.3826 -12.9626 -10.419 -9.282001 -7.7075 
-18.3228 -16.7216 -18.4315 -18.4188 -15.0072 -14.9616 -14.2115 -9.5155 
-20.4111 -23.2888 -21.7341 -22.0434 -17.0062 -18.7541 -14.445 
