-4.759 
n/a 
n/a 
n/a 
n/a 
-4.759 
n/a 
n/a 
n/a 
n/a 
-4.759 
n/a 
n/a 
n/a 
n/a 
-4.759 
n/a 
n/a 
n/a 
n/a 
-1.934 -1.4985 -5.922 -4.153 0 -3.034 -1.4985 -4.6795 -5.3155 -3.147 0 -2.925 -4.834 -1.8085 -4.717 -1.934 -5.8235 -1.756 -4.281 -2.4265 -8.217501 0 
-2.6125 -6.26 -6.3195 -4.153 -3.034 -3.947 -6.048 -9.297501 -7.4215 -3.147 -2.925 -7.476501 -6.421 -7.009501 -6.6935 -7.881001 -8.129 -6.2145 -6.483 -11.8404 -8.217501 
-6.884501 -6.555501 -6.3195 -6.4075 -3.947 -8.1075 -9.417 -10.587 -7.4215 -5.7825 -7.476501 -8.054501 -10.5975 -8.5375 -13.1559 -8.920001 -12.8997 -7.210001 -15.7505 -11.8404 
-7.0185 -6.555501 -8.2065 -7.001 -8.1075 -9.922501 -10.611 -10.587 -9.725 -9.9275 -8.054501 -12.3234 -12.1255 -15.1959 -14.1949 -13.8587 -13.8952 -16.5233 -15.7505 
-7.0185 -8.288501 -8.746 -9.317 -9.922501 -11.2003 -10.611 -12.8905 -13.9266 -10.2525 -12.3234 -13.8514 -18.7839 -16.2349 -19.1336 -14.8542 -23.2085 -16.5233 
-4.6795 -4.0555 -1.7695 -5.3885 -1.934 -3.0605 -4.184 -4.153 0 -1.934 -5.8235 -2.925 -4.834 -8.217501 -4.717 
-8.845 -4.7475 -7.072001 -7.4995 -5.831 -6.047501 -5.8855 -4.153 -1.934 -7.881001 -9.585501 -7.476501 -14.0801 -13.6259 
-9.2225 -9.388 -8.916 -11.9575 -8.2875 -7.178 -5.8855 -5.9665 -7.881001 -9.836 -14.3524 -16.8758 -19.4885 
-14.0124 -10.383 -13.5358 -14.414 -8.617001 -7.178 -7.5185 -12.4695 -9.836 -14.7573 -23.7517 -22.2842 
-15.0074 -15.0028 -15.9923 -14.7435 -8.617001 -8.830001 -14.1277 -14.4245 -14.7573 -24.1566 -29.1601 
-9.679501 -4.0555 -1.934 -4.767 -4.153 -1.756 -1.934 -5.8235 -2.925 -4.09 -1.8085 -5.072 -3.849 -8.217501 
-13.873 -5.263 -7.1715 -5.9645 -5.6875 -4.0205 -7.881001 -9.585501 -6.521 -5.1625 -7.1085 -8.7945 -12.2271 
-15.0805 -9.1855 -7.559 -7.339 -7.341001 -9.5 -9.836 -13.3969 -7.154 -10.5745 -9.9615 -17.3494 
-19.003 -9.904 -9.296 -9.093 -13.1465 -11.6112 -13.8018 -14.0299 -12.6678 -13.4275 -18.5164 
-19.7215 -11.641 -11.1402 -14.9145 -15.2577 -15.577 -14.4348 -19.5437 -15.5208 -21.9824 
-1.934 -4.767 -4.153 -4.9225 -2.5195 -2.8965 -3.59 -2.4945 -3.8755 -4.717 -4.281 -2.5045 -9.4645 0 
-7.1715 -5.9645 -9.368501 -7.17 -4.786 -5.941 -5.948 -5.463 -9.8365 -9.1845 -5.893 -12.8864 -9.4645 
-7.559 -11.646 -11.753 -8.8925 -7.8285 -8.661501 -9.134501 -12.1572 -14.3668 -11.0981 -16.6357 -12.8864 
-13.7317 -14.0305 -13.4755 -10.476 -10.419 -11.971 -16.6191 -16.6875 -16.2804 -21.8408 -16.6357 
-16.1162 -15.753 -15.059 -13.8829 -13.7285 -19.4556 -21.1494 -18.6011 -27.0231 -21.8408 
