-4.759 
n/a 
n/a 
n/a 
n/a 
-4.759 
n/a 
n/a 
n/a 
n/a 
-4.759 
n/a 
n/a 
n/a 
n/a 
-4.759 
n/a 
n/a 
n/a 
n/a 
-12.16972 -3.2875 -2.186 -3.8605 -3.277 -3.5905 
-15.45722 -5.4535 -6.403 -6.0225 -4.7035 
-17.62322 -9.386001 -8.4715 -7.4025 
-21.55572 -12.0655 -8.7705 
-24.23522 -12.3645 
-4.986 -3.277 -3.393 -3.5905 -6.3215 -3.2875 0 
-7.314 -4.243 -7.3885 -9.870001 -8.6905 -3.2875 
-7.7615 -8.415001 -14.121 -12.6502 -8.6905 
-12.2533 -15.1897 -16.9012 -12.6502 
-19.028 -17.9699 -16.9012 
-6.3215 -3.2875 -2.186 -4.986 -3.277 -3.5905 0 
-8.6905 -5.4535 -7.563001 -7.314 -4.7035 -3.5905 
-10.451 -11.2899 -9.477501 -8.5555 -4.7035 
-16.2874 -13.2044 -9.634501 -8.5555 
-18.2019 -13.3614 -9.634501 
-6.3215 -3.2875 -2.186 -4.986 -3.277 -3.5905 0 
-8.6905 -5.4535 -7.563001 -7.314 -4.7035 -3.5905 
-10.451 -11.2899 -9.477501 -8.5555 -4.7035 
-16.2874 -13.2044 -9.634501 -8.5555 
-18.2019 -13.3614 -9.634501 
