-4.759 
n/a 
n/a 
n/a 
n/a 
-4.759 
n/a 
n/a 
n/a 
n/a 
-4.759 
n/a 
n/a 
n/a 
n/a 
-4.759 
n/a 
n/a 
n/a 
n/a 
-2.264 -3.508 -2.9965 0 -4.787 -1.7565 -5.1845 -4.269 -3.436 -4.1735 -1.934 -4.3935 
-4.813 -5.4295 -2.9965 -4.787 -6.7775 -6.580501 -9.341001 -7.5955 -7.9025 -6.6995 -5.726501 
-6.362 -5.4295 -7.8245 -6.7775 -12.4385 -10.411 -12.8825 -12.5422 -11.0687 -10.071 
-6.362 -10.6465 -9.9615 -12.4385 -16.269 -13.9525 -17.8292 -15.7084 -14.4402 
-11.9216 -12.7835 -15.9215 -16.269 -19.8105 -18.8992 -20.9954 -19.0799 
-8.35 0 -2.229 -4.3215 -1.7565 -4.9395 -1.934 -4.3935 -1.934 -3.9175 -1.7565 -1.4985 -3.4225 -4.39 -4.676 
-8.35 -2.229 -6.478 -6.145 -6.948 -7.173 -5.726501 -6.606 -4.681 -4.64 -2.4195 -3.9655 -4.7525 -8.4175 
-10.802 -6.478 -8.462501 -12.2075 -8.336 -11.3789 -7.206501 -9.887501 -4.7425 -5.0595 -4.6245 -5.0455 -8.477 
-15.051 -8.462501 -14.8372 -13.5955 -12.6351 -12.8589 -10.5635 -9.979 -5.235001 -8.097501 -5.5705 -9.205501 
-17.0355 -14.8372 -16.2252 -17.8946 -14.1151 -16.2159 -10.72 -10.4045 -8.149501 -8.408501 -9.812 
-1.934 -3.508 -2.9965 -2.5045 -4.3935 -1.8085 -4.8115 -3.436 -3.4225 -4.39 -3.4425 0 
-5.049 -5.4295 -5.668 -8.1085 -7.068501 -6.37 -8.4945 -7.717 -4.7525 -6.373 -3.4425 
-7.89 -6.865 -11.8998 -10.543 -11.9016 -9.604 -13.0205 -8.705501 -6.3745 -6.373 
-9.6855 -14.183 -14.3343 -15.3761 -15.1356 -14.328 -14.009 -10.8107 -6.3745 
-17.1719 -16.6175 -19.1674 -18.6101 -19.8596 -15.3165 -16.1142 -10.8107 
-3.508 -2.9965 -5.8605 -2.3345 -8.27 -1.934 -3.9175 -1.7565 -3.4225 -4.39 -1.934 -4.3935 0 
-5.4295 -9.794001 -8.123501 -9.927501 -9.235001 -4.681 -4.64 -5.6355 -4.7525 -5.947001 -5.726501 -4.3935 
-13.3778 -12.1606 -15.9307 -10.8925 -12.265 -4.7425 -8.842501 -6.6575 -6.523 -9.734 -5.726501 
-15.7444 -19.9678 -16.8957 -13.9225 -12.3265 -8.901001 -9.2005 -8.8655 -9.896501 -9.734 
-23.5516 -20.9328 -19.9257 -13.984 -16.485 -9.212001 -9.97 -12.3526 -9.896501 
