-4.759 
n/a 
n/a 
n/a 
n/a 
-4.759 
n/a 
n/a 
n/a 
n/a 
-4.759 
n/a 
n/a 
n/a 
n/a 
-4.759 
n/a 
n/a 
n/a 
n/a 
-3.6705 0 -3.833 -2.674 -4.629 -1.4985 -4.4115 -1.7565 -3.4715 -1.934 -1.4985 -4.4515 -4.975 -1.7565 -3.4715 -3.4625 -3.8825 -3.0365 -3.4765 -3.4775 -2.4945 -2.645 
-3.6705 -3.833 -5.372 -6.190001 -5.827 -4.787 -4.7565 -4.699 -5.327 -2.6125 -5.0235 -10.375 -5.852 -4.699 -6.886001 -6.4195 -6.326 -6.368 -6.1575 -5.8625 -4.6775 
-7.1755 -5.372 -7.455501 -6.998 -7.269 -4.837 -7.161 -6.0905 -5.8135 -6.653501 -11.493 -11.252 -9.171 -7.59 -9.2675 -8.7845 -9.8695 -8.8475 -8.323001 -7.577001 
-7.799 -7.455501 -8.043 -8.276501 -7.281 -7.238 -8.1155 -6.522 -9.094501 -13.4202 -12.37 -14.571 -12.1358 -10.1345 -11.9347 -12.0426 -12.4596 -11.108 -10.5425 
-10.564 -8.043 -9.429001 -8.297 -9.306001 -8.239 -8.389 -9.725501 -16.3286 -14.2972 -15.689 -17.5358 -14.6803 -12.6297 -15.1928 -14.6327 -14.7201 -13.3275 
-2.872 -2.264 -1.4985 -4.7885 -4.1455 -1.7565 -5.26 -1.4985 -4.6975 -1.7565 -4.541 -2.186 -4.629 0 -3.321 -3.4775 -4.179 -2.7295 -2.674 -3.845 -1.7565 -4.0745 -2.0935 -1.4985 -4.6975 -1.7565 -3.4715 -3.0365 0 
-5.33 -2.9195 -5.282001 -6.302001 -5.11 -6.372001 -6.9465 -5.1545 -5.103 -5.850501 -6.537001 -6.0385 -4.629 -3.321 -7.042 -8.446501 -6.321501 -3.8 -7.2815 -4.13 -5.254 -5.3495 -2.9725 -5.1545 -5.103 -4.699 -6.5435 -3.0365 
-5.7235 -6.3535 -6.639 -6.596 -7.9335 -7.772001 -11.1583 -5.202 -8.785501 -7.895 -10.9491 -6.0385 -7.902 -7.042 -12.528 -10.322 -7.397501 -8.1495 -7.4975 -7.3385 -6.665 -6.0605 -6.3625 -5.202 -8.337501 -7.542 -6.5435 
-9.540001 -7.309 -6.7995 -10.0147 -9.055 -12.046 -11.2058 -8.8555 -11.409 -12.5257 -10.9491 -8.443501 -11.9826 -12.528 -14.4035 -11.398 -12.0186 -8.346001 -10.7595 -8.6365 -7.449501 -7.2065 -6.393 -8.420501 -11.4469 -7.542 
-10.5827 -7.450001 -10.587 -11.1362 -13.6458 -12.0935 -14.8593 -11.4916 -16.0397 -12.5257 -13.3541 -12.7413 -17.4686 -14.4035 -15.4795 -16.0191 -12.2151 -11.6628 -12.0575 -9.349501 -8.706 -7.229 -9.633 -11.5629 -11.4469 
-2.9995 -3.3755 -4.6465 -4.541 -3.4715 -3.251 -2.186 -6.689 -3.321 -3.1015 -4.179 -3.074 -3.4715 -2.186 -3.0365 -4.3215 
-4.873 -9.116501 -8.455 -6.523001 -6.906 -6.786 -8.4845 -9.683001 -6.0165 -8.207001 -6.946001 -7.283501 -5.35 -4.5415 -8.660501 
-11.3318 -13.0928 -10.389 -9.703501 -10.8816 -13.4359 -11.9611 -12.4297 -12.0662 -11.0322 -11.5701 -9.025001 -7.978 -10.001 
-15.3081 -15.0268 -13.8337 -13.8449 -17.5315 -16.9125 -14.7078 -18.4794 -14.8914 -15.6563 -13.3116 -11.7956 -13.4443 
-17.2421 -18.4715 -17.9751 -20.4948 -21.0081 -19.6592 -20.7575 -21.3046 -19.5155 -17.3978 -16.0822 -17.2619 
-2.7295 -2.7765 -4.676 -2.3335 -4.6425 -3.4715 -2.186 -3.333 -1.934 -1.4985 -3.177 -4.3755 -1.7565 -1.4985 -4.6895 0 
-4.065 -5.9685 -5.4235 -6.928 -5.203001 -5.35 -4.2385 -4.374 -2.6125 -4.0915 -6.7625 -4.5345 -2.4195 -5.91 -4.6895 
-6.941 -6.569 -9.662001 -7.7805 -6.87 -7.114 -5.2135 -5.0355 -5.256001 -6.944 -7.011 -4.799 -6.956 -5.91 
-7.4205 -11.2377 -10.4965 -8.497001 -8.170501 -8.1025 -5.6985 -8.213 -7.987 -7.127 -7.177001 -9.184501 -6.956 
-12.0052 -12.0722 -11.213 -9.910501 -9.116501 -8.548 -9.0425 -11.3986 -8.087501 -7.256501 -11.9397 -9.184501 
