-4.759 
n/a 
n/a 
n/a 
n/a 
-4.759 
n/a 
n/a 
n/a 
n/a 
-4.759 
n/a 
n/a 
n/a 
n/a 
-4.759 
n/a 
n/a 
n/a 
n/a 
-1.934 -3.994 -1.7695 -12.16972 -3.251 -4.4155 -2.3335 -8.276501 -12.16972 -3.423 -2.489 -3.9205 -2.5195 -3.695 -3.115 -3.769 -2.872 -2.4265 -3.2645 -2.489 -4.493 0 
-4.095 -4.3645 -14.92142 -15.42072 -7.119 -4.943 -10.784 -20.76362 -15.59272 -4.122 -5.5325 -6.268001 -6.089 -6.509501 -6.471001 -5.8905 -4.062 -4.563 -3.7195 -5.996 -4.493 
-4.418 -17.99802 -18.17242 -19.28872 -7.631001 -13.8355 -23.27112 -24.18662 -16.29172 -7.7725 -7.758 -8.7825 -9.002001 -9.738501 -8.572001 -7.1085 -6.0495 -4.8385 -7.706 -5.996 
-18.11832 -21.24902 -22.04042 -19.80072 -16.5835 -26.32262 -26.69412 -24.88562 -19.94222 -9.691 -10.2535 -12.0923 -12.6886 -12.0041 -9.885 -9.2285 -6.3865 -9.156 -7.706 
-21.36932 -25.11702 -22.55242 -28.75322 -29.07062 -29.74562 -27.39312 -28.53612 -21.86072 -12.3293 -13.5633 -15.7789 -14.9542 -13.3171 -12.079 -9.573501 -10.749 -9.156 
-3.115 -3.3715 -2.8965 -3.681 -6.0755 -7.259501 -3.3875 -3.074 -2.489 -4.493 -3.3255 -3.695 -2.872 -2.9805 -5.4965 -2.3335 -1.4985 -3.3755 -1.7565 -3.781 -3.2645 -2.489 -4.4265 
-5.5935 -4.827001 -5.023 -10.2335 -9.897 -11.08 -5.2075 -4.381 -5.996 -6.5555 -6.7465 -6.047 -4.6545 -7.2225 -6.496 -3.3515 -4.057 -4.5295 -5.182 -7.122 -3.7195 -6.8225 
-6.357501 -6.324 -11.6509 -14.0046 -13.8703 -12.9 -5.691 -8.3075 -7.732 -7.9615 -8.7335 -7.88 -8.532001 -7.6845 -7.223001 -6.2905 -5.3375 -6.993 -8.2825 -7.4005 -8.214001 
-8.0425 -13.2939 -15.422 -17.9779 -15.6903 -13.3835 -9.581 -9.6635 -8.909 -9.913 -10.6809 -11.9593 -8.732 -8.318001 -9.927001 -7.764501 -8.1815 -10.6215 -8.6085 -12.3058 
-15.3052 -17.065 -19.3953 -19.7979 -16.1738 -17.2735 -10.9458 -10.8623 -10.485 -11.8604 -14.7602 -12.1593 -9.451501 -11.1138 -11.5594 -10.553 -11.8688 -10.9475 -13.571 
-3.074 -8.854 -5.298 -2.3335 -2.4265 -2.186 -5.5925 -2.3345 -3.695 -3.115 -2.9995 -2.8965 -3.89 0 -4.4265 -3.58 -2.186 -3.989 -2.0935 -2.3615 0 
-12.9284 -14.4478 -6.408501 -3.913 -3.292 -7.422 -7.3685 -6.4915 -6.509501 -5.5445 -4.1905 -5.8785 -3.89 -4.4265 -6.665 -5.5845 -4.923 -5.0175 -3.854 -2.3615 
-18.5222 -15.5583 -7.805 -4.5215 -7.756501 -8.778501 -8.707001 -9.871 -8.988501 -5.860001 -7.0255 -5.8785 -8.948 -6.665 -8.168 -7.408501 -5.8925 -6.604 -3.854 
-19.6327 -16.9548 -8.352501 -10.223 -10.0315 -9.757 -12.6621 -12.3944 -9.450001 -8.853001 -7.0255 -11.4465 -11.3399 -8.168 -9.818501 -8.212001 -7.375501 -6.604 
-21.0292 -17.5023 -14.2296 -12.498 -11.044 -14.5617 -15.1855 -12.8559 -12.4886 -8.853001 -12.8411 -13.8384 -12.8429 -9.818501 -10.601 -9.692 -7.375501 
-12.16972 -4.4175 -2.3335 -3.4765 -2.871 -2.7765 -3.3785 -2.7455 -3.6835 -4.361 -4.2885 0 -6.0755 -10.4975 0 -2.3345 -3.695 -2.4265 -2.186 -3.699 -1.7695 -3.6645 -1.934 -1.4985 -4.4265 -3.3755 
-16.58722 -5.0185 -5.155 -5.9825 -4.952 -6.2335 -4.6985 -6.138 -7.219 -6.252 -4.2885 -6.0755 -17.3974 -10.4975 -2.3345 -6.4915 -5.83 -3.292 -4.636 -4.585 -4.9955 -5.209001 -2.6125 -4.9985 -6.3255 
-17.18822 -7.6775 -7.594 -8.753 -7.4915 -7.680501 -7.864501 -8.9805 -7.925 -6.252 -10.802 -17.3974 -17.3974 -13.031 -6.4915 -8.472 -6.5615 -4.8835 -4.967 -7.422 -6.3535 -5.9465 -6.171 -6.462 
-19.84722 -10.1225 -10.248 -11.4035 -8.993501 -10.717 -10.1985 -9.6505 -7.925 -13.1903 -22.1239 -17.3974 -19.9309 -17.188 -8.472 -8.854 -7.9865 -5.073 -7.7405 -9.148001 -7.0485 -10.064 -7.63 
-22.29222 -12.7765 -12.8985 -12.9055 -12.1372 -13.051 -11.1755 -9.6505 -15.1445 -24.5122 -22.1239 -19.9309 -24.0879 -19.1685 -8.854 -10.6735 -8.189 -7.7955 -9.618 -9.9455 -11.7542 -11.523 
