-4.759 
n/a 
n/a 
n/a 
n/a 
-4.759 
n/a 
n/a 
n/a 
n/a 
-4.759 
n/a 
n/a 
n/a 
n/a 
-4.759 
n/a 
n/a 
n/a 
n/a 
-3.488 -3.1205 0 -4.1605 -4.8095 0 -3.676 -4.6055 -4.7285 0 -8.612 0 
-5.527 -3.1205 -4.1605 -9.235001 -4.8095 -3.676 -9.145 -9.27 -4.7285 -7.618 -7.618 
-5.527 -7.6995 -9.235001 -9.235001 -9.498501 -9.145 -13.9919 -9.27 -13.2057 -7.618 
-11.2644 -13.3482 -9.235001 -14.107 -15.4453 -13.9919 -13.9919 -17.9778 -13.2057 
-16.9131 -13.3482 -14.107 -20.0538 -20.2922 -13.9919 -22.6997 -17.9778 
-3.488 -3.1205 -12.16972 0 -3.4975 -5.0755 -3.818 
-5.527 -15.83922 -12.16972 -3.4975 -7.863 -7.0425 
-19.40412 -15.83922 -15.66722 -7.863 -9.124001 
-19.40412 -19.33672 -20.03272 -9.124001 
-22.90162 -23.70222 -21.29372 
-3.488 -8.008 -5.2735 0 -3.4975 -5.0755 -3.818 0 -4.2215 0 
-10.394 -10.15 -5.2735 -3.4975 -7.863 -7.0425 -3.818 -4.2215 -4.2215 
-13.2765 -10.504 -8.863001 -7.863 -9.124001 -7.0425 -7.787 -4.2215 
-13.2765 -13.3295 -10.177 -9.124001 -9.124001 -9.4985 -7.787 
-16.102 -13.638 -10.3755 -9.124001 -11.6824 -9.4985 
-1.934 -3.609 -12.16972 -5.2735 -2.186 -3.4975 -5.0755 -3.818 
-6.1475 -17.30092 -17.44322 -7.428 -6.572001 -7.863 -7.0425 
-19.94262 -22.57442 -19.59772 -12.313 -11.3559 -9.124001 
-25.21612 -24.72892 -24.48272 -17.0969 -12.6169 
-27.37062 -29.61392 -29.26662 -18.3579 
