-4.759 
n/a 
n/a 
n/a 
n/a 
-4.759 
n/a 
n/a 
n/a 
n/a 
-4.759 
n/a 
n/a 
n/a 
n/a 
-4.759 
n/a 
n/a 
n/a 
n/a 
-5.7565 -3.0695 -2.7415 -1.4985 -3.352 -4.5175 -4.328 -1.934 -3.0105 0 -4.3195 -1.4985 -4.773 -4.156 -4.328 -1.934 -5.604 0 
-7.9205 -4.6395 -4.063 -4.43 -6.568501 -9.161501 -6.0585 -4.827 -3.0105 -4.3195 -5.1515 -5.652 -6.0655 -6.2095 -6.0585 -8.183001 -6.0655 
-8.739 -5.8275 -7.4395 -7.936501 -11.7133 -11.1292 -8.6575 -4.827 -7.474 -5.1515 -8.235001 -6.964 -7.7405 -8.0755 -13.3665 -8.723001 
-9.920501 -8.941 -11.0186 -13.5813 -13.681 -13.7282 -8.6575 -8.465 -8.4785 -8.235001 -9.2895 -8.519501 -9.412001 -15.4937 -13.3811 
-13.1604 -12.5517 -16.6634 -15.549 -16.28 -13.7282 -12.4643 -8.796 -11.9112 -9.2895 -10.5145 -9.9505 -17.0462 -15.4937 
-5.7565 -2.7415 -1.4985 -2.8195 -4.328 -1.7565 -5.1845 -5.74 0 -3.0105 0 0 -3.1015 0 -2.7405 0 -2.9805 -2.186 -1.4985 -4.773 -4.156 -4.328 -1.7565 -5.1845 -5.74 -2.8635 
-7.33 -4.063 -4.524 -6.9445 -5.0935 -6.580501 -5.7465 -5.74 -3.0105 -3.0105 0 -3.1015 -3.1015 -2.7405 -2.7405 -2.9805 -4.1635 -3.339 -5.652 -6.0655 -6.2095 -5.0935 -6.580501 -5.7465 -8.958 
-8.6085 -6.8995 -7.675 -8.433001 -8.5175 -6.961501 -5.7465 -9.4335 -3.0105 -3.0105 -3.1015 -3.1015 -6.572001 -2.7405 -6.2475 -4.1635 -5.312 -7.2445 -6.964 -7.7405 -7.0935 -8.5175 -6.961501 -8.971001 
-11.6192 -9.642 -8.976001 -12.455 -8.524 -6.961501 -9.440001 -9.4335 -3.0105 -6.4945 -3.1015 -6.572001 -6.572001 -6.2475 -7.1955 -5.312 -8.440001 -8.373501 -8.519501 -8.675501 -8.547501 -8.524 -9.586 
-14.3617 -10.487 -13.1242 -12.4615 -8.524 -10.3885 -9.440001 -9.4335 -6.4945 -6.4945 -6.572001 -6.572001 -10.2755 -7.1955 -8.120001 -8.440001 -9.655001 -10.2865 -9.298 -9.863001 -8.55 -9.7395 
-5.7565 0 -4.773 -4.6865 -4.328 -1.7565 -6.557 -1.934 -7.8735 -2.7405 0 
-5.7565 -4.773 -8.929501 -9.797501 -5.0935 -7.653501 -8.4335 -8.7075 -9.752001 -2.7405 
-9.975 -8.929501 -14.8129 -10.832 -9.074 -9.189 -15.5206 -10.674 -9.752001 
-14.9509 -14.8129 -15.8474 -14.8125 -10.7605 -16.4795 -17.4871 -10.674 
-20.8343 -15.8474 -19.8279 -16.499 -18.051 -18.446 -17.4871 
-5.7565 0 -3.0695 -2.7415 -5.1845 -5.74 -2.229 -3.1715 -2.8195 -4.328 0 -3.0105 0 -2.186 -3.1015 -1.4985 -5.1845 -5.74 -2.229 -4.269 -4.156 -4.328 -2.5195 -1.4985 -3.158 -2.7405 
-5.7565 -3.0695 -4.6395 -9.0585 -5.7465 -7.966001 -5.4145 -6.267 -6.9445 -4.328 -3.0105 -3.0105 -2.186 -4.3025 -4.7205 -6.5205 -5.7465 -7.966001 -6.0835 -6.412 -6.2095 -6.9245 -3.1695 -4.178 -5.2485 
-7.9205 -4.6395 -10.6215 -9.851001 -7.9785 -10.199 -9.054501 -8.783001 -6.9445 -8.2915 -3.0105 -5.976 -4.3025 -5.663 -9.657001 -7.317 -7.9785 -12.1303 -8.373501 -9.095301 -8.831 -7.721 -6.3945 -5.875 
-8.739 -10.6215 -11.414 -10.638 -10.2035 -14.0042 -12.0799 -8.783001 -11.4654 -8.2915 -5.976 -7.618001 -5.663 -11.1365 -10.37 -9.4525 -12.147 -14.4203 -11.3386 -11.7168 -9.388 -10.6465 -8.672 
-14.9486 -11.414 -12.201 -12.863 -14.0107 -17.0296 -12.0799 -13.5485 -11.4654 -11.963 -7.618001 -9.317 -11.1365 -11.8495 -12.5055 -14.2968 -14.437 -17.3854 -13.9601 -12.2738 -12.5725 -12.924 
