-4.759 
n/a 
n/a 
n/a 
n/a 
-4.759 
n/a 
n/a 
n/a 
n/a 
-4.759 
n/a 
n/a 
n/a 
n/a 
-4.759 
n/a 
n/a 
n/a 
n/a 
-3.0365 -2.4945 -6.4925 -6.56 -2.5045 -3.849 -4.088 -3.0695 -3.6845 -3.509 -3.2615 -4.6955 -1.4985 -4.517 -3.64 -1.934 -2.985 -3.886 -2.356 -1.4985 -3.0785 -1.7565 -2.871 -2.229 -4.3775 
-3.688 -10.1595 -10.2235 -8.8085 -5.8805 -6.419001 -7.449501 -6.3205 -6.4055 -6.904 -7.153 -5.473001 -6.301001 -9.495001 -5.4425 -4.111 -6.452001 -6.069 -3.1615 -4.779 -5.1815 -4.521 -4.8515 -6.797 
-12.1904 -13.8905 -12.472 -12.6375 -7.5445 -9.927501 -9.989501 -10.204 -9.935501 -10.4265 -7.593 -10.0605 -10.025 -11.3767 -7.849 -7.665 -8.3865 -6.940001 -5.297501 -5.2205 -7.618 -5.775001 -8.866501 
-15.9214 -16.139 -16.301 -14.3015 -11.183 -12.4675 -14.0348 -13.8364 -13.458 -10.66 -12.3065 -14.1393 -11.9067 -13.7832 -11.832 -9.925 -9.038501 -8.875501 -5.3145 -7.651501 -9.429501 -9.755001 
-18.1699 -19.968 -17.965 -17.94 -13.723 -16.5128 -17.6672 -17.3589 -13.6915 -15.3735 -16.3853 -16.021 -14.3132 -17.7662 -14.092 -10.463 -11.0228 -8.884501 -7.801501 -9.471001 -13.5145 
-3.0365 -2.4945 -3.6065 -3.1385 -1.934 -3.6065 -4.088 -3.0695 -2.7765 -3.322 -1.4985 -4.3775 -1.7565 -1.8085 -3.6765 -1.756 -3.0465 -2.915 -2.5195 -1.4985 -4.5735 -4.6955 -5.6635 -3.4635 -1.7695 -1.4985 -4.015 -3.6765 -1.756 -4.4295 -1.756 -2.3615 -2.5045 -1.8085 -3.6175 0 
-3.688 -5.343 -5.8815 -4.522 -4.9755 -6.106 -7.449501 -4.7695 -5.23 -4.2895 -5.5605 -6.2365 -3.2595 -4.452 -5.2955 -4.477 -5.592 -4.7575 -3.1695 -5.271 -9.378 -9.003 -9.4175 -4.2045 -2.7955 -5.216001 -6.4525 -5.2955 -5.673 -6.3515 -4.4615 -5.006 -3.3625 -4.544 -3.6175 
-6.0505 -7.8135 -7.1635 -6.968 -6.5865 -9.093 -9.1 -7.021 -6.066 -8.975501 -6.277 -7.894 -5.524 -6.412 -7.9235 -6.995501 -6.946 -5.334 -6.6455 -9.908001 -13.8301 -13.0526 -10.362 -4.7965 -6.114 -7.726001 -7.951 -8.731501 -8.1505 -8.967501 -7.589 -5.589 -6.436 -4.544 
-8.569 -9.030001 -7.758 -8.267501 -9.552501 -10.8473 -11.4667 -7.797501 -10.159 -9.863501 -7.951 -9.2145 -7.334001 -8.946501 -10.6335 -8.237 -7.5895 -9.564501 -11.5731 -14.5323 -17.8797 -13.9971 -10.634 -6.984 -8.501 -8.687 -11.7048 -11.4448 -10.6595 -12.3486 -8.742001 -8.667 -6.436 
-9.435 -9.975501 -8.7935 -10.354 -11.3402 -13.214 -12.2432 -12.2315 -10.6285 -11.5063 -9.2255 -11.6967 -10.19 -11.8743 -11.875 -8.656 -12.0404 -14.5157 -16.1974 -18.5819 -18.8242 -14.2691 -12.8215 -10.269 -9.578501 -13.0484 -14.4181 -13.9538 -14.0406 -13.5016 -12.0742 -8.667 
-3.402 -3.893 -1.4985 -4.825 -3.5765 -2.925 -2.911 -1.4985 -4.015 -3.8135 -1.756 -4.972 -2.3335 -1.934 -3.3715 -4.088 
-4.995 -4.573 -5.909 -6.948 -7.4335 -6.797 -4.546 -5.216001 -7.451 -5.4025 -6.7535 -6.829 -4.468 -4.622 -5.932 
-5.502 -8.932501 -8.1195 -10.2085 -11.6039 -7.849 -9.5115 -8.313001 -8.795501 -9.8485 -9.3885 -9.290501 -6.3295 -6.3075 
-9.822001 -11.5796 -11.6318 -14.4381 -12.6559 -13.0027 -12.6351 -9.8295 -13.5599 -12.9805 -11.9172 -11.2808 -7.981 
-13.7733 -15.0919 -15.8614 -15.4901 -17.8096 -16.1263 -14.1516 -14.7271 -16.6919 -15.5092 -13.9075 -12.9323 
-3.849 -4.9225 -2.4945 -3.557 -1.934 -3.3715 -4.088 -3.0695 -2.4945 -4.26 -6.4185 -3.326 -4.005 -2.0935 -3.345 -1.756 -3.8755 -3.237 -3.402 -2.264 -2.985 -4.3775 -3.6185 0 
-8.5065 -6.9525 -5.304 -4.4175 -4.622 -5.932 -7.449501 -4.2085 -5.958 -11.9279 -10.504 -5.7445 -6.0595 -4.212 -5.2935 -5.454 -7.463 -7.8225 -3.793 -4.3835 -7.6815 -8.723 -3.6185 
-10.1225 -9.501 -5.732501 -6.426 -6.3075 -9.214001 -8.504001 -7.614 -14.4711 -16.0134 -12.9225 -7.095 -8.0315 -6.3595 -9.036 -8.925501 -12.5803 -7.9515 -5.5775 -8.601001 -12.3084 -8.723 
-12.7826 -9.809501 -7.4395 -7.919 -9.748501 -10.209 -12.0849 -16.4057 -18.5566 -18.4319 -14.273 -10.0405 -10.688 -10.335 -12.7509 -14.2956 -12.7093 -9.3505 -10.4482 -13.4575 -12.3084 
-13.0911 -11.7751 -8.798501 -11.6756 -10.6 -13.7899 -20.8766 -20.4912 -20.9751 -19.7824 -17.2185 -12.697 -14.6635 -14.0499 -18.121 -14.4246 -14.1083 -14.4062 -15.3047 -13.4575 
