-4.759 
n/a 
n/a 
n/a 
n/a 
-4.759 
n/a 
n/a 
n/a 
n/a 
-4.759 
n/a 
n/a 
n/a 
n/a 
-4.759 
n/a 
n/a 
n/a 
n/a 
-1.934 -3.587 -4.485 -2.4285 -3.6385 0 -4.485 -4.085 0 -3.5535 -3.9265 0 0 -4.2105 0 0 -3.1715 0 0 -3.4155 
-5.4505 -5.672 -6.501 -7.288001 -3.6385 -4.485 -5.7135 -4.085 -3.5535 -5.8285 -3.9265 0 -4.2105 -4.2105 0 -3.1715 -3.1715 0 -3.4155 
-6.8155 -7.3925 -9.197001 -7.288001 -8.951 -5.7135 -5.7135 -7.354 -5.8285 -5.8285 -3.9265 -4.2105 -4.2105 -4.2105 -3.1715 -3.1715 -3.1715 -3.4155 
-8.592501 -10.5905 -9.197001 -12.6235 -9.388 -5.7135 -8.872001 -9.426001 -5.8285 -5.8285 -8.564 -4.2105 -4.2105 -7.522501 -3.1715 -3.1715 -7.429501 
-11.9869 -10.5905 -14.8581 -13.0605 -9.388 -8.872001 -9.616 -9.426001 -5.8285 -9.599501 -8.564 -4.2105 -7.522501 -7.522501 -3.1715 -7.429501 
-3.587 -4.485 -2.4285 -3.6385 0 -4.485 -4.085 0 -1.934 -4.0005 -3.9265 -4.2105 0 -3.1715 -3.4155 0 
-5.672 -6.501 -7.288001 -3.6385 -4.485 -5.7135 -4.085 -1.934 -6.922 -7.449 -8.564 -4.2105 -3.1715 -7.429501 -3.4155 
-7.3925 -9.197001 -7.288001 -8.951 -5.7135 -5.7135 -6.408 -6.922 -9.054501 -12.6785 -8.564 -7.522501 -7.429501 -7.429501 
-10.5905 -9.197001 -12.6235 -9.388 -5.7135 -7.949 -11.8644 -9.054501 -14.7548 -12.6785 -9.927501 -9.5795 -7.429501 
-10.5905 -14.8581 -13.0605 -9.388 -7.949 -14.1068 -13.9969 -14.7548 -14.7548 -14.042 -12.9031 -9.5795 
-2.5195 -3.587 -4.485 -2.4285 -4.485 -4.085 -4.6175 -1.7695 -3.5535 -3.9265 -3.327 -4.2105 -1.756 -3.321 -3.327 -3.1715 -1.756 -3.327 -3.4155 
-5.632 -5.672 -6.501 -6.8035 -5.7135 -9.101 -5.544 -6.277 -5.8285 -5.861 -7.797 -5.448 -4.0055 -5.0155 -5.726501 -5.8005 -4.756001 -7.579 
-7.513 -7.3925 -7.126 -7.074 -10.204 -10.0385 -10.5389 -8.05 -6.3945 -8.687 -9.178 -7.631001 -5.4505 -6.6045 -7.412 -8.005001 -9.095501 
-8.618501 -7.834 -7.1375 -12.2369 -11.4941 -15.0334 -12.3119 -9.854 -8.794001 -9.9945 -9.644 -8.6805 -7.1015 -8.795501 -9.013 -10.553 
-9.6025 -7.8435 -12.4942 -13.527 -16.489 -16.8064 -14.1159 -12.1925 -10.0475 -10.253 -9.8035 -10.06 -9.5955 -10.411 -10.76 
-3.587 -4.485 -2.4285 -3.6385 0 -4.485 -4.085 0 -1.934 -3.5535 0 -3.1715 0 -3.4155 0 
-5.672 -6.501 -7.288001 -3.6385 -4.485 -5.7135 -4.085 -1.934 -6.347 -3.5535 -3.1715 -3.1715 -3.4155 -3.4155 
-7.3925 -9.197001 -7.288001 -8.951 -5.7135 -5.7135 -6.408 -6.347 -6.347 -6.417 -3.1715 -7.429501 -3.4155 
-10.5905 -9.197001 -12.6235 -9.388 -5.7135 -7.949 -10.688 -6.347 -8.962 -6.417 -7.429501 -7.429501 
-10.5905 -14.8581 -13.0605 -9.388 -7.949 -10.7025 -10.688 -8.962 -8.962 -11.6548 -7.429501 
