-4.759 
n/a 
n/a 
n/a 
n/a 
-4.759 
n/a 
n/a 
n/a 
n/a 
-4.759 
n/a 
n/a 
n/a 
n/a 
-4.759 
n/a 
n/a 
n/a 
n/a 
-3.539 -3.2785 0 -1.934 -2.664 -4.299 -2.264 -4.8715 -2.0935 -1.4985 -5.3895 -1.934 -10.24 0 -9.3085 -3.8145 -2.3345 -1.4985 -4.628 -5.939 -3.599 -10.283 -3.1385 -3.152 -4.493 -3.5005 -1.8085 -2.5645 -3.158 -3.5905 -3.736 -1.756 -3.106 -3.1385 -3.152 -5.228 0 
-5.599 -3.2785 -1.934 -4.0475 -5.6315 -5.322001 -7.392 -6.2825 -2.9725 -6.542001 -6.8895 -13.1804 -10.24 -9.3085 -10.841 -6.529 -3.233 -6.298 -5.9615 -8.3485 -15.0674 -13.9905 -5.219 -5.593 -7.3945 -4.786 -4.75 -5.2585 -4.382 -6.4135 -5.234 -5.5555 -6.495501 -5.219 -6.564 -5.228 
-5.599 -5.8795 -4.0475 -6.894001 -6.1585 -10.2865 -9.307 -7.088 -7.518001 -7.879001 -18.7361 -13.1804 -19.7415 -10.841 -13.5555 -7.443501 -7.4645 -6.5895 -8.361 -20.9881 -18.7749 -16.071 -6.315001 -7.665 -8.419001 -7.5535 -6.136 -6.035501 -6.5305 -7.763 -9.412 -8.5905 -8.23 -7.465 -6.564 
-8.487 -8.261 -6.894001 -7.316501 -11.5324 -10.5225 -9.796 -9.3275 -8.672001 -20.0476 -18.7361 -22.6819 -21.274 -13.5555 -14.47 -10.3225 -7.686 -8.778501 -21.0136 -24.6956 -20.8554 -17.167 -8.028001 -8.592001 -11.6151 -8.622001 -6.6665 -7.759501 -7.8725 -12.0254 -12.6602 -9.495501 -9.571501 -7.465 
-10.434 -10.4945 -7.316501 -13.052 -11.7684 -12.0845 -12.4533 -10.674 -21.05 -20.0476 -28.2376 -24.2144 -23.9885 -14.47 -17.349 -10.7285 -9.380501 -22.0277 -24.7211 -26.7761 -21.9514 -18.88 -8.787001 -11.8779 -12.6836 -9.141001 -8.119 -9.072001 -12.1881 -15.2736 -13.5652 -10.452 -9.571501 
-3.539 -3.2785 0 -1.934 -1.4985 -4.5115 -2.3335 -3.152 -4.4655 -1.934 -8.997001 -1.934 -1.4985 -3.1715 -1.7565 -9.187 -2.3345 -1.4985 -4.628 -5.939 -3.599 -3.9665 0 -2.461 -3.1385 -3.5005 -1.8085 -3.54 -3.158 -3.5905 -4.4855 -3.152 -4.493 -1.756 -3.106 -3.152 -5.1875 -4.874 0 
-5.599 -3.2785 -1.934 -2.6125 -5.813001 -6.357501 -4.664001 -5.7435 -5.350501 -10.361 -10.688 -2.6125 -3.994 -4.207 -10.19 -11.8039 -3.233 -6.298 -5.9615 -8.3485 -4.743 -3.9665 -2.461 -5.666 -5.9425 -4.786 -4.976501 -5.2745 -4.382 -6.7495 -7.968501 -5.593 -5.8585 -5.5555 -6.934501 -7.063001 -6.994501 -4.874 
-5.599 -5.8795 -2.6125 -7.109 -7.479001 -8.017 -7.3655 -6.4565 -14.6125 -12.052 -11.3665 -4.939 -4.613 -13.7887 -12.8069 -12.7024 -7.4645 -6.5895 -8.361 -8.448 -4.743 -6.666 -5.666 -8.779501 -7.1505 -7.4425 -5.6575 -6.193 -6.8075 -10.181 -10.0255 -6.381001 -8.555 -7.8475 -11.0613 -8.279501 -6.994501 
-8.487 -6.8275 -7.109 -8.766001 -8.9615 -10.597 -8.031501 -15.6881 -16.3035 -12.7305 -13.693 -5.3855 -14.5427 -16.4056 -13.7054 -16.9339 -7.686 -8.778501 -8.459001 -8.448 -7.756001 -10.4595 -8.779501 -9.8105 -9.586 -8.269 -6.7875 -9.007501 -10.328 -12.238 -10.8783 -8.811001 -9.717 -12.0363 -12.2778 -8.279501 
-9.229001 -11.5526 -8.766001 -10.564 -11.7445 -11.263 -17.4125 -17.3791 -16.982 -15.057 -14.1395 -16.0074 -17.1596 -17.3041 -17.9369 -17.1554 -9.380501 -8.801001 -8.459001 -11.79 -11.8461 -13.573 -9.8105 -12.246 -9.763 -9.094001 -9.3295 -12.5616 -12.385 -13.0908 -13.3083 -9.833501 -14.5196 -13.2528 -12.2778 
-3.539 -3.2785 0 -3.106 -3.1385 -3.5005 -1.8085 -2.5645 -3.158 -3.5905 -4.238 -3.152 -4.493 -1.934 -1.4985 -4.889 -4.8115 -4.299 -3.8535 -2.3345 -1.4985 -6.899 -3.599 -3.9665 -2.264 -1.4985 -5.512 -4.288 -4.99 -1.934 -9.3085 -3.8145 -2.229 -1.7565 -10.24 0 
-5.599 -3.2785 -3.106 -6.495501 -5.9425 -4.786 -4.75 -5.2585 -4.382 -5.8 -7.196501 -5.593 -5.1865 -2.6125 -5.8525 -6.759501 -8.177 -8.927 -5.069 -3.233 -8.336 -9.1855 -4.743 -5.5885 -2.9195 -6.953 -9.705 -8.200001 -5.477 -10.041 -10.841 -5.572 -4.9155 -12.9457 -10.24 
-5.599 -5.853 -6.495501 -8.686501 -7.1505 -7.5535 -6.136 -6.035501 -5.900001 -8.210501 -8.779 -6.176001 -6.0855 -7.543 -7.963 -8.828001 -13.2606 -9.55 -5.785 -9.4925 -10.5975 -10.3755 -7.398001 -6.2545 -8.7685 -10.757 -13.7466 -8.6675 -14.3066 -11.5735 -12.5985 -8.767 -16.4031 -12.9457 
-9.542001 -10.304 -8.686501 -9.959001 -9.621501 -8.622001 -6.6665 -7.443501 -8.229 -8.9565 -9.3535 -6.751 -9.1875 -8.785501 -10.3177 -14.8036 -13.8836 -10.2155 -12.3017 -11.8844 -11.7875 -13.2681 -8.144001 -12.6683 -12.7161 -14.7986 -14.2141 -17.6773 -15.8391 -13.331 -15.7935 -20.5808 -16.4031 
-13.993 -12.495 -9.959001 -12.43 -9.8295 -9.141001 -7.651 -9.940001 -8.98 -9.5185 -10.0105 -9.771501 -9.562 -11.314 -16.2933 -15.4266 -14.5491 -16.7322 -14.6936 -13.0744 -14.6801 -14.0141 -14.8482 -16.6159 -16.7577 -15.2661 -23.2239 -19.2098 -17.5966 -16.526 -27.6073 -20.5808 
-3.539 -3.2785 -9.3085 -3.1715 -8.997001 -5.3905 -4.9225 -2.8195 -6.899 -4.257 -5.198 -2.5195 -3.599 -3.9665 -1.756 -3.8445 -3.158 -4.238 -3.9485 -2.356 -2.461 -3.6765 -4.493 -2.264 -4.688 -1.756 -3.106 -3.6765 -5.228 0 
-5.599 -13.1612 -12.6252 -13.4719 -14.7121 -10.8025 -7.873 -10.4265 -9.082001 -8.009501 -7.2495 -6.3255 -4.743 -5.324 -5.4845 -5.234 -7.637501 -8.31 -4.311 -5.2465 -6.545 -7.35 -6.3085 -7.3695 -6.153501 -5.5555 -7.773001 -8.816501 -5.228 
-16.6433 -16.4779 -22.9256 -19.187 -20.1241 -13.753 -15.881 -12.8701 -12.9257 -9.676001 -10.361 -7.4985 -6.368001 -9.3505 -6.9185 -9.951 -12.2883 -8.549001 -7.409501 -9.3865 -10.7495 -9.276 -12.2746 -9.0325 -10.4035 -9.734 -13.029 -8.816501 
-19.96 -26.7783 -28.6407 -24.599 -23.0746 -21.761 -18.3246 -16.7138 -14.5922 -12.9679 -11.534 -9.2045 -9.889501 -10.8903 -12.0721 -14.6018 -12.5273 -11.7873 -11.7545 -13.7002 -12.6755 -15.4485 -13.9376 -13.5317 -14.582 -15.2972 -13.029 
-30.2604 -32.4934 -34.0527 -27.5495 -31.0826 -24.2046 -22.1683 -18.3803 -17.8841 -14.1409 -13.24 -12.8864 -11.5309 -16.0439 -16.7229 -14.8408 -15.7656 -16.1323 -16.0682 -15.6262 -18.848 -17.1115 -18.4368 -17.7102 -20.1452 -15.2972 
