-4.759 
n/a 
n/a 
n/a 
n/a 
-4.759 
n/a 
n/a 
n/a 
n/a 
-4.759 
n/a 
n/a 
n/a 
n/a 
-4.759 
n/a 
n/a 
n/a 
n/a 
-14.51072 0 -5.964 -8.530001 0 -12.16972 -9.231001 0 0 
-14.77112 -5.964 -15.1246 -8.530001 -12.16972 -21.40072 -9.231001 0 
-20.73512 -15.1246 -15.1246 -20.96012 -21.40072 -21.40072 -9.231001 
-29.89572 -15.1246 -27.55472 -30.19112 -21.40072 -21.40072 
-29.89572 -27.55472 -36.78572 -30.19112 -21.40072 
-11.887 0 -5.964 -8.530001 0 -9.0205 -5.8395 0 
-12.1474 -5.964 -15.1246 -8.530001 -9.0205 -15.1542 -5.8395 
-18.4718 -15.1246 -15.1246 -17.8109 -15.1542 -15.1542 
-27.6324 -15.1246 -24.4055 -23.9446 -15.1542 
-27.6324 -24.4055 -30.5392 -23.9446 
-2.341 -9.546 0 -5.964 -5.9185 0 -9.0205 -7.226 0 
-12.1474 -9.546 -5.964 -10.1385 -5.9185 -9.0205 -16.5407 -7.226 
-12.1474 -15.8704 -10.1385 -10.1385 -15.7778 -16.5407 -16.5407 
-18.4718 -20.0449 -10.1385 -20.1382 -23.298 -16.5407 
-22.6463 -20.0449 -20.1382 -27.6584 -23.298 
-2.341 -9.546 0 -5.964 -8.530001 0 -9.0205 -6.249 0 0 
-12.1474 -9.546 -5.964 -15.1246 -8.530001 -9.0205 -15.5637 -6.249 0 
-12.1474 -15.8704 -15.1246 -15.1246 -17.8109 -15.5637 -15.5637 -6.249 
-18.4718 -25.031 -15.1246 -24.4055 -24.3541 -15.5637 -15.5637 
-27.6324 -25.031 -24.4055 -30.9487 -24.3541 -15.5637 
