-4.759 
n/a 
n/a 
n/a 
n/a 
-4.759 
n/a 
n/a 
n/a 
n/a 
-4.759 
n/a 
n/a 
n/a 
n/a 
-4.759 
n/a 
n/a 
n/a 
n/a 
-1.934 -3.5315 -6.939 -2.688 -2.743 -8.369 -3.254 0 
-5.027 -10.913 -10.9815 -6.2535 -10.502 -10.951 -3.254 
-14.6414 -14.4444 -14.55 -11.069 -11.7465 -10.0785 
-17.078 -18.3969 -17.9385 -12.729 -12.0735 
-21.0305 -21.7854 -21.0255 -12.729 
-3.5315 -2.743 0 -2.688 -4.2405 -5.181 -1.7565 -3.188 -2.8645 -3.1125 -4.4895 
-5.5575 -2.743 -2.688 -7.1095 -6.6615 -5.823 -5.13 -5.6835 -3.5345 -5.870501 
-5.5575 -5.852 -7.1095 -7.679501 -6.83 -8.436501 -8.9925 -6.5935 -6.288 
-8.9425 -10.6465 -7.679501 -7.780001 -9.191 -12.6594 -9.9925 -9.545 
-13.9544 -11.2165 -7.780001 -9.875501 -13.5501 -13.6594 -12.944 
-8.098001 -1.4985 -2.688 -2.743 -5.181 -1.7565 -1.4985 -3.188 -3.152 -4.8165 
-10.4855 -3.702 -6.2535 -6.565001 -5.823 -2.4195 -3.619 -6.5055 -6.8285 
-12.689 -7.4195 -7.627001 -7.1095 -6.1715 -4.4095 -6.67 -10.3285 
-16.4065 -7.955501 -7.782501 -7.304501 -6.639 -7.313 -10.586 
-16.9425 -8.0495 -7.988 -7.541501 -9.131001 -11.3352 
-3.5315 -2.743 0 -2.688 -3.254 -1.7565 -4.2405 -5.181 -1.7565 -1.4985 -3.188 -2.7415 -4.0925 0 
-5.5575 -2.743 -2.688 -5.8075 -4.0065 -5.5125 -6.6615 -5.823 -2.4195 -3.619 -5.910501 -5.328 -4.0925 
-5.5575 -5.852 -5.8075 -6.977 -7.58 -8.682 -6.83 -6.1715 -4.4095 -6.101 -8.3085 -5.328 
-8.9425 -8.769 -6.977 -9.553501 -9.370501 -8.891001 -6.966 -6.639 -7.018001 -8.722 -8.3085 
-12.0769 -11.2987 -9.553501 -10.0865 -9.6735 -9.009501 -7.192 -9.047001 -9.373501 -8.722 
