-4.759 
n/a 
n/a 
n/a 
n/a 
-4.759 
n/a 
n/a 
n/a 
n/a 
-4.759 
n/a 
n/a 
n/a 
n/a 
-4.759 
n/a 
n/a 
n/a 
n/a 
-3.535 -3.522 0 -5.1845 -4.245 
-5.913 -3.522 -5.1845 -7.991 
-5.913 -9.321 -7.991 
-9.883 -12.1807 
-12.8651 
-3.0835 -4.584 0 -5.1845 -6.1945 
-7.693501 -4.584 -5.1845 -10.368 
-7.693501 -10.8625 -10.368 
-14.3356 -16.046 
-19.5191 
-4.0105 -4.867 0 -5.1845 -4.953 
-9.665001 -4.867 -5.1845 -8.975 
-9.665001 -11.015 -8.975 
-15.9926 -14.8055 
-19.7831 
-3.0835 -3.473 -1.756 -5.1845 -8.360001 
-6.9355 -5.7295 -7.0085 -10.9575 
-8.5795 -11.7288 -13.2079 
-15.1238 -17.9282 
-21.3232 
