-4.759 
n/a 
n/a 
n/a 
n/a 
-4.759 
n/a 
n/a 
n/a 
n/a 
-4.759 
n/a 
n/a 
n/a 
n/a 
-4.759 
n/a 
n/a 
n/a 
n/a 
-8.110001 -5.906 -1.934 -2.3615 -3.992 0 
-14.4624 -6.779 -3.539 -6.0885 -3.992 
-15.3354 -8.725 -7.0525 -6.0885 
-17.2814 -12.8723 -7.0525 
-21.4287 -12.8723 
-8.110001 -6.236 -1.934 -2.3615 -5.053 0 
-14.7924 -8.0605 -3.539 -6.312 -5.053 
-16.6169 -9.341001 -8.260501 -6.312 
-17.8974 -14.3041 -8.260501 
-22.8605 -14.3041 
-8.110001 -3.251 -3.6065 -4.3925 -2.356 -4.6495 -1.7695 -2.3615 -3.634 0 
-10.3965 -6.5495 -6.653501 -6.8295 -5.0705 -4.846 -3.736 -4.7085 -3.634 
-13.695 -8.314501 -9.0825 -8.484 -5.0755 -6.369501 -6.116 -4.7085 
-15.46 -10.4425 -9.816501 -8.4875 -6.490001 -7.927501 -6.116 
-17.588 -11.1765 -9.821501 -10.181 -8.0845 -7.927501 
-8.110001 -5.906 -2.5195 -2.3615 -3.602 -1.7565 -2.9635 0 
-14.4624 -6.475 -4.4095 -4.868 -4.5195 -4.9525 -2.9635 
-15.0314 -8.8785 -6.168 -6.4535 -5.0955 -4.9525 
-17.4349 -10.8292 -6.969 -6.7095 -5.0955 
-19.3856 -11.6302 -6.9875 -6.7095 
