-4.759 
n/a 
n/a 
n/a 
n/a 
-4.759 
n/a 
n/a 
n/a 
n/a 
-4.759 
n/a 
n/a 
n/a 
n/a 
-4.759 
n/a 
n/a 
n/a 
n/a 
-4.7175 -1.934 -1.4985 0 -12.16972 -7.1525 0 -4.1205 -2.5045 -1.4985 -3.9515 -1.7565 -5.1845 -6.262 -2.871 -3.859 -6.5175 -3.1385 -3.511 0 
-5.85 -2.6125 -1.4985 -12.16972 -19.32222 -7.1525 -4.1205 -5.3175 -3.583 -5.059 -5.368 -6.580501 -8.6805 -9.12 -5.348001 -11.1415 -8.481001 -5.979 -3.511 
-6.2445 -2.6125 -14.76202 -19.32222 -19.32222 -11.8594 -5.3175 -6.431 -6.8885 -5.839 -8.7735 -8.797001 -11.9797 -12.3146 -13.6093 -13.105 -11.4763 -5.979 
-6.2445 -16.27022 -21.91452 -19.32222 -24.02912 -13.0564 -6.431 -9.5225 -7.176001 -9.0115 -11.9944 -12.2886 -15.1743 -20.5759 -15.5728 -16.1003 -11.4763 
-20.28542 -23.42272 -21.91452 -24.02912 -25.22612 -14.1699 -9.5225 -9.675 -10.4765 -12.445 -15.486 -15.4832 -23.4356 -22.5394 -18.5681 -16.1003 
-5.1845 -8.187 
-14.6659 
n/a 
n/a 
n/a 
-4.528 0 -2.871 -3.859 -1.7565 -1.4985 -3.1385 -3.0695 -2.4945 -5.5495 -1.934 -1.4985 -12.16972 0 -2.9705 -2.186 -4.1205 -2.5045 -1.4985 -3.9515 -1.7565 -1.4985 -5.1845 -10.312 0 -2.4945 -8.643001 0 
-4.528 -2.871 -5.348001 -5.23 -2.4195 -4.2575 -4.286 -4.2085 -7.365 -5.777 -2.6125 -14.76202 -12.16972 -2.9705 -3.89 -5.007 -5.3175 -3.583 -5.059 -5.368 -2.4195 -6.5205 -10.575 -10.312 -2.4945 -10.5865 -8.643001 
-7.984 -5.348001 -5.528 -5.6125 -5.013 -5.1225 -5.128 -7.981501 -7.6785 -6.22 -16.27022 -14.76202 -15.14022 -3.89 -6.548 -6.317 -6.431 -6.8885 -5.839 -5.843 -7.2335 -12.6264 -10.575 -12.8065 -10.5865 -10.5865 
-10.004 -5.528 -5.873 -7.804 -5.925 -6.092 -9.294001 -8.224501 -8.252501 -20.59052 -16.27022 -17.73252 -16.05972 -6.548 -7.7085 -7.1455 -9.5225 -7.176001 -6.326 -9.786501 -13.5066 -12.6264 -13.0695 -20.8985 -10.5865 
-10.1645 -5.873 -8.1055 -8.530001 -6.946001 -9.966001 -9.455501 -8.753501 -22.78862 -20.59052 -19.24072 -18.65202 -18.71772 -7.7085 -8.3465 -10.0775 -9.675 -7.594501 -10.4755 -16.3364 -13.5066 -15.1209 -21.1615 -20.8985 
-5.3345 -1.934 -12.16972 -4.1205 -2.5045 -5.1845 -6.844 -3.9515 0 -2.871 -3.859 -1.7565 -4.02 -2.4945 -6.5175 0 
-6.396 -15.11012 -16.29022 -5.3175 -8.208 -6.9655 -10.4265 -3.9515 -2.871 -5.348001 -5.23 -5.4345 -6.378 -9.031 -6.5175 
-19.92392 -19.23062 -17.48722 -11.5802 -9.786501 -10.7174 -10.4265 -5.9355 -5.348001 -5.528 -8.979 -8.111 -10.5225 -9.031 
-24.04442 -20.42762 -23.74992 -13.1587 -13.7906 -10.7174 -12.4105 -9.738501 -5.528 -9.282001 -10.688 -12.3851 -10.5225 
-25.24142 -26.69032 -25.32842 -17.1628 -13.7906 -12.7014 -16.2135 -10.077 -9.282001 -11.0534 -14.9621 -12.3851 
