-4.759 
n/a 
n/a 
n/a 
n/a 
-4.759 
n/a 
n/a 
n/a 
n/a 
-4.759 
n/a 
n/a 
n/a 
n/a 
-4.759 
n/a 
n/a 
n/a 
n/a 
-1.934 -3.531 -3.279 0 -3.0105 -4.3435 -5.4135 -4.182 -5.706 -5.5235 -1.4985 -4.4525 -1.7565 -3.9675 -3.326 -1.756 -3.772 -4.248 -4.492 -3.7545 -1.934 -4.698 
-5.012 -5.5145 -3.279 -3.0105 -7.4785 -8.181 -9.606501 -10.3285 -9.552 -6.862 -4.731 -4.6715 -5.5405 -7.2075 -4.4115 -5.111 -8.6425 -9.401001 -8.370501 -5.5885 -5.902 
-7.946001 -5.5145 -5.015 -7.4785 -10.0575 -12.6908 -15.9212 -14.1745 -10.9215 -10.3475 -4.7575 -7.7535 -8.833501 -8.462001 -7.699 -10.0745 -14.2463 -13.4599 -10.041 -8.568501 
-7.946001 -6.4485 -9.7585 -10.0575 -15.7375 -19.0055 -19.7672 -15.544 -14.407 -10.3855 -7.823501 -11.5199 -9.718 -10.6605 -13.1581 -15.6431 -18.3052 -15.1304 -13.021 
-9.8915 -10.044 -10.084 -15.7375 -22.0522 -22.8515 -21.1367 -19.0295 -14.445 -13.4515 -11.6711 -12.4044 -12.1167 -17.4084 -18.7267 -19.702 -19.9757 -18.1104 
-3.531 -6.2895 -1.7695 -4.3435 -5.4135 -12.16972 -12.16972 -4.2465 -3.6035 -1.756 -7.207 -4.328 -4.492 -3.7545 -2.7455 -3.331 -1.7565 -4.712 -1.934 -4.698 
-7.2505 -7.4975 -6.37 -8.181 -18.48022 -24.33944 -16.41622 -8.435 -5.195 -8.3755 -12.332 -8.5385 -8.370501 -5.148 -7.384 -5.1135 -5.672 -6.144001 -5.902 
-9.064501 -12.9387 -10.396 -21.56452 -30.64994 -28.58594 -20.60472 -10.0925 -12.8495 -13.7055 -16.5425 -12.852 -9.27 -8.443001 -9.488501 -9.767 -7.0465 -10.172 
-14.4602 -17.3797 -23.77952 -33.73424 -34.89644 -32.77444 -22.26222 -17.747 -18.1795 -17.916 -20.856 -13.7515 -12.8212 -10.7423 -14.2074 -11.2309 -11.2387 
-18.8016 -30.76322 -35.94924 -37.98074 -39.08494 -34.43194 -29.91672 -23.077 -22.39 -22.2295 -21.7555 -17.3027 -15.1205 -15.4612 -15.6713 -15.4231 
-3.531 -7.463 -3.0105 -3.158 -4.1265 -5.4135 -5.384 -12.16972 -3.9675 -1.7565 -3.326 -1.756 -3.772 -2.0935 -4.1085 -1.934 -4.698 0 
-8.452001 -8.493 -6.226 -8.149501 -10.041 -9.956501 -18.35292 -16.13722 -5.258 -4.8495 -4.4115 -5.111 -5.2215 -7.391 -6.276 -5.902 -4.698 
-9.55 -11.4895 -12.1345 -14.4138 -14.584 -23.51202 -22.32042 -17.42772 -8.1945 -5.4555 -7.699 -6.387 -11.3966 -9.558001 -10.5865 -5.902 
-12.8208 -17.4148 -18.3988 -18.9568 -28.13952 -27.47952 -23.61092 -20.36422 -8.749001 -8.9165 -9.533001 -12.9929 -13.5636 -14.3681 -10.5865 
-18.7211 -23.6791 -22.9418 -32.51232 -32.10702 -28.77002 -26.54742 -20.91872 -12.3064 -11.1049 -16.2891 -15.1599 -18.3737 -14.3681 
-2.264 -3.531 -3.279 0 -3.0105 -1.8085 -5.4135 -1.7565 -4.1265 -6.8555 -12.16972 -2.8645 -4.954 -2.0935 -4.2465 -3.326 -1.756 -4.328 -1.7565 -3.772 -2.8645 -4.6505 -1.756 -4.492 -1.8085 -3.7545 -2.264 -1.4985 -2.9645 -1.7565 -4.712 0 
-4.8755 -5.5145 -3.279 -3.0105 -5.432 -6.113 -7.351 -5.7895 -10.7335 -19.63522 -15.03422 -7.1195 -6.894001 -6.1065 -6.9765 -4.4115 -6.229 -5.0935 -5.3335 -6.8395 -6.8295 -6.4045 -5.6815 -6.1015 -4.5445 -5.5275 -2.9195 -4.1725 -3.7825 -5.672 -4.712 
-6.445 -5.5145 -5.015 -5.432 -10.3545 -8.024 -12.0438 -12.8489 -23.51322 -22.49972 -19.28922 -8.6055 -11.8864 -7.643 -8.1095 -9.528001 -6.7185 -9.5225 -8.133 -11.3251 -8.906 -11.1994 -7.2715 -7.641 -5.891 -6.325 -5.57 -4.2115 -9.5205 -5.672 
-6.445 -6.4485 -7.4495 -10.3545 -12.2655 -12.7148 -19.1032 -25.62862 -26.37772 -26.75472 -20.77522 -13.9787 -13.4229 -9.054501 -13.3988 -10.4275 -11.8985 -12.9976 -12.8392 -13.4016 -13.8441 -12.7894 -9.478001 -8.995001 -6.99 -8.851 -5.604 -9.823501 -9.5205 
-7.319 -8.642 -12.5986 -12.2655 -16.9563 -19.7742 -31.88292 -28.49312 -30.63272 -28.24072 -26.14842 -15.5152 -14.8344 -14.7976 -14.2983 -15.8791 -15.3736 -17.7038 -14.9157 -18.3397 -15.4341 -14.9959 -10.8692 -9.375 -9.3695 -8.866 -10.3955 -9.823501 
