-4.759 
n/a 
n/a 
n/a 
n/a 
-4.759 
n/a 
n/a 
n/a 
n/a 
-4.759 
n/a 
n/a 
n/a 
n/a 
-4.759 
n/a 
n/a 
n/a 
n/a 
-1.934 -3.995 -3.4945 -6.3285 -1.7695 -3.9555 -4.4615 -2.985 -3.5205 -4.0695 0 -4.7135 -2.985 -5.4125 0 -4.4615 -2.7455 -5.7415 -10.105 0 -3.4405 -3.564 -3.1335 -4.416 0 0 -4.416 0 0 
-6.139 -7.2775 -7.936 -9.06 -5.0965 -8.116 -7.2035 -4.257 -6.488501 -4.0695 -4.7135 -6.826 -7.301 -5.4125 -4.4615 -6.0925 -9.35 -16.7613 -10.105 -3.4405 -7.161 -5.803 -7.257 -4.416 0 -4.416 -4.416 0 
-10.19 -12.1454 -11.2113 -12.5118 -9.363501 -10.322 -8.130501 -7.368 -6.488501 -7.697 -6.826 -10.523 -7.301 -10.348 -6.0925 -13.0906 -20.4058 -16.7613 -13.8265 -7.161 -10.0645 -10.9385 -7.257 -4.416 -4.416 -4.416 -4.416 
-15.0579 -15.4207 -14.6631 -16.7788 -11.6773 -11.61 -12.2027 -7.368 -9.4505 -10.485 -10.523 -10.523 -12.6355 -12.182 -13.0906 -24.1464 -20.4058 -20.4828 -17.547 -10.0645 -15.3204 -10.9385 -7.257 -8.8295 -4.416 -4.416 
-18.3332 -18.8725 -18.9301 -19.0926 -12.9653 -15.6822 -12.2027 -10.6 -12.1265 -14.182 -10.523 -16.3091 -14.4695 -19.1801 -24.1464 -24.1464 -24.1273 -24.2033 -20.4505 -15.3204 -15.3204 -10.9385 -12.1785 -8.8295 -4.416 
-3.4945 -4.462 -1.7695 -4.8975 -1.934 -2.3615 -3.873 0 -4.93 -3.1435 -3.989 0 -4.8515 -1.4985 -4.811 -1.756 -6.1565 -1.4985 -3.301 -3.371 -1.7565 -3.2775 -3.564 -3.1335 -1.7565 -1.4985 0 -8.392 0 -2.742 -3.956 0 -3.2645 -2.489 -4.289 
-5.9535 -6.4005 -6.213 -6.5065 -3.539 -6.005 -3.873 -4.93 -7.0965 -7.125 -3.989 -4.8515 -5.5995 -6.2165 -5.948 -7.034 -6.692 -4.6235 -7.857501 -5.493 -4.411 -7.2275 -5.803 -5.0585 -2.4195 -1.4985 -8.392 -8.392 -2.742 -4.7665 -3.956 -3.2645 -3.7195 -5.9645 
-8.339001 -10.7025 -7.703 -7.612 -6.9595 -6.005 -8.922501 -7.0965 -10.575 -7.125 -9.7065 -5.5995 -11.0721 -7.425001 -12.1542 -7.489501 -8.9245 -9.098001 -9.959001 -8.602 -8.017 -9.632501 -7.8885 -5.5775 -2.4195 -10.543 -8.392 -11.665 -4.7665 -4.7665 -8.012 -3.7195 -6.8545 
-12.8918 -12.1925 -8.92 -10.522 -6.9595 -11.6709 -11.5778 -10.575 -10.575 -13.3981 -10.556 -11.0721 -12.2806 -13.8372 -12.6097 -9.846001 -13.6898 -10.389 -13.2362 -12.596 -10.609 -11.7696 -8.941501 -5.5775 -11.6548 -10.543 -11.665 -13.6895 -4.7665 -8.8905 -8.977 -6.8545 
-14.3818 -13.4095 -11.9364 -10.522 -12.7934 -14.3262 -15.0563 -10.575 -17.2609 -14.2476 -16.0286 -12.2806 -18.6928 -14.2927 -14.9662 -14.6947 -14.9808 -13.6662 -17.2302 -15.188 -12.7461 -12.8226 -8.941501 -15.713 -11.6548 -13.816 -13.6895 -13.6895 -8.8905 -10.0815 -12.2462 
-1.934 -1.4985 -3.873 0 -8.392 -2.229 -4.1665 -1.7695 -3.8475 -2.882 -3.956 -1.934 -1.4985 -3.739 -3.433 -8.392 -3.956 -2.985 -3.564 -4.6615 -1.756 -2.985 -3.495 -1.7695 -3.3785 -3.237 0 
-2.6125 -4.7405 -3.873 -8.392 -11.08 -5.813 -5.599 -5.786 -6.759 -5.7435 -5.707 -2.6125 -4.208 -6.706 -12.97 -12.879 -5.946 -6.0185 -6.863 -5.7565 -4.2025 -5.807 -6.157001 -5.583 -4.9495 -3.237 
-5.722 -4.7405 -13.3354 -11.08 -14.664 -7.292 -9.881001 -8.823501 -9.663501 -7.528501 -6.363 -4.695 -6.9025 -16.374 -17.457 -14.869 -9.329 -8.23 -8.022 -8.047501 -6.868 -7.3785 -10.176 -7.2615 -4.9495 
-5.722 -14.8085 -16.0234 -14.664 -16.143 -11.6468 -13.0173 -11.9586 -11.5559 -8.063001 -7.336 -7.097 -16.6293 -20.861 -19.447 -18.252 -11.6887 -9.022 -10.1855 -10.9738 -9.054001 -11.8283 -11.8545 -7.2615 
-16.2938 -17.4965 -19.6074 -16.143 -20.4978 -14.7831 -16.1524 -13.851 -12.0904 -8.794001 -9.250501 -16.8424 -21.1163 -22.851 -22.83 -20.6117 -12.4807 -10.553 -13.1118 -13.1598 -13.9528 -13.5068 -11.8545 
-1.4985 -3.564 -3.1335 -2.9705 -2.4945 -3.8535 -2.3345 0 -8.392 0 -3.115 -4.7135 -3.1435 -3.5205 -4.3925 -3.4945 -3.8255 -4.462 -2.0935 -2.9995 -2.871 -1.934 -1.4985 -3.995 0 -4.5265 -5.048 -1.4985 -4.811 0 -6.1565 -1.4985 -5.271 0 -3.1495 -2.4945 -2.5685 -4.448 -1.934 -1.4985 -3.8825 -1.756 -2.3335 -2.742 -2.489 -4.9595 -1.934 -1.4985 -3.739 -3.074 
-4.7165 -5.803 -5.705 -4.302 -5.5465 -5.069 -2.3345 -8.392 -8.392 -3.115 -7.097 -7.6515 -4.573 -6.5905 -7.399001 -5.984 -9.517501 -6.301001 -4.1725 -5.056 -4.8125 -2.6125 -4.712 -3.995 -4.5265 -7.8545 -6.6055 -6.2165 -4.811 -6.1565 -6.692 -6.3385 -5.271 -3.1495 -4.459 -4.6335 -7.5025 -6.543 -2.6125 -4.569 -5.265 -4.016 -4.204 -3.301 -7.2285 -6.914001 -2.6125 -4.208 -7.029 
-7.184 -8.933001 -7.662 -7.6455 -6.829 -5.069 -10.6735 -8.392 -12.038 -7.097 -10.3724 -8.757 -8.729501 -8.916 -9.519001 -12.2236 -11.4773 -9.018001 -6.414001 -7.1995 -5.4975 -6.1055 -4.712 -8.356 -7.8545 -8.4515 -10.5855 -6.2165 -10.8215 -6.692 -10.0255 -6.3385 -8.116501 -4.459 -5.958 -8.946 -9.8785 -7.073501 -5.421 -6.153501 -7.3385 -6.0915 -4.9515 -7.8105 -9.426001 -7.6375 -4.695 -7.2415 
-9.980501 -10.6095 -11.2995 -8.484 -6.829 -13.9832 -10.6735 -12.038 -16.02 -10.3724 -11.4779 -13.6531 -11.1778 -11.2114 -15.8364 -14.1834 -14.1943 -10.543 -8.5415 -7.722 -8.888 -6.1055 -8.876501 -12.0838 -8.4515 -12.7619 -10.5855 -13.1248 -11.357 -10.0255 -10.0255 -10.0095 -8.660501 -5.958 -10.6215 -10.6215 -10.438 -9.397501 -7.0175 -8.283001 -9.528001 -6.724 -9.953501 -10.0535 -10.1865 -9.908001 -7.379 
-11.9214 -14.247 -12.138 -8.484 -15.9546 -13.9832 -14.3195 -16.02 -19.2954 -11.4779 -16.374 -16.1014 -13.4732 -17.5288 -17.7962 -16.9004 -15.7193 -12.6705 -9.072001 -11.4381 -8.888 -10.7984 -12.9243 -12.6808 -12.7619 -12.7619 -17.4938 -13.6603 -14.6905 -10.0255 -13.4789 -10.8125 -10.119 -10.6215 -12.297 -11.181 -12.762 -10.477 -8.895 -10.092 -10.09 -12.0714 -12.2675 -10.814 -12.457 -12.7874 
