-4.759 
n/a 
n/a 
n/a 
n/a 
-4.759 
n/a 
n/a 
n/a 
n/a 
-4.759 
n/a 
n/a 
n/a 
n/a 
-4.759 
n/a 
n/a 
n/a 
n/a 
-1.4985 -3.4225 -3.468 -3.3435 -5.471 -1.7565 -6.853001 -3.277 -2.5045 -4.2705 0 
-3.9655 -3.628 -7.468 -5.539001 -6.464 -8.150001 -8.531 -5.4845 -5.790501 -4.2705 
-4.053 -7.586 -9.0415 -6.499001 -11.2825 -11.133 -11.2615 -8.5705 -5.790501 
-8.023001 -9.139501 -10.104 -9.931001 -11.1265 -10.927 -12.343 -8.5705 
-9.302 -10.1275 -11.04 -9.9545 -10.4915 -10.1535 -10.125 
-3.676 -2.8645 -3.299 -3.9475 -4.9825 -4.4445 
-5.929501 -6.2335 -7.955 -6.355 -9.158501 
-9.552501 -10.223 -11.3017 -11.3616 
-13.6272 -13.7191 -16.3083 
-17.1233 -18.7257 
-1.934 -3.676 -1.4985 -5.0965 -4.174 -2.5195 -3.9475 -2.186 -3.93 -1.934 -1.4985 -3.962 -3.188 0 
-4.7985 -5.338 -6.160001 -9.325001 -6.276 -6.141 -5.855 -5.657001 -5.612 -2.6125 -4.324 -5.6585 -3.188 
-6.1 -9.797501 -10.8169 -12.2812 -10.4425 -8.374001 -8.323501 -6.701 -6.162 -5.8 -5.719 -5.6585 
-10.103 -14.8488 -13.7731 -16.4477 -13.6565 -10.1225 -8.803 -7.3 -9.7165 -6.685501 -5.719 
-15.5623 -17.805 -17.9396 -19.6617 -15.405 -10.5705 -9.772501 -10.9763 -10.649 -6.685501 
-1.934 -3.676 -2.4265 -2.186 -3.557 -2.3335 -1.4985 -3.1385 -4.357 -2.9905 -1.7565 -3.9475 -2.186 -4.3905 0 
-4.7985 -6.1585 -3.292 -5.0815 -4.678 -3.3515 -4.2575 -7.462501 -7.778001 -3.6185 -5.2715 -5.855 -5.7915 -4.3905 
-6.7775 -6.726 -6.138 -6.492001 -5.388 -5.885 -9.0565 -10.4675 -8.092001 -8.5655 -7.227 -8.389001 -5.7915 
-7.389 -8.711 -6.563 -6.9325 -8.097 -10.7575 -12.3289 -10.4995 -13.5158 -10.7025 -9.369 -8.389001 
-10.3885 -10.76 -6.9465 -10.553 -13.3179 -14.0299 -12.3609 -15.9233 -15.6528 -12.8445 -9.369 
