-4.759 
n/a 
n/a 
n/a 
n/a 
-4.759 
n/a 
n/a 
n/a 
n/a 
-4.759 
n/a 
n/a 
n/a 
n/a 
-4.759 
n/a 
n/a 
n/a 
n/a 
-6.912 -3.4225 -3.468 -2.7415 -3.915 -3.098 0 -3.676 -1.756 -5.214 -3.152 -3.3235 -3.9205 
-11.9845 -3.628 -6.17 -7.5495 -6.394 -3.098 -3.676 -5.0365 -5.82 -7.1965 -5.965 -4.8795 
-12.19 -6.264 -10.7495 -10.634 -6.394 -7.788 -5.0365 -8.4715 -9.195001 -9.932 -7.1835 
-14.826 -10.9073 -13.834 -10.634 -11.6578 -9.5455 -8.277 -12.0725 -12.363 -11.176 
-19.4693 -13.9918 -13.834 -15.8978 -13.4153 -12.8858 -12.5321 -15.6244 -13.4963 
-3.929 -3.4225 -3.468 -4.9405 -3.2955 -3.098 -3.676 0 -5.214 0 
-8.212 -3.628 -7.844501 -8.14 -7.305 -7.788 -3.676 -3.482 -3.482 
-8.6385 -7.905001 -11.6308 -10.733 -10.6335 -7.788 -6.9265 -3.482 
-13.6619 -11.8627 -14.2238 -14.0615 -10.6335 -11.4339 -6.9265 
-17.6196 -14.4557 -17.5523 -14.0615 -14.2794 -11.4339 
-3.929 0 -3.4225 -3.468 0 -2.186 -3.915 -5.7095 -3.676 -1.756 -5.214 
-3.929 -3.4225 -3.628 -3.468 -2.186 -6.678 -10.131 -10.4345 -5.0365 -5.82 
-8.212 -3.628 -3.628 -5.589 -6.678 -13.3142 -14.856 -11.795 -8.4715 
-8.6385 -3.628 -5.694 -10.579 -13.3142 -18.0392 -16.2165 -15.0355 
-8.6385 -5.694 -10.8322 -17.2152 -18.0392 -19.3997 -19.457 
-3.929 -3.4225 -3.468 -2.186 -1.4985 -3.915 -3.098 0 -3.676 -1.756 -2.791 
-8.212 -3.628 -5.589 -3.339 -4.5295 -6.394 -3.098 -3.676 -5.0365 -5.3285 
-8.6385 -5.694 -6.7135 -5.599 -6.9185 -6.394 -7.788 -5.0365 -8.393001 
-8.763 -6.7995 -9.429501 -7.7665 -6.9185 -11.6578 -9.5455 -8.393001 
-9.79 -9.4615 -11.87 -7.7665 -12.8609 -13.4153 -13.0018 
