-4.759 
n/a 
n/a 
n/a 
n/a 
-4.759 
n/a 
n/a 
n/a 
n/a 
-4.759 
n/a 
n/a 
n/a 
n/a 
-4.759 
n/a 
n/a 
n/a 
n/a 
-7.496 -4.5445 -2.3335 -12.16972 -3.5435 -3.251 -5.198 -12.16972 -3.819 -1.756 -4.986 -5.7725 0 
-12.6037 -5.1965 -15.69402 -15.71322 -6.0535 -7.1165 -18.33192 -15.98872 -5.438 -6.556 -9.4205 -5.7725 
-13.2557 -18.94402 -19.23752 -18.22322 -10.016 -20.39502 -22.15092 -17.60772 -9.908001 -11.1859 -9.4205 
-27.00322 -22.48752 -21.74752 -22.18572 -23.32152 -24.21402 -23.76992 -22.07772 -14.5445 -11.1859 
-30.54672 -24.99752 -25.71002 -35.49124 -27.14052 -25.83302 -28.23992 -26.71422 -14.5445 
-3.5125 -3.837 -2.3335 -1.4985 -12.16972 -3.5435 -1.7565 -4.4465 -4.3035 -1.7695 -4.299 -9.537001 -2.5045 -3.76 -3.819 -1.756 -4.353 0 
-6.663 -4.933 -3.3515 -14.76202 -15.71322 -4.9885 -5.51 -9.692 -4.6755 -5.4975 -14.7622 -12.3125 -3.8195 -5.5935 -5.438 -6.036 -4.353 
-7.0105 -5.5955 -16.85382 -18.30552 -17.15822 -7.7505 -10.459 -9.817 -7.5965 -16.4599 -17.5377 -13.6275 -5.5955 -7.3095 -8.7735 -6.036 
-7.667 -19.21782 -20.39732 -19.75052 -19.92022 -13.1577 -10.557 -12.738 -18.8619 -19.2354 -18.8527 -15.4035 -7.311 -10.259 -8.7735 
-21.65152 -22.76132 -21.84232 -22.51252 -25.32742 -13.2557 -13.478 -24.0034 -21.6374 -20.5504 -20.6287 -17.119 -10.258 -10.259 
-1.8085 -3.5125 -4.25 -2.3335 0 -9.900001 -2.871 -2.95 -1.8085 -4.4465 -4.0415 -3.5435 -4.299 -1.7695 -6.6975 -3.8375 0 -2.872 -2.4265 -2.7415 -4.353 0 
-5.146 -7.6315 -5.586 -2.3335 -9.900001 -12.8538 -4.919 -5.119 -7.564 -8.765 -6.3155 -8.337501 -6.4355 -8.463 -10.5535 -3.8375 -2.872 -4.062 -3.681 -7.737 -4.353 
-9.404 -8.865 -5.586 -13.4243 -12.8538 -14.9018 -6.9015 -11.4041 -12.1873 -10.75 -11.9051 -10.647 -13.573 -12.58 -10.5535 -6.672 -4.062 -5.1385 -8.819 -7.737 
-10.554 -8.865 -17.036 -16.3781 -14.9018 -16.8843 -13.4486 -16.0274 -14.1723 -16.3396 -14.2146 -17.7845 -17.69 -12.58 -13.388 -7.86 -5.1385 -9.5795 -8.819 
-10.554 -20.4224 -19.9898 -18.4261 -16.8843 -23.4314 -18.0719 -18.0124 -19.7619 -18.6491 -21.3521 -21.9015 -17.69 -15.4145 -14.576 -8.662001 -9.5795 -9.5795 
-3.5125 -3.644 0 -4.4465 -2.229 -10.7225 -3.5435 -3.74 -1.7695 -4.299 -9.537001 -1.934 -2.871 -2.95 -1.756 -7.647 0 
-7.1905 -3.644 -4.4465 -6.069 -13.5465 -14.266 -7.96 -4.2995 -5.4975 -14.7622 -11.742 -4.2805 -4.919 -4.287 -9.6625 -7.647 
-7.1905 -8.293501 -6.069 -18.3565 -17.09 -18.6825 -8.152 -7.523001 -16.4599 -16.9672 -14.0885 -7.167 -6.468 -13.2741 -9.6625 
-11.999 -9.304501 -18.3565 -21.9 -21.5065 -18.8745 -11.5671 -18.8522 -18.6649 -19.3137 -16.975 -8.523001 -15.9197 -13.2741 
-13.01 -21.8432 -21.9 -26.3165 -21.6985 -22.2896 -22.8963 -21.0572 -21.0114 -22.2002 -18.331 -18.2211 -15.9197 
