-4.759 
n/a 
n/a 
n/a 
n/a 
-4.759 
n/a 
n/a 
n/a 
n/a 
-4.759 
n/a 
n/a 
n/a 
n/a 
-4.759 
n/a 
n/a 
n/a 
n/a 
-5.1845 -4.6035 -2.229 -3.853 0 -3.7345 -6.4295 0 -3.7435 -4.4385 -2.186 -4.066 -2.264 
-9.035 -7.214001 -5.833 -3.853 -3.7345 -11.1546 -6.4295 -3.7435 -6.511001 -6.318501 -7.468 -6.016 
-11.8577 -11.2536 -5.833 -8.1285 -11.1546 -11.1546 -10.485 -6.511001 -8.041 -12.0535 -9.5235 
-15.8973 -11.2536 -10.7495 -16.0704 -11.1546 -15.2101 -13.2525 -8.041 -13.9964 -14.109 
-15.8973 -16.1701 -18.6914 -16.0704 -15.2101 -17.9776 -14.7825 -13.9964 -16.0519 
-5.1845 -5.8205 -4.8835 -1.4985 -4.5735 -3.853 -1.7565 -1.4985 -8.27 0 -3.1435 -4.1215 -1.756 -2.985 -4.371 0 
-9.925501 -10.177 -5.636 -5.271 -7.835 -5.262 -2.4195 -9.271501 -8.27 -3.1435 -6.499001 -5.305 -4.2025 -6.8225 -4.371 
-14.3846 -10.5715 -9.083 -8.4905 -8.6765 -6.0265 -10.016 -9.271501 -11.8403 -6.499001 -6.987 -8.1365 -8.085 -6.8225 
-14.7791 -14.0185 -12.5351 -9.008 -9.2405 -14.3716 -10.016 -12.824 -15.1958 -6.987 -10.757 -12.2558 -8.085 
-18.2261 -17.4706 -13.0526 -9.4355 -17.7028 -14.3716 -13.5685 -16.1795 -15.6838 -10.757 -14.8763 -12.2558 
-5.1845 -5.8205 -4.0645 -1.4985 -5.1845 -3.1385 -4.6465 -3.853 0 -3.737 -1.7565 -3.594 0 -3.737 -1.7565 -5.8315 
-9.925501 -9.745501 -5.750501 -6.5205 -7.4095 -7.5825 -9.5595 -3.853 -3.737 -5.3145 -4.791 -3.594 -3.737 -5.3145 -7.598501 
-13.9531 -11.6977 -11.0961 -7.6315 -12.2299 -13.3215 -9.5595 -7.216001 -5.3145 -8.040001 -4.791 -6.855 -5.3145 -11.9069 
-15.9053 -17.0433 -12.2071 -12.6111 -17.9689 -13.3215 -12.9833 -9.522 -8.040001 -8.040001 -7.7085 -8.877501 -11.9069 
-21.2509 -18.1543 -17.1867 -18.3501 -17.9689 -16.7453 -15.2893 -12.4727 -8.040001 -11.3547 -10.2325 -15.6605 
-5.1845 -5.8205 -4.085 -1.4985 -5.1845 -3.853 0 -6.289001 
-9.925501 -10.4425 -5.7385 -6.5205 -8.254001 -3.853 -6.289001 
-14.6501 -10.7735 -11.2777 -10.3054 -8.254001 -11.136 
-14.9811 -16.3127 -15.0626 -10.3054 -16.326 
-20.5203 -20.0976 -15.0626 -18.3774 
