-4.759 
n/a 
n/a 
n/a 
n/a 
-4.759 
n/a 
n/a 
n/a 
n/a 
-4.759 
n/a 
n/a 
n/a 
n/a 
-4.759 
n/a 
n/a 
n/a 
n/a 
-3.531 -2.743 -5.864 -3.711 -4.0875 -3.5015 -1.934 -4.524 0 
-5.652 -9.158501 -8.264501 -7.2045 -5.143 -4.704 -5.59 -4.524 
-13.1729 -11.5996 -12.1426 -7.2755 -5.692 -7.9565 -5.59 
-15.614 -15.4777 -12.2136 -7.678 -8.7655 -7.9565 
-19.4921 -15.5487 -12.6161 -10.3465 -8.7655 
-3.531 -4.655 0 -6.9025 -3.299 -3.711 -3.9535 -1.934 -4.524 0 
-6.464 -4.655 -6.9025 -11.0645 -8.384501 -7.772 -5.3325 -5.59 -4.524 
-6.464 -12.6693 -11.0645 -16.15 -12.8091 -8.8395 -8.727 -5.59 
-15.3141 -16.8313 -16.15 -20.5746 -13.8766 -12.4388 -8.727 
-19.4761 -21.9168 -20.5746 -21.6421 -17.4759 -12.4388 
-3.531 -2.743 0 -5.864 -4.49 -3.9535 -1.934 -4.524 0 
-5.652 -2.743 -5.864 -7.494 -8.629001 -5.3325 -5.59 -4.524 
-5.652 -9.158501 -7.494 -12.2226 -9.649001 -8.727 -5.59 
-13.1729 -10.8291 -12.2226 -13.2426 -13.1843 -8.727 
-14.8435 -15.5577 -13.2426 -16.7779 -13.1843 
-3.531 -2.743 0 -4.9435 -3.299 -3.498 -7.660501 -3.9535 -1.934 -4.524 0 
-5.652 -2.743 -4.9435 -8.5215 -5.217 -12.1017 -12.1528 -5.3325 -5.59 -4.524 
-5.652 -7.876 -8.5215 -10.7605 -14.4415 -16.594 -13.5318 -8.727 -5.59 
-11.8904 -12.0296 -10.7605 -19.985 -18.9338 -17.973 -16.9263 -8.727 
-16.044 -14.2686 -19.985 -24.4773 -20.3128 -21.3675 -16.9263 
