-4.759 
n/a 
n/a 
n/a 
n/a 
-4.759 
n/a 
n/a 
n/a 
n/a 
-4.759 
n/a 
n/a 
n/a 
n/a 
-4.759 
n/a 
n/a 
n/a 
n/a 
-6.8035 -2.7295 -4.2775 -1.4985 -3.8445 -4.6845 -3.7855 -1.7695 -6.5 -1.7695 -8.044001 -1.7695 -3.2345 -3.595 -4.319 0 -2.7295 -2.7765 -5.898 -3.091 -5.8555 -3.222 -3.8445 -3.9755 0 
-8.1595 -7.110001 -5.8015 -4.9855 -7.9445 -7.4735 -4.793 -8.698 -8.81 -10.4675 -10.985 -3.713 -5.6415 -7.342501 -4.319 -2.7295 -4.065 -7.671 -8.6215 -7.74 -8.606001 -6.272 -6.8335 -3.9755 
-12.9226 -7.536 -9.447001 -9.271501 -11.1551 -8.1975 -12.1013 -11.4904 -18.123 -13.4085 -12.9285 -6.1675 -8.667 -7.342501 -6.8855 -4.065 -8.379001 -10.459 -13.5241 -10.1115 -11.8338 -8.3315 -6.8335 
-13.3486 -11.3969 -13.769 -12.5449 -11.8791 -16.0162 -14.8937 -20.8034 -21.064 -15.352 -15.383 -9.2735 -8.667 -10.143 -8.1955 -8.379001 -11.2522 -15.3616 -15.8956 -13.4389 -13.8933 -8.3315 
-17.2095 -15.7189 -17.0424 -13.2689 -19.6978 -18.8086 -24.2067 -23.7444 -23.0075 -17.8065 -18.489 -9.2735 -11.6867 -11.453 -13.0005 -11.2522 -16.1548 -17.7331 -19.223 -15.4984 -13.8933 
-3.4765 -3.034 -2.7295 -4.4295 -1.4985 -3.8445 -4.414 -2.0935 -5.113 -6.519001 -3.0695 -4.1585 -2.3085 -3.581 -5.651501 -4.319 0 -2.7295 -2.7765 -3.6785 -1.4985 -5.5395 -1.7565 -6.5 -3.222 -3.8445 -2.0935 -1.4985 -4.7855 0 
-5.035501 -4.536 -6.3975 -5.163 -4.9855 -7.8595 -6.461 -6.573 -12.8338 -8.8205 -6.094501 -6.259501 -6.013 -8.243 -8.513 -4.319 -2.7295 -4.065 -5.237 -4.9825 -6.727 -6.781 -9.024 -10.4962 -6.272 -6.404 -2.9725 -6.361 -4.7855 
-6.495501 -8.3245 -6.985 -8.549001 -10.322 -9.642 -11.6699 -14.3364 -15.1353 -12.0563 -9.863001 -10.9986 -9.700001 -13.089 -9.84 -6.8855 -4.065 -6.2145 -6.852 -10.2185 -6.939001 -15.0305 -13.2054 -13.5462 -9.889501 -7.365 -7.766001 -6.361 
-9.988501 -9.0415 -10.298 -14.1795 -12.1045 -15.1737 -19.4333 -16.6379 -18.3711 -15.8248 -14.6021 -13.7461 -13.8037 -13.1422 -12.3213 -8.1955 -6.2145 -7.708 -12.351 -10.451 -15.4395 -19.2119 -16.2554 -17.1637 -10.721 -12.4735 -7.766001 
-10.9337 -12.4095 -15.9285 -15.962 -17.6362 -22.9371 -21.7348 -19.8737 -22.1396 -20.5639 -17.3496 -19.0325 -14.0469 -15.6235 -13.5228 -10.718 -7.708 -13.2212 -12.5835 -19.3037 -19.6209 -22.2619 -19.8729 -17.9952 -15.8295 -12.4735 
-2.3085 -4.567 -3.429 -3.8275 -3.264 -9.120501 -2.872 -3.2615 -8.928 -4.558 -2.9805 -3.264 -3.975 -1.7695 -3.8275 0 -2.3615 -4.558 -4.7925 -1.7695 -3.8445 -3.9035 
-5.0305 -6.817501 -8.402 -7.314 -13.2983 -12.4327 -5.3645 -13.3031 -14.2976 -6.861 -4.3595 -6.58 -5.4625 -5.686 -3.8275 -2.3615 -5.848001 -10.181 -7.181 -5.3365 -7.0075 
-7.8005 -12.1417 -12.3445 -17.5099 -16.6105 -14.9252 -15.9993 -18.6727 -16.6006 -7.942 -7.752 -8.4575 -10.5172 -5.686 -6.413 -5.848001 -12.26 -12.4903 -9.5395 -8.573501 
-13.3353 -16.0842 -22.5404 -20.8221 -19.103 -25.56 -21.3689 -20.9757 -17.6816 -11.6039 -9.740001 -13.965 -10.5172 -8.0305 -10.0815 -12.26 -14.5693 -14.8488 -12.8047 
-17.2778 -26.2801 -25.8526 -23.3146 -29.7378 -30.9296 -23.6719 -22.0567 -21.3435 -13.5919 -15.3983 -13.965 -12.8617 -11.8938 -16.7997 -14.5693 -16.9278 -18.114 
-5.164 -2.0935 -3.874 -2.5045 -6.5 -4.33 -3.251 -3.264 -1.934 -1.8085 -5.2325 
-7.2125 -5.7625 -6.4265 -9.553 -10.459 -6.581 -5.851 -4.965 -3.2685 -6.624001 
-10.4855 -7.922 -14.1034 -13.5718 -12.71 -8.443001 -7.305 -5.457 -7.800001 
-12.645 -15.6857 -18.1222 -15.8228 -14.572 -9.701501 -8.254001 -10.122 
-20.4087 -19.7045 -20.3732 -17.6848 -15.8305 -10.7333 -12.7842 
