-4.759 
n/a 
n/a 
n/a 
n/a 
-4.759 
n/a 
n/a 
n/a 
n/a 
-4.759 
n/a 
n/a 
n/a 
n/a 
-4.759 
n/a 
n/a 
n/a 
n/a 
-5.1845 -3.9355 -2.4945 -3.402 -2.264 -4.238 -3.9355 
-8.764 -5.6745 -4.92 -3.793 -6.9925 -6.805 
-10.119 -8.644501 -5.014 -8.472 -9.280001 
-13.089 -8.689 -10.0125 -10.2645 
-13.1335 -13.9255 -11.8848 
-5.1845 -3.9355 -2.4945 -3.402 -2.664 -3.948 -3.9355 0 
-8.764 -5.6745 -4.92 -7.535001 -8.280001 -7.7745 -3.9355 
-10.119 -8.644501 -8.8645 -13.3236 -12.3019 -7.7745 
-13.089 -12.7612 -14.7461 -17.3455 -12.3019 
-17.2057 -18.6428 -18.768 -17.3455 
-5.1845 -3.9355 -2.4945 -3.402 -2.264 -1.4985 -3.9455 -3.9355 
-8.764 -5.6745 -4.92 -3.793 -2.9195 -4.901 -8.211 
-10.119 -8.644501 -5.014 -4.34 -6.189001 -8.9525 
-13.089 -8.689 -5.585001 -7.564001 -10.6735 
-13.1335 -9.469501 -8.8465 -12.1397 
-5.1845 -3.9355 -4.7715 -2.674 -3.571 -4.2915 0 
-8.764 -8.4755 -6.910501 -5.588 -8.373501 -4.2915 
-13.424 -10.8031 -10.082 -10.7249 -8.373501 
-15.7516 -13.9746 -15.2189 -10.7249 
-18.9231 -19.1115 -15.2189 
