-4.759 
n/a 
n/a 
n/a 
n/a 
-4.759 
n/a 
n/a 
n/a 
n/a 
-4.759 
n/a 
n/a 
n/a 
n/a 
-4.759 
n/a 
n/a 
n/a 
n/a 
-1.934 -4.4935 -4.1115 0 -3.8875 -1.7565 -4.4935 -4.3355 -1.7565 -3.7575 -1.7565 -1.4985 -3.5015 -2.186 -1.934 -1.4985 -4.152 -4.2085 -3.0365 -1.756 -2.4265 -2.8645 -3.6845 -1.4985 -3.5015 -2.0935 -4.6165 -3.3715 -4.0685 0 
-6.17 -7.4805 -4.1115 -3.8875 -6.536 -6.314001 -5.761 -6.4055 -6.1415 -4.4575 -2.4195 -4.737 -5.481 -4.0835 -2.6125 -5.139501 -7.8535 -7.272 -4.927 -3.949 -4.1435 -7.8685 -4.8155 -4.737 -4.7905 -6.046 -9.154001 -8.436001 -4.0685 
-9.606 -7.4805 -7.160501 -6.536 -9.186501 -8.021001 -8.781 -11.3567 -8.237 -4.7 -6.0035 -6.12 -7.157001 -4.6915 -5.701 -8.835001 -10.621 -9.596001 -6.345 -5.4395 -9.2305 -9.128 -7.781 -5.8745 -9.1085 -11.1795 -14.3653 -8.436001 
-9.606 -11.2541 -8.566001 -9.186501 -9.208 -11.4116 -14.1866 -13.4522 -8.83 -8.526501 -7.507 -8.111501 -7.502 -8.0835 -9.355 -11.7243 -12.945 -11.0298 -8.052 -10.3475 -10.533 -12.1121 -10.513 -10.757 -14.4114 -16.3908 -14.3653 
-13.726 -12.6596 -12.0435 -9.208 -14.1618 -16.8172 -16.2821 -14.0452 -12.7897 -9.9895 -9.34 -8.898001 -11.2358 -12.0429 -12.2877 -14.0483 -14.3788 -12.7368 -13.1272 -11.7144 -13.5171 -14.8441 -15.3955 -16.0599 -19.6227 -16.3908 
-3.5445 -1.4985 -4.4935 -4.3355 -4.197 0 -6.0515 -4.5155 -3.873 -6.661 -4.2085 0 -12.16972 -2.229 -4.6165 -4.887 -4.174 -3.3755 0 
-4.002 -5.299 -5.761 -7.594 -4.197 -6.0515 -10.6215 -8.187 -11.6044 -9.2405 -4.2085 -12.16972 -14.39872 -6.8675 -8.797001 -8.252001 -6.579 -3.3755 
-8.153501 -6.1445 -8.6405 -7.594 -9.2605 -10.6215 -14.293 -16.2786 -14.1839 -9.2405 -17.41782 -14.39872 -19.03722 -11.478 -12.5614 -11.9512 -6.579 
-9.370501 -8.913501 -8.6405 -13.1225 -14.1065 -14.293 -22.3846 -18.8581 -14.1839 -22.67722 -19.64682 -19.03722 -23.64772 -15.2424 -16.2606 -11.9512 
-12.1871 -8.913501 -14.4454 -17.9685 -17.778 -22.3846 -24.9641 -18.8581 -27.62062 -24.90622 -24.28532 -23.64772 -27.41212 -18.9416 -16.2606 
-3.4425 -1.7565 -8.431001 -4.1115 -4.6255 -4.1115 -5.481 -3.9875 -3.9035 -2.186 -4.933 -4.2085 -1.756 -12.16972 -4.416 -4.0685 -2.229 -2.186 -4.1685 -4.0325 0 
-4.5535 -10.4035 -13.0787 -8.298 -8.91 -9.635 -9.7215 -8.174 -6.4815 -7.792001 -8.037001 -5.729001 -14.93432 -16.58572 -9.788501 -5.929 -5.1225 -5.75 -9.055 -4.0325 
-13.7051 -15.0512 -17.2652 -13.5211 -14.9067 -13.9715 -14.1854 -11.1334 -12.3861 -11.1958 -9.6595 -19.71272 -19.35032 -21.95822 -11.7132 -8.865 -8.21 -11.2561 -9.055 
-18.3528 -19.2377 -22.4883 -19.5178 -19.2432 -18.4354 -17.1448 -17.038 -15.7899 -12.8183 -23.83802 -24.12872 -24.72282 -23.88292 -14.6492 -12.0931 -14.0581 -11.2561 
-22.5393 -24.4608 -28.485 -23.8543 -23.7071 -21.3948 -23.0494 -20.4418 -17.4124 -26.99682 -28.25402 -29.50122 -26.64752 -26.81892 -17.8773 -17.9412 -14.0581 
-4.426 -1.7565 -1.4985 -3.6115 -4.7285 -4.1555 -3.147 0 
-5.47 -2.4195 -4.081 -6.5495 -8.4455 -5.77 -3.147 
-5.9535 -5.180501 -6.670501 -9.978001 -9.541501 -5.77 
-8.462501 -7.797 -10.054 -11.0524 -9.541501 
-10.2375 -11.2985 -11.1648 -11.0524 
