-4.759 
n/a 
n/a 
n/a 
n/a 
-4.759 
n/a 
n/a 
n/a 
n/a 
-4.759 
n/a 
n/a 
n/a 
n/a 
-4.759 
n/a 
n/a 
n/a 
n/a 
-4.613 0 -6.388 -8.3585 -5.6995 -12.16972 
-4.613 -6.388 -15.1137 -14.3094 -18.63862 
-10.884 -15.1137 -21.0646 -27.24852 
-19.6097 -21.0646 -34.00372 
-25.5606 -34.00372 
-4.613 0 -6.388 -10.8905 -5.3295 -10.7715 -12.16972 
-4.613 -6.388 -11.1415 -16.22 -16.6854 -22.94122 
-10.884 -11.1415 -16.471 -27.5759 -28.85512 
-15.6375 -16.471 -27.8269 -39.74562 
-20.967 -27.8269 -39.99662 
-4.613 0 -6.388 -12.16972 -5.3295 -10.9935 
-4.613 -6.388 -18.92492 -17.49922 -11.136 
-10.884 -18.92492 -24.25442 -23.30572 
-23.42092 -24.25442 -30.06092 
-28.75042 -30.06092 
-4.613 0 -6.388 -12.16972 -5.3295 -12.16972 
-4.613 -6.388 -18.92492 -17.49922 -18.08362 
-10.884 -18.92492 -24.25442 -30.25334 
-23.42092 -24.25442 -37.00854 
-28.75042 -37.00854 
