-4.759 
n/a 
n/a 
n/a 
n/a 
-4.759 
n/a 
n/a 
n/a 
n/a 
-4.759 
n/a 
n/a 
n/a 
n/a 
-4.759 
n/a 
n/a 
n/a 
n/a 
-4.4945 -2.6615 -3.723 0 -1.934 -2.3335 -7.009 -1.7695 -3.685 -2.5045 -1.8085 -4.5845 -3.0415 0 -2.9805 -3.5745 -5.651501 -3.956 -3.091 -3.6645 
-7.5675 -6.787001 -3.723 -1.934 -4.359 -8.816501 -8.9595 -4.9795 -5.0275 -3.3625 -6.193 -7.8535 -3.0415 -2.9805 -4.8665 -9.1155 -8.672501 -6.3875 -6.4445 
-12.2222 -6.787001 -5.734 -4.359 -11.4344 -11.226 -12.2733 -5.608 -5.5675 -7.765 -8.989 -7.8535 -5.0885 -4.8665 -8.5295 -12.269 -12.0095 -8.646501 
-12.2222 -8.884501 -7.993501 -11.4344 -13.8439 -14.5398 -12.9018 -6.047 -10.5094 -10.634 -8.989 -9.464001 -6.9965 -8.469501 -13.8847 -15.3183 -14.3957 
-14.3197 -11.371 -15.4809 -13.8439 -17.1577 -15.1683 -13.3408 -11.0967 -13.3784 -10.634 -10.5225 -11.6232 -10.8285 -13.9859 -16.406 -17.6579 
-3.2615 -2.6615 -4.184 -7.699501 -4.9045 -3.956 -1.934 -3.091 -3.93 -3.833 
-5.8865 -5.858 -12.2631 -13.1856 -8.394 -5.707 -4.2105 -7.408 -7.232501 
-8.897 -14.5051 -17.7492 -16.6751 -10.396 -7.5055 -8.916 -9.0895 
-17.9745 -19.9912 -21.2387 -18.6771 -12.1945 -12.8668 -10.6231 
-23.4606 -23.4807 -23.2407 -20.4756 -17.5558 -14.5739 
-7.699501 -3.0695 -4.4945 -3.091 -2.6615 -4.184 -3.723 -3.4005 -2.8645 -4.3145 -2.5045 -1.8085 -4.248 -6.055 -3.0415 -2.9805 -2.7415 -4.4015 -1.7695 -3.956 -3.091 -3.4005 
-9.878501 -6.4835 -6.371 -6.657001 -5.858 -8.0815 -7.892 -6.1125 -5.629 -7.3455 -3.3625 -6.412001 -11.5416 -8.925501 -5.0885 -4.004 -5.535501 -4.4095 -4.6005 -6.3875 -6.4455 
-13.4693 -8.1175 -9.535 -8.547001 -8.8335 -10.674 -10.4675 -9.258 -9.083 -8.548 -7.846 -14.4528 -14.4121 -10.4595 -6.494 -6.5825 -5.542 -6.7385 -6.588 -7.785501 
-15.1033 -11.5693 -11.6602 -11.9059 -11.6184 -13.2495 -13.613 -12.9348 -10.254 -13.2661 -16.1364 -17.3233 -15.9461 -11.865 -8.632501 -6.593 -7.7855 -8.4915 -7.877501 
-18.5551 -13.6945 -15.0191 -14.6908 -14.1939 -16.395 -17.2898 -14.1058 -14.9721 -21.5565 -19.0069 -18.8573 -17.3516 -14.0035 -8.638 -8.5885 -8.9805 -9.983001 
-7.699501 -4.3195 -4.248 -4.9385 -1.756 -5.118 -5.437 -3.2615 -3.091 -4.6625 -3.723 
-12.6006 -9.123 -6.7035 -6.604501 -6.844 -9.5465 -8.225 -5.3045 -7.0925 -8.3785 
-17.4041 -11.8419 -7.996 -12.3223 -11.8943 -12.3673 -10.2385 -9.139 -10.19 
-20.123 -13.1344 -13.904 -17.3726 -14.7151 -14.3808 -14.073 -12.4553 
-21.4155 -19.0424 -18.9543 -20.1934 -16.7286 -18.2153 -17.3893 
