-4.759 
n/a 
n/a 
n/a 
n/a 
-4.759 
n/a 
n/a 
n/a 
n/a 
-4.759 
n/a 
n/a 
n/a 
n/a 
-4.759 
n/a 
n/a 
n/a 
n/a 
-4.933 -8.0305 -4.161 -3.152 -1.934 -3.7455 -4.732 -4.748 0 
-10.907 -12.8087 -6.722 -4.9115 -5.857501 -8.796 -8.807001 -4.748 
-15.6852 -15.3697 -8.519501 -9.625501 -10.7175 -13.1906 -8.807001 
-18.2462 -17.1672 -13.5021 -14.5963 -15.1121 -13.1906 
-20.0437 -22.1498 -18.4729 -18.9909 -15.1121 
-3.098 -4.5825 -4.237 -4.389 -3.152 -1.934 -2.9645 -1.934 -1.4985 -12.16972 
-7.909 -8.675 -7.303 -6.7215 -4.9115 -5.036 -4.6135 -2.6125 -14.76202 
-12.1193 -9.918 -9.58 -8.420501 -7.178 -6.329 -5.409 -16.27022 
-13.3623 -12.2796 -11.473 -8.971001 -8.053 -6.877 -19.42372 
-15.7239 -14.1726 -12.0235 -9.9925 -8.567 -21.22812 
-4.193 -1.934 -1.4985 -5.369 0 -4.948 -4.6195 -5.839 -6.785 -1.756 -6.1465 -9.504001 -4.4655 -3.326 -2.264 -6.2735 -4.161 0 -4.0865 
-5.4855 -2.6125 -5.679 -5.369 -4.948 -7.909 -10.119 -8.476 -8.519501 -8.1295 -10.172 -10.7495 -6.716001 -5.025001 -8.43 -9.842501 -4.161 -4.0865 
-6.193501 -5.9825 -5.679 -9.108001 -7.909 -10.674 -10.756 -10.459 -10.6885 -10.7025 -10.7565 -10.777 -7.226501 -10.586 -10.7495 -9.842501 -7.7485 
-8.007 -5.9825 -9.5 -10.3895 -10.674 -10.773 -10.7835 -10.7165 -10.727 -10.774 -10.784 -10.8045 -10.7495 -10.7685 -10.7495 -10.753 
-8.007 -9.6855 -10.412 -10.762 -10.773 -10.8005 -10.811 -10.7415 -10.799 -10.8015 -10.8115 -10.832 -10.777 -10.7685 -10.777 
-4.161 -6.3235 -2.3345 -12.16972 -3.152 -5.923 -1.934 -4.748 
-9.367001 -8.627501 -14.83482 -15.32172 -8.795501 -6.673 -6.061 
-12.168 -21.25722 -17.98682 -20.96522 -10.6345 -9.927501 
-24.79772 -24.40922 -23.63032 -22.80422 -13.889 
-27.94972 -30.05272 -25.46932 -26.05872 
