-4.759 
n/a 
n/a 
n/a 
n/a 
-4.759 
n/a 
n/a 
n/a 
n/a 
-4.759 
n/a 
n/a 
n/a 
n/a 
-4.759 
n/a 
n/a 
n/a 
n/a 
-10.8685 -5.0415 
-15.91 
n/a 
n/a 
n/a 
0 -4.721 -3.6905 -3.4715 -4.7425 -1.934 -6.295 -5.907 -4.8485 0 -3.3155 -12.16972 
-4.721 -9.7605 -7.955 -7.1335 -6.688001 -8.164001 -13.0942 -11.4591 -4.8485 -3.3155 -16.45302 
-9.7605 -14.025 -11.985 -9.1765 -13.41 -15.2202 -18.6463 -11.4591 -8.2565 -16.45302 
-14.025 -18.055 -14.028 -15.9855 -20.4662 -20.7723 -18.6463 -14.8671 -21.71682 
-18.055 -20.098 -20.837 -23.0417 -26.0183 -20.7723 -22.0543 -28.32742 
-7.680501 -10.526 -8.846001 -12.16972 -2.186 -12.16972 
-18.9549 -19.372 -21.29892 -14.35572 -15.56612 
-27.8009 -31.82492 -23.48492 -27.73584 
-40.25382 -34.01092 -36.86504 
-42.43982 -47.39104 
-10.651 -10.132 -12.16972 -3.644 -9.907001 
-21.2712 -22.30172 -15.81372 -14.2554 
-33.44092 -25.94572 -26.42512 
-37.08492 -36.55712 
-47.69632 
