-4.759 
n/a 
n/a 
n/a 
n/a 
-4.759 
n/a 
n/a 
n/a 
n/a 
-4.759 
n/a 
n/a 
n/a 
n/a 
-4.759 
n/a 
n/a 
n/a 
n/a 
-1.4985 -4.5235 -3.644 -2.3335 -3.1495 -4.1645 -3.335 -1.4985 -5.3055 -5.923 -3.5455 -3.45 -3.8405 0 
-5.561 -8.2845 -4.989501 -4.8015 -6.7345 -8.0635 -4.7575 -6.287001 -11.046 -7.7305 -6.138 -8.757 -3.8405 
-9.2675 -9.265 -7.388 -8.2845 -10.041 -9.405001 -9.812501 -13.0983 -12.8535 -9.910501 -9.613501 -8.757 
-10.038 -11.7101 -10.575 -12.0738 -10.603 -14.585 -16.6608 -14.9058 -15.0335 -13.5208 -9.613501 
-12.6607 -14.8971 -14.3643 -12.6358 -15.783 -21.4333 -18.4683 -17.0858 -18.6438 -13.5208 
-3.326 -3.644 -2.4265 -2.7415 -1.4985 -2.95 -1.7565 -5.7955 -4.931 -1.756 -1.4985 -3.84 -5.9345 0 
-6.812 -5.113 -3.681 -4.063 -3.9285 -4.3785 -9.0135 -9.9865 -6.4265 -3.0405 -4.752501 -10.7665 -5.9345 
-8.417 -6.4255 -4.946 -6.644 -4.676 -12.5635 -13.3169 -11.814 -7.641 -6.2605 -12.4722 -10.7665 
-10.27 -7.636001 -7.413 -7.4555 -13.1202 -16.8669 -15.1444 -13.0285 -11.0984 -14.6166 -12.4722 
-11.4805 -10.3535 -7.879 -16.1855 -17.4236 -18.6944 -16.3589 -16.4859 -19.4545 -14.6166 
-4.2665 -3.326 -4.5715 -2.3335 -3.1495 -2.4945 -1.4985 -4.224 -1.7565 -7.4875 -1.756 -4.9175 -3.685 0 
-5.5535 -7.4875 -5.932 -4.8015 -4.459 -3.9315 -5.670501 -4.7445 -7.9965 -8.345 -6.525 -7.559 -3.685 
-10.3885 -10.5035 -8.2405 -5.915501 -5.194 -7.4995 -6.595001 -11.4689 -8.7675 -13.4218 -10.6875 -7.559 
-13.4045 -12.812 -9.521501 -6.784 -8.863001 -7.9915 -13.3982 -12.2399 -13.9187 -17.5843 -10.6875 
-15.713 -14.093 -10.5045 -10.8202 -9.3155 -14.8851 -14.1692 -17.3911 -18.0812 -17.5843 
-3.1495 -3.84 -2.4945 -4.3155 -2.5195 -4.5735 -3.4795 
-5.5065 -5.596 -5.9725 -6.4775 -6.318501 -7.4725 
-6.6185 -9.285 -8.0385 -10.0745 -8.588501 
-10.3815 -11.8816 -11.8273 -12.3445 
-12.9781 -15.6704 -14.0973 
