-4.759 
n/a 
n/a 
n/a 
n/a 
-4.759 
n/a 
n/a 
n/a 
n/a 
-4.759 
n/a 
n/a 
n/a 
n/a 
-4.759 
n/a 
n/a 
n/a 
n/a 
-2.9805 -2.7415 -1.8085 -4.202 -4.658 -1.934 -6.38 
-4.004 -3.891 -5.983 -8.7225 -6.8525 -7.696 
-5.075 -8.1195 -9.5175 -10.298 -12.9943 
-9.413501 -10.085 -11.2158 -16.4398 
-11.6378 -12.0575 -17.3576 
-2.9805 -4.68 -1.8085 -5.024 -4.991 -1.934 -12.16972 0 
-5.969501 -5.833 -6.806001 -8.565001 -6.8055 -15.11012 -12.16972 
-7.094 -10.2865 -10.9548 -11.1935 -20.27702 -15.11012 
-11.7443 -14.6123 -13.5833 -24.66502 -20.27702 
-16.0701 -17.2408 -27.05482 -24.66502 
-2.9805 -3.251 -3.1125 -3.958 -1.8085 -4.202 -3.6715 -1.934 -6.38 0 
-4.429 -4.28 -5.944 -5.2695 -5.983 -7.1115 -5.613 -7.696 -6.38 
-5.4795 -7.068 -7.0395 -9.6975 -8.3395 -8.8485 -10.7495 -7.696 
-8.250501 -8.166 -11.6233 -12.1764 -9.658 -14.2032 -10.7495 
-9.198001 -12.7998 -14.1022 -13.4949 -15.0983 -14.2032 
-2.9805 -2.186 -3.7875 -5.024 -3.6715 -1.934 -6.5045 
-4.1635 -5.4905 -9.3625 -9.22 -5.613 -7.6705 
-7.003 -11.6777 -13.6483 -10.443 -11.8885 
-13.4094 -15.9635 -14.8713 -16.7185 
-17.6952 -17.1865 -21.1468 
