-4.759 
n/a 
n/a 
n/a 
n/a 
-4.759 
n/a 
n/a 
n/a 
n/a 
-4.759 
n/a 
n/a 
n/a 
n/a 
-4.759 
n/a 
n/a 
n/a 
n/a 
-1.4985 -2.674 -3.88 -3.7925 -4.2915 -3.098 0 
-6.330501 -6.901501 -7.643001 -7.772501 -7.5315 -3.098 
-10.7226 -11.1923 -12.4056 -11.6029 -7.5315 
-15.0134 -15.9549 -16.236 -11.6029 
-19.776 -19.7853 -16.236 
-2.872 -3.1015 -3.7925 -3.098 -3.3425 0 
-5.068501 -7.127 -7.4025 -6.351501 -3.3425 
-9.767 -11.3196 -11.3934 -6.351501 
-14.402 -15.3105 -11.3934 
-18.3929 -15.3105 
-1.934 -2.3615 -3.7925 -3.098 -3.1015 -3.915 
-3.539 -7.1485 -7.4025 -6.23 -6.482 
-8.7335 -10.757 -11.2719 -10.3587 
-12.6734 -14.6264 -15.4006 
-16.5428 -18.7551 
-3.9225 -3.277 -3.7925 -3.098 -2.4945 -3.333 -3.1015 0 
-5.4525 -7.920501 -7.4025 -5.8985 -4.3655 -5.432 -3.1015 
-9.441 -11.8199 -10.9404 -7.9475 -6.31 -5.432 
-13.4692 -15.3578 -12.9894 -10.2805 -6.31 
-17.0071 -17.4068 -15.3224 -10.2805 
