-4.759 
n/a 
n/a 
n/a 
n/a 
-4.759 
n/a 
n/a 
n/a 
n/a 
-4.759 
n/a 
n/a 
n/a 
n/a 
-4.759 
n/a 
n/a 
n/a 
n/a 
-4.426 -1.7565 -1.4985 -3.6115 -4.7285 -4.1555 -3.147 -2.872 -4.749 -1.934 -2.3615 -3.519 -3.995 -4.365 -4.4155 -3.4715 -2.186 -3.5085 -3.519 -3.383 -4.4115 0 
-5.47 -2.4195 -4.081 -6.5495 -8.4455 -5.77 -5.347 -8.832001 -7.193501 -3.539 -6.0525 -8.0975 -7.477 -6.259 -8.8865 -5.35 -6.4515 -6.453 -7.702 -5.898 -4.4115 
-5.9535 -5.180501 -6.670501 -9.978001 -9.541501 -8.638 -11.7044 -11.5243 -9.0885 -7.836 -11.3394 -10.5135 -9.503 -9.186501 -11.7356 -10.0745 -9.391001 -10.564 -10.4265 -5.898 
-8.462501 -7.797 -10.054 -11.0524 -12.4095 -15.1164 -14.3967 -13.4193 -13.6691 -13.4083 -13.7554 -12.8819 -12.8835 -13.7328 -16.4601 -13.014 -13.5792 -13.6933 -10.4265 
-10.2375 -11.2985 -11.1648 -13.9204 -18.8879 -17.8087 -16.2917 -17.9999 -19.2414 -15.8243 -16.1238 -16.2624 -17.4298 -18.4573 -19.3996 -17.2022 -16.7085 -13.6933 
-2.872 -3.502 -3.7575 -1.7565 -4.202 -2.3615 -3.995 -1.7565 -4.2615 -2.186 -3.383 -3.644 0 
-7.376 -5.712 -4.4575 -5.847001 -6.9065 -5.9625 -6.804 -6.0035 -6.601001 -4.438 -5.271 -3.644 
-10.025 -6.145 -9.307 -8.193501 -10.8225 -8.173 -11.5938 -8.2335 -9.045 -6.3665 -5.271 
-10.458 -11.2077 -11.8585 -12.2301 -13.033 -13.4926 -13.8238 -10.9057 -10.718 -6.3665 
-15.5207 -13.7592 -15.8951 -14.4406 -18.3526 -15.7226 -16.496 -12.5787 -10.718 
-3.995 -2.186 -3.074 -1.934 -3.502 -3.7575 
-5.7465 -4.156 -4.93 -4.8155 -5.712 
-8.09 -6.1545 -7.949501 -8.064 
-9.88 -9.644001 -11.336 
-13.3557 -13.1873 
-3.995 -3.5855 -4.251 -5.1935 -3.7825 -5.6825 0 -1.4985 -6.614 0 -1.4985 -6.982 0 -1.4985 -4.6985 0 -1.756 -1.4985 -5.9385 0 -3.1495 -5.285 -1.7695 -4.7715 0 -3.4715 0 -3.599 0 -1.756 -3.3435 -3.135 -4.9405 -3.5795 0 -2.5045 -3.355 -1.7565 -1.4985 -5.6825 -1.7565 -1.4985 -3.995 
-5.545 -8.0305 -8.219001 -8.014 -8.262501 -5.6825 -1.4985 -7.168 -6.614 -1.4985 -7.7275 -6.982 -1.4985 -5.1995 -4.6985 -1.756 -3.0405 -6.555 -5.9385 -3.1495 -7.3555 -5.419 -7.388501 -4.7715 -3.4715 -3.4715 -3.599 -3.599 -1.756 -5.1365 -6.557 -7.344501 -8.301001 -3.5795 -2.5045 -4.4625 -3.725 -2.4195 -6.642 -6.369 -2.4195 -4.712 
-10.4945 -10.485 -11.4255 -13.0044 -8.262501 -7.245 -7.168 -7.168 -8.0765 -7.7275 -7.7275 -8.51 -5.1995 -5.1995 -5.7875 -3.0405 -7.425 -6.555 -9.061001 -7.3555 -7.421 -10.334 -7.388501 -7.81 -3.4715 -6.3485 -3.599 -5.2355 -5.1365 -8.1695 -10.4185 -9.822001 -8.301001 -6.2955 -4.4625 -4.468 -4.0515 -7.005001 -7.2805 -7.6155 -5.2205 
-10.637 -13.6915 -16.4159 -13.0044 -9.649 -10.243 -7.168 -8.445001 -9.75 -7.7275 -8.769 -9.43 -5.1995 -6.337 -6.77 -7.425 -7.425 -9.318001 -13.3416 -7.421 -12.4104 -10.334 -10.292 -7.81 -6.3485 -6.3485 -5.2355 -8.717001 -8.1695 -12.7336 -12.896 -9.822001 -11.105 -7.566 -4.468 -4.85 -10.118 -8.375501 -8.333501 -8.960501 
-13.8435 -18.6819 -16.4159 -14.3909 -12.6918 -10.243 -8.445001 -9.788 -9.75 -8.769 -9.533 -9.43 -6.337 -7.097001 -8.984501 -7.425 -10.103 -13.6352 -13.4071 -12.4104 -12.4104 -10.7675 -10.292 -9.1165 -6.3485 -7.016 -8.717001 -10.718 -12.7336 -15.2111 -12.896 -13.1618 -12.3755 -7.5695 -4.85 -10.758 -10.559 -9.298 -9.638 
