-4.759 
n/a 
n/a 
n/a 
n/a 
-4.759 
n/a 
n/a 
n/a 
n/a 
-4.759 
n/a 
n/a 
n/a 
n/a 
-4.759 
n/a 
n/a 
n/a 
n/a 
-4.5065 0 -12.16972 0 -5.1645 0 
-4.5065 -12.16972 -12.16972 -5.1645 -5.1645 
-17.06082 -12.16972 -17.33422 -5.1645 
-17.06082 -17.33422 -17.33422 
-22.22532 -17.33422 
-4.5065 0 -10.35 0 -5.1645 0 
-4.5065 -10.35 -10.35 -5.1645 -5.1645 
-15.2411 -10.35 -15.6369 -5.1645 
-15.2411 -15.6369 -15.6369 
-20.528 -15.6369 
-4.5065 0 -10.35 0 -5.1645 0 
-4.5065 -10.35 -10.35 -5.1645 -5.1645 
-15.2411 -10.35 -15.6369 -5.1645 
-15.2411 -15.6369 -15.6369 
-20.528 -15.6369 
-4.5065 0 -10.35 0 -5.1645 0 
-4.5065 -10.35 -10.35 -5.1645 -5.1645 
-15.2411 -10.35 -15.6369 -5.1645 
-15.2411 -15.6369 -15.6369 
-20.528 -15.6369 
