-4.759 
n/a 
n/a 
n/a 
n/a 
-4.759 
n/a 
n/a 
n/a 
n/a 
-4.759 
n/a 
n/a 
n/a 
n/a 
-4.759 
n/a 
n/a 
n/a 
n/a 
-7.6355 -3.264 -3.7345 -1.4985 -4.4105 -4.1855 -1.756 -2.985 -4.644 -3.5135 0 -4.9335 -2.985 -4.9705 -2.264 -3.6605 -4.0045 -1.756 -3.9675 -4.3755 -3.251 -4.397 0 
-10.5435 -6.8015 -6.433001 -6.069 -7.373 -6.14 -4.2025 -7.028 -5.744 -3.5135 -4.9335 -7.0985 -6.874001 -7.494 -5.641 -6.8785 -5.167 -4.942 -8.936001 -8.0885 -7.8795 -4.397 
-14.4758 -9.4785 -11.4359 -8.944501 -9.263 -8.545501 -8.1565 -7.728001 -5.744 -8.7295 -7.0985 -10.76 -9.594501 -11.2754 -9.068501 -7.972001 -7.222001 -9.557 -12.8994 -13.0492 -7.8795 
-17.1528 -14.5782 -14.3114 -10.396 -11.8229 -12.7295 -8.887501 -7.728001 -11.9916 -11.1905 -10.76 -13.4805 -13.4045 -14.7029 -9.849001 -10.243 -12.3376 -13.949 -17.8601 -13.0492 
-22.2525 -17.4537 -15.7629 -12.9559 -16.0069 -13.4605 -8.887501 -14.3594 -14.4526 -14.852 -13.4805 -17.2905 -16.832 -15.4834 -12.2646 -15.3586 -16.7296 -18.9097 -17.8601 
-2.688 -2.743 -5.181 -4.7355 -4.175 -4.1855 -3.5085 -1.756 -5.446 -4.765 -4.644 -1.756 -4.2465 -3.681 
-6.2535 -6.565001 -11.0901 -9.783501 -8.976 -6.885 -6.0295 -7.098001 -11.117 -10.451 -6.454 -5.052 -7.9405 
-7.627001 -13.6227 -16.1381 -15.7009 -12.0871 -9.779501 -12.0961 -13.2766 -16.803 -12.261 -7.7905 -9.1545 
-15.5851 -18.6707 -22.0555 -18.812 -14.9816 -16.1289 -18.2747 -18.9626 -18.613 -13.5975 -12.4844 
-20.6331 -24.5881 -25.1666 -21.7065 -21.331 -22.3075 -23.9607 -20.7726 -19.9495 -18.2914 
-3.4515 -2.882 -3.9875 -2.5045 -3.2825 -1.7695 -4.993 0 -2.5045 -4.543 -1.7695 -4.345 -1.756 -3.4765 -4.058 -3.8275 0 -1.934 -1.4985 -3.493 -1.7565 -3.9655 -5.234 -3.3715 -4.7685 -2.882 -4.017 -1.934 -1.4985 -4.9865 -1.7565 -12.16972 -2.4945 -4.5275 -4.3285 -4.3055 -4.9055 -5.0945 -1.4985 -4.0295 -2.3335 -1.4985 -3.17 -3.1385 -4.668 -5.036 -2.882 -4.2125 -2.489 -2.5045 -3.76 -2.5045 -3.699 -2.5045 -4.6935 -1.4985 -2.871 -2.3335 -2.925 -3.17 -4.7815 0 
-5.866 -5.571 -6.231501 -5.403 -5.003 -6.739 -4.993 -2.5045 -6.2145 -6.886001 -6.131001 -5.3615 -4.5775 -8.024501 -4.954 -3.8275 -1.934 -2.6125 -4.207 -4.416 -5.1895 -7.455 -7.881001 -7.162001 -7.321501 -6.323501 -5.358 -2.6125 -6.4255 -6.625 -14.87542 -14.66422 -6.045 -8.23 -7.8435 -8.33 -10.31 -5.842 -5.1425 -6.3195 -3.3515 -3.7115 -4.946 -7.941501 -8.0975 -8.723001 -6.349501 -6.008 -4.8705 -3.8195 -5.664001 -5.56 -5.611 -7.182 -5.412 -4.316 -4.725 -4.0295 -6.592501 -8.248501 -4.7815 
-8.4335 -9.309 -9.1355 -7.3625 -10.3605 -6.739 -7.208 -6.2145 -8.207001 -10.733 -6.99 -8.005 -8.559 -8.650001 -4.954 -5.2615 -2.6125 -4.6565 -4.6365 -8.003 -8.564501 -10.4035 -12.3097 -9.654501 -10.265 -7.6485 -6.174 -7.589 -7.031 -20.25412 -17.36992 -18.21472 -9.384001 -8.38 -8.7915 -14.0391 -11.0575 -9.7865 -7.199 -7.8825 -5.84 -6.862 -9.345501 -10.2645 -12.1433 -12.5897 -6.8015 -8.651501 -5.4475 -5.681 -7.1665 -5.896 -8.1695 -7.783 -7.884 -5.372 -7.0295 -7.8255 -10.111 -8.248501 
-12.3147 -10.534 -9.264501 -10.3605 -10.3605 -8.862 -9.842 -8.207001 -12.2554 -11.592 -9.264501 -9.7185 -9.0495 -8.650001 -6.3775 -6.1145 -4.6565 -4.7345 -8.4905 -11.47 -11.9406 -14.8322 -14.8022 -12.8954 -11.8676 -8.3245 -10.7025 -7.916 -20.62612 -22.74862 -20.92042 -21.55372 -9.594501 -8.9055 -14.561 -14.7866 -15.002 -11.8874 -8.555 -10.347 -8.6545 -11.4993 -11.8289 -14.2517 -16.01 -13.0417 -9.442 -10.044 -6.861 -7.172501 -7.3615 -8.179 -8.3335 -10.27 -8.3145 -7.671 -9.8395 -11.4236 -10.111 
-13.5397 -10.561 -10.761 -10.3605 -12.6481 -10.6605 -11.9607 -12.2554 -13.1144 -13.8665 -10.7025 -9.741501 -9.0495 -9.640501 -7.132 -8.603001 -4.7345 -8.583 -12.1405 -14.8461 -16.3693 -17.3247 -18.0431 -14.498 -12.5436 -13.139 -10.758 -22.00252 -23.12062 -26.29912 -24.25942 -21.76422 -10.3705 -14.751 -15.3085 -18.7311 -17.1029 -13.2434 -11.1059 -13.1615 -13.7018 -13.9827 -15.8161 -18.1184 -16.462 -15.6822 -10.7505 -10.416 -8.0865 -7.368001 -10.1675 -8.34 -11.3961 -10.712 -10.467 -10.238 -13.5984 -11.4236 
-2.7835 -2.7295 -2.674 -3.962 -1.4985 -3.8085 -3.264 -1.7565 -4.1855 0 -2.7835 -1.4985 -5.056 -3.034 -2.7295 -3.047 -2.985 -4.0165 -4.2465 0 -2.7295 -2.674 -8.113501 -1.4985 -4.4905 -3.264 -2.3345 -2.688 -2.743 -5.181 
-4.405 -3.8 -4.902 -5.1835 -5.574 -6.356501 -3.6125 -5.711 -4.1855 -2.7835 -3.7575 -6.0245 -8.351501 -4.536 -5.018 -5.6355 -6.798 -7.4555 -4.2465 -2.7295 -3.8 -10.298 -9.676001 -5.2295 -8.573 -5.9415 -5.4465 -6.2535 -6.565001 
-5.650001 -5.571 -5.824 -9.5888 -7.92 -7.920001 -6.116 -5.711 -7.110001 -3.7575 -7.568501 -9.0115 -10.1345 -6.446 -7.698 -10.041 -9.8485 -7.4555 -8.3645 -3.8 -11.6582 -11.8605 -13.407 -9.4135 -11.3289 -9.715 -9.925001 -7.627001 
-8.441501 -6.558 -10.3599 -11.9348 -8.25 -11.0213 -6.116 -8.3015 -8.091001 -7.568501 -11.0149 -10.9107 -12.1787 -9.006001 -12.3507 -13.0915 -9.8485 -12.1095 -9.3325 -11.6582 -13.2207 -15.5915 -17.591 -12.181 -15.1024 -14.1907 -10.5675 
-9.015 -11.2483 -12.7059 -12.2648 -11.7997 -11.0213 -8.7075 -9.059 -10.1635 -11.0149 -12.9141 -12.9549 -14.7387 -13.7147 -15.4012 -13.0915 -14.7375 -13.0775 -17.3053 -13.2207 -16.9517 -19.7755 -20.3585 -15.9545 -19.5781 -14.8332 
