-4.759 
n/a 
n/a 
n/a 
n/a 
-4.759 
n/a 
n/a 
n/a 
n/a 
-4.759 
n/a 
n/a 
n/a 
n/a 
-4.759 
n/a 
n/a 
n/a 
n/a 
-1.934 -5.1255 -6.3045 -2.8645 -1.4985 -4.1215 -1.7565 -4.1395 -1.756 -4.055 -3.9755 -2.186 -6.1675 -2.3615 -4.2765 -1.4985 -4.141 -1.756 -3.6835 -3.7435 
-8.054001 -12.6316 -9.283501 -4.3545 -5.306 -5.3395 -5.72 -5.2725 -5.6615 -7.448501 -6.486 -7.0965 -7.8385 -7.895 -5.248 -5.3175 -5.81 -4.803 -5.62 
-15.8013 -15.6106 -10.4195 -8.3585 -5.5525 -9.920501 -6.3595 -10.228 -8.8985 -9.636001 -11.1535 -8.6745 -13.2935 -8.7295 -9.2005 -6.750501 -6.809 -7.986 
-18.7803 -16.7466 -14.4235 -8.608001 -10.167 -10.6258 -11.8512 -13.9264 -10.6745 -14.5163 -12.7918 -14.4931 -14.792 -12.8134 -10.276 -8.248 -9.334001 
-19.9163 -20.7506 -14.673 -13.4435 -10.8723 -16.1175 -15.5496 -15.7024 -15.5548 -15.9618 -18.9446 -15.8282 -18.8759 -13.8889 -11.7735 -9.9125 
-3.5065 -4.7875 -4.2655 -2.186 -3.7015 -3.3425 -3.6835 -2.4285 -2.8965 -4.141 -3.6965 -1.7695 -2.489 -3.2955 -2.0935 -4.7885 -4.3625 0 -2.925 -3.2955 -3.948 -3.4265 -4.1395 -1.756 -4.055 -3.6965 -1.7695 -5.617 -4.7885 -3.9965 0 
-8.679501 -7.420001 -5.908 -5.937 -6.7475 -6.861 -6.133 -4.1405 -6.4455 -7.435 -5.474 -3.1405 -3.979 -4.307 -7.081 -9.517 -4.3625 -2.925 -5.588 -7.1505 -7.141 -8.356501 -5.2725 -5.6615 -6.2015 -5.474 -6.051001 -10.254 -6.823501 -3.9965 
-11.534 -8.739 -9.047 -9.056001 -9.915001 -9.007 -7.8625 -7.313001 -10.0815 -9.571001 -6.7475 -4.7755 -4.7805 -8.9825 -12.2325 -9.517 -7.1505 -5.588 -8.7585 -10.322 -12.8734 -10.111 -10.228 -9.324 -9.995001 -8.988501 -10.4505 -12.6464 -6.823501 
-12.853 -12.0528 -12.2326 -12.2181 -12.1286 -11.1989 -8.653501 -11.2382 -12.2175 -11.0045 -7.8895 -5.521501 -9.9245 -14.087 -12.2325 -12.6736 -9.59 -8.7585 -12.0128 -16.0544 -14.6279 -15.0665 -14.3519 -13.3611 -13.6251 -13.8448 -13.3877 -12.6464 
-16.1668 -15.2384 -15.3947 -14.4317 -14.3205 -11.9899 -12.7675 -13.3742 -13.651 -12.1465 -8.775001 -10.5855 -15.029 -14.087 -15.3891 -15.1131 -12.5571 -12.0128 -17.7452 -17.8089 -19.5834 -19.1904 -18.389 -16.9912 -18.4814 -16.782 -13.3877 
-4.9115 -2.8645 -4.6015 -6.568 -4.8345 -2.356 -3.8245 -3.681 -3.0415 -1.7695 -4.6095 -2.3335 -1.934 -7.641 -2.925 -2.674 -3.098 -3.2955 -4.055 -3.4635 -6.568 -4.8345 
-6.955001 -7.4765 -12.6129 -9.439 -7.481 -6.4805 -6.1385 -6.139501 -5.3075 -5.3115 -6.7685 -4.468 -10.0925 -10.932 -4.1785 -5.359 -5.778 -7.608 -7.4925 -10.8415 -9.439 
-9.6905 -15.8931 -15.4839 -12.5577 -11.8107 -8.348001 -8.679001 -8.446501 -9.4045 -8.2445 -9.444 -13.1939 -13.3835 -12.1855 -6.7615 -7.328 -10.6917 -11.7763 -15.1393 -13.7125 
-18.0583 -18.7641 -18.6026 -16.8874 -13.6782 -10.564 -10.733 -12.6827 -12.3835 -10.76 -18.1911 -16.4849 -14.637 -14.7685 -9.1645 -12.3683 -14.86 -19.4231 -18.0103 
-20.9293 -21.8828 -22.9323 -18.7549 -15.8942 -12.618 -14.9692 -15.6617 -14.899 -19.5071 -21.4821 -17.7384 -17.22 -17.1715 -14.2668 -16.5366 -22.5068 -22.2941 
-3.6835 -3.5515 0 -5.2915 0 -4.141 -3.5515 -2.4945 -4.6015 -1.934 -4.7875 -3.9675 -2.0935 -6.903 0 -3.0415 -4.2335 0 -4.1395 0 -4.3705 -2.4945 -3.2955 -2.5045 -3.6965 -1.7695 -5.617 -1.4985 -3.729 
-7.857501 -3.5515 -5.2915 -5.2915 -4.141 -8.311001 -6.541 -5.67 -6.211 -6.5285 -7.028501 -6.257 -8.277 -6.903 -3.0415 -8.122 -4.2335 -4.1395 -4.1395 -4.3705 -6.0715 -4.6305 -4.6545 -6.607 -5.474 -6.051001 -6.473 -4.763 
-7.857501 -8.9095 -5.2915 -8.932 -8.311001 -11.6959 -10.2695 -7.192 -9.654 -8.3665 -9.026501 -13.0805 -8.277 -10.459 -8.122 -8.122 -9.1535 -4.1395 -8.842501 -6.0715 -7.986 -5.958 -9.385501 -8.6105 -8.988501 -6.853001 -9.114 
-13.6687 -8.9095 -8.932 -13.7538 -11.6959 -15.4244 -10.7585 -10.553 -11.8098 -10.485 -16.118 -13.0805 -12.1946 -15.5395 -8.122 -13.5122 -9.1535 -8.842501 -10.9847 -7.986 -9.045 -10.248 -10.734 -12.4 -9.7375 -9.501501 
-13.6687 -12.7264 -13.7538 -17.1387 -15.4244 -15.9134 -15.1793 -12.7088 -13.9283 -17.5765 -16.118 -16.9981 -17.2751 -15.5395 -13.5122 -13.5122 -14.3301 -10.9847 -12.8992 -9.045 -13.661 -11.6885 -14.5235 -13.149 -12.6392 
