-4.759 
n/a 
n/a 
n/a 
n/a 
-4.759 
n/a 
n/a 
n/a 
n/a 
-4.759 
n/a 
n/a 
n/a 
n/a 
-4.759 
n/a 
n/a 
n/a 
n/a 
-1.934 -2.3615 -3.4715 -3.7875 -4.191 -4.957 -2.5685 -2.7455 
-3.539 -5.3475 -7.797501 -7.825001 -8.304001 -7.5675 -4.593 
-6.094 -9.522 -12.1004 -12.2524 -11.2689 -9.992201 
-10.2035 -13.9493 -16.5278 -15.2173 -13.6936 
-14.8 -18.3767 -19.4927 -17.642 
-2.3615 -4.5095 -4.7925 -3.222 -4.191 -3.9035 
-5.9415 -9.764 -5.2095 -7.0965 -7.773 
-11.9248 -10.4975 -7.6485 -8.748501 
-12.6583 -12.9365 -9.0975 
-15.0973 -14.3855 
-2.3615 -4.126 -1.7565 -3.4715 -2.674 -2.6615 -3.9035 0 
-5.538 -5.221001 -6.166 -7.132 -6.1555 -6.936501 -3.9035 
-6.4275 -9.911 -10.185 -11.0669 -10.0925 -6.936501 
-11.5973 -14.2992 -14.1199 -15.0039 -10.0925 
-15.9855 -18.2341 -18.0569 -15.0039 
-2.3615 -3.473 -4.3465 -2.6615 -3.319 -1.7565 -3.9035 0 
-6.1505 -8.585501 -7.684 -6.638 -4.165 -5.809 -3.9035 
-10.2645 -12.2656 -12.2453 -7.611001 -8.5105 -5.809 
-13.9446 -16.8269 -13.2183 -12.3401 -8.5105 
-18.5059 -17.7999 -17.9474 -12.3401 
