-4.759 
n/a 
n/a 
n/a 
n/a 
-4.759 
n/a 
n/a 
n/a 
n/a 
-4.759 
n/a 
n/a 
n/a 
n/a 
-4.759 
n/a 
n/a 
n/a 
n/a 
-3.5585 -4.7615 -3.819 -4.2465 -4.8635 -1.934 -5.3885 -1.756 -4.6465 -3.8195 
-7.4455 -8.373001 -7.772 -7.0415 -6.315 -6.4035 -7.176001 -5.5625 -5.7065 
-10.3815 -12.5202 -9.485001 -8.411 -10.0745 -7.7845 -10.223 -5.9705 
-14.5287 -14.2332 -10.8091 -12.5599 -11.7059 -10.7595 -10.4845 
-16.2417 -15.5573 -14.958 -14.1913 -14.6809 -11.021 
-4.536 -3.6215 -5.3885 -4.7425 -3.3195 -4.179 0 -3.819 -2.664 -3.158 -2.356 -1.4985 -3.0785 -1.7565 -3.5585 0 
-7.493501 -8.257001 -10.7495 -8.06 -5.502 -4.179 -3.819 -6.023 -7.346 -5.314 -3.1615 -4.779 -5.1815 -4.9275 -3.5585 
-13.0592 -13.998 -14.067 -10.4425 -5.502 -8.005001 -6.023 -9.281 -9.687 -6.0715 -5.297501 -5.2205 -8.319 -4.9275 
-18.8002 -17.3155 -16.4495 -10.4425 -9.3675 -10.757 -9.281 -11.9636 -10.535 -7.732501 -5.3145 -8.349501 -8.319 
-22.1177 -19.698 -16.4495 -14.308 -12.2421 -14.015 -11.9636 -12.8116 -12.196 -7.745 -8.463 -8.349501 
-1.934 -1.756 -3.6215 -3.2875 -1.7565 -5.3885 -3.3715 -4.536 -2.4945 -4.4655 -3.9675 -4.8635 -2.4945 -4.4655 -2.3345 -3.5585 
-4.4925 -5.195 -7.3675 -4.3315 -7.235001 -9.495001 -6.907001 -6.476 -5.8055 -10.01 -7.372001 -7.0145 -5.8055 -5.1125 -5.783 
-5.546 -8.540501 -8.663501 -8.165501 -10.733 -13.0795 -8.169001 -10.259 -11.9002 -13.4145 -10.19 -9.880501 -6.6305 -8.150001 
-8.7875 -9.472 -12.5853 -11.9459 -14.3175 -14.3415 -12.2738 -16.5235 -15.3047 -16.2325 -13.056 -10.7539 -9.505 
-9.84 -13.7406 -16.3657 -15.5304 -15.5795 -18.4463 -18.5383 -19.928 -18.1227 -19.0985 -13.9294 -13.6284 
-1.934 -5.3885 -1.756 -2.4265 -2.229 -4.6465 -4.536 -3.6055 -3.158 -4.7425 -3.594 -4.1335 -2.3345 -1.4985 -3.5585 0 
-6.4035 -7.176001 -3.949 -3.3415 -7.153 -8.773001 -8.637001 -5.061 -7.9835 -7.9045 -8.487 -6.4805 -3.233 -4.8755 -3.5585 
-7.7845 -9.438001 -4.6695 -7.416 -11.8229 -13.1148 -9.019501 -9.657001 -11.4663 -13.4777 -10.382 -7.494 -6.426 -4.8755 
-9.956 -10.023 -7.4645 -12.6005 -16.1647 -13.4973 -13.6933 -13.2044 -17.0395 -15.3727 -11.6225 -11.11 -6.426 
-10.6152 -13.3378 -12.9806 -16.9423 -16.5472 -18.1711 -17.2407 -18.7776 -18.9345 -16.6132 -15.2385 -11.11 
