-4.759 
n/a 
n/a 
n/a 
n/a 
-4.759 
n/a 
n/a 
n/a 
n/a 
-4.759 
n/a 
n/a 
n/a 
n/a 
-4.759 
n/a 
n/a 
n/a 
n/a 
-2.9805 -2.8645 -2.645 -3.695 -4.129 -5.916 -1.756 -4.359 -1.934 -4.3105 -3.7515 0 
-4.3245 -5.2085 -6.236 -7.2165 -8.1695 -7.169001 -6.1085 -6.4345 -6.6465 -7.9315 -3.7515 
-6.635 -7.369 -8.927 -11.686 -8.986501 -8.395 -8.0345 -10.0675 -10.8897 -7.9315 
-8.3675 -9.694 -13.4867 -12.503 -9.521501 -9.727501 -11.8813 -14.8169 -10.8897 
-9.9525 -14.6617 -14.3037 -13.038 -9.882 -14.0611 -16.6307 -14.8169 
-2.5195 -3.091 -4.6655 0 -2.9805 -2.7415 -3.3235 -4.7265 -1.934 -4.129 -6.8505 -1.756 -4.359 0 
-4.8225 -6.248 -4.6655 -2.9805 -4.004 -5.541 -6.059 -5.6355 -6.3 -9.449501 -7.952 -6.1085 -4.359 
-7.282001 -6.248 -7.1745 -4.004 -6.784 -8.231001 -7.285501 -9.943001 -11.9885 -10.0795 -9.8395 -6.1085 
-7.282001 -7.657 -7.975 -6.784 -8.976001 -8.903001 -11.8446 -15.7253 -12.6185 -12.0644 -9.8395 
-8.606001 -8.339001 -10.733 -8.976001 -9.581 -13.5245 -17.6269 -16.3553 -14.6034 -12.0644 
-3.401 -2.5195 -3.091 -4.6655 0 -2.9805 -2.7415 -4.8275 -1.934 -4.129 -6.8505 -1.756 -4.359 0 
-5.304 -4.8225 -6.248 -4.6655 -2.9805 -4.004 -8.3155 -5.852 -6.3 -9.449501 -7.952 -6.1085 -4.359 
-8.012001 -7.282001 -6.248 -7.1745 -4.004 -9.6745 -8.689501 -8.612 -11.9885 -10.0795 -9.8395 -6.1085 
-9.279501 -7.282001 -7.657 -7.975 -9.6745 -9.774501 -11.5483 -14.4475 -12.6185 -12.0644 -9.8395 
-9.279501 -8.606001 -8.339001 -13.9507 -9.774501 -12.6107 -17.3838 -15.0775 -14.6034 -12.0644 
-2.9805 -2.186 -4.5515 -1.934 -6.8505 -1.756 -4.359 -2.5195 -3.091 -4.6655 
-4.1635 -7.593 -5.364501 -8.776501 -7.952 -6.1085 -7.01 -4.8225 -6.248 
-10.1225 -7.7825 -13.0318 -10.4345 -9.8395 -8.6555 -8.318501 -7.282001 
-10.293 -16.2698 -14.6898 -12.322 -12.4459 -9.953501 -11.4762 
-18.7803 -17.9278 -16.5773 -14.9284 -13.7439 -13.3832 
