-4.759 
n/a 
n/a 
n/a 
n/a 
-4.759 
n/a 
n/a 
n/a 
n/a 
-4.759 
n/a 
n/a 
n/a 
n/a 
-4.759 
n/a 
n/a 
n/a 
n/a 
-10.1165 -3.788 -4.077 -1.934 -1.4985 -3.8275 -3.772 -1.756 -3.9555 -2.356 -3.091 -12.16972 0 -3.7555 -1.756 -3.695 -1.756 -4.547 
-13.9045 -6.979 -4.43 -2.6125 -4.726 -7.727 -4.9105 -5.3475 -6.3915 -4.513 -16.54652 -12.16972 -3.7555 -6.5605 -5.1035 -4.912 -5.9315 
-17.0955 -7.177001 -4.9635 -5.815001 -8.9785 -8.8975 -8.4195 -7.811501 -8.77 -18.11672 -16.54652 -15.92522 -6.5605 -10.5035 -6.708 -7.682 
-17.2935 -7.808001 -7.642 -10.264 -10.382 -12.4951 -11.2893 -10.5535 -22.51692 -18.11672 -20.30202 -18.73022 -10.5035 -12.108 -10.575 
-17.9245 -10.1265 -12.238 -11.6675 -13.9796 -15.3649 -14.0313 -24.30042 -22.51692 -21.87222 -23.10702 -22.67322 -12.108 -15.975 
-6.845 -3.0695 -3.251 -3.788 -3.7555 -1.4985 -3.695 -1.756 -4.7055 -2.3345 -4.672 -4.33 -2.356 -3.091 -4.235 -1.934 -3.8275 -3.772 -1.756 -3.9555 0 -4.612 -2.5045 -1.4985 -3.6765 -2.356 -4.766 -1.756 -5.523 0 
-9.749001 -4.7295 -5.3545 -6.2145 -4.843 -5.061501 -4.912 -6.3805 -7.041 -6.831 -8.067 -5.911 -4.513 -5.1065 -5.8 -5.911 -7.727 -4.9105 -5.3475 -3.9555 -4.612 -6.317 -3.583 -4.501 -5.2645 -6.851501 -5.7505 -7.0965 -5.523 
-11.4838 -6.763 -8.0825 -7.2085 -7.9925 -6.115 -7.9245 -8.823 -10.181 -9.142 -9.029 -7.028501 -6.311 -6.5115 -9.6475 -9.3985 -8.8975 -8.4195 -5.3475 -8.403 -6.317 -7.007 -6.476501 -6.3005 -9.696001 -7.855 -10.7175 -7.0965 
-13.5173 -9.318001 -9.017 -10.044 -8.731 -8.5185 -10.7256 -12.1286 -12.6492 -10.0195 -10.7185 -8.977501 -7.4005 -10.159 -13.2464 -10.587 -12.4951 -8.4195 -10.733 -10.3745 -7.007 -10.5801 -8.179001 -11.0258 -10.6495 -12.9704 -10.7175 
-16.0723 -10.4945 -11.9111 -10.7825 -11.3717 -12.2158 -14.0312 -14.5968 -13.5267 -11.7328 -12.6675 -10.316 -11.0568 -13.8781 -14.4349 -14.1846 -12.4951 -14.2108 -12.7045 -11.0645 -10.5801 -12.2826 -13.0791 -11.9793 -15.7649 -12.9704 
-3.788 -2.356 -4.235 0 -2.9805 -3.251 -3.8275 -3.772 0 -6.845 -3.251 -3.695 -1.934 -3.307 0 -2.356 -3.301 -3.914 -1.7565 -4.318 -4.602 0 
-6.689 -6.6355 -4.235 -2.9805 -4.429 -8.241501 -7.727 -3.772 -6.845 -10.2435 -6.567 -4.7635 -5.6555 -3.307 -2.356 -5.3925 -6.5275 -4.677 -5.773 -7.605 -4.602 
-11.3153 -6.6355 -6.3485 -4.429 -9.7515 -12.4286 -7.727 -11.7306 -10.2435 -13.5595 -7.310501 -7.452001 -5.6555 -5.830501 -5.3925 -8.015501 -6.6625 -8.462501 -9.3145 -7.605 
-11.3153 -9.092 -7.7725 -9.7515 -14.0166 -12.4286 -15.9856 -15.1291 -13.5595 -14.303 -10.155 -7.452001 -7.8545 -8.679001 -8.015501 -8.178 -10.609 -12.1974 -9.3145 
-13.7718 -10.382 -13.278 -14.0166 -14.0166 -20.6872 -19.3841 -18.4451 -14.303 -17.1475 -10.155 -9.338501 -11.193 -10.647 -8.178 -12.1555 -14.3439 -12.1974 
-3.433 -1.7565 -5.1655 -3.695 -2.5195 -4.235 -1.934 -1.4985 -3.8275 -3.772 -1.756 -3.307 0 -12.16972 -3.251 -4.132 -4.0215 
-4.1845 -6.412001 -7.076 -5.97 -6.895 -5.8 -2.6125 -4.726 -7.727 -4.9105 -4.734 -3.307 -12.16972 -15.42072 -8.163501 -5.9375 
-9.698501 -8.34 -8.939 -10.8129 -9.066 -6.7115 -5.815001 -8.9785 -8.8975 -8.0635 -4.734 -16.68252 -15.42072 -20.33322 -9.567501 
-11.8213 -10.389 -13.8793 -12.9839 -10.329 -9.252001 -10.264 -10.382 -12.1391 -8.0635 -18.61112 -19.93352 -20.33322 -21.73722 
-13.8703 -15.3293 -16.0503 -14.2469 -12.8695 -13.8608 -11.6675 -13.6236 -12.1391 -22.32562 -21.86212 -24.84602 -21.73722 
