-4.759 
n/a 
n/a 
n/a 
n/a 
-4.759 
n/a 
n/a 
n/a 
n/a 
-4.759 
n/a 
n/a 
n/a 
n/a 
-4.759 
n/a 
n/a 
n/a 
n/a 
-8.381001 0 -2.186 -2.6165 -3.115 -2.7295 -3.047 -1.934 -1.4985 -3.997 0 -2.7295 -2.674 -1.7695 -3.563 -5.007 -2.3345 -5.0395 -3.3755 -3.757 0 -2.7295 -2.674 -1.7695 -3.5045 0 -2.857 -3.5495 -4.105 -4.5505 0 -2.9705 -2.186 -3.6845 -1.4985 0 -2.9905 -3.6515 -3.4155 0 
-8.145 -2.186 -3.5105 -5.172501 -5.414001 -5.018 -5.078 -2.6125 -4.921 -3.997 -2.7295 -3.8 -3.787 -4.525 -7.394 -7.358001 -7.367001 -9.9755 -7.216001 -3.757 -2.7295 -3.8 -3.787 -4.661 -3.5045 -2.857 -6.044 -6.689 -6.731 -4.5505 -2.9705 -3.89 -5.7515 -4.7485 -1.4985 -2.9905 -6.606 -8.422501 -3.4155 
-10.7344 -3.5105 -6.337501 -6.850501 -7.754001 -6.3315 -5.3425 -5.543 -4.921 -6.68 -3.8 -4.963 -6.486 -7.805501 -9.5985 -10.2755 -12.8488 -13.816 -7.216001 -5.788 -3.8 -4.963 -6.745 -4.661 -6.682 -6.044 -7.765 -7.385 -6.731 -7.340001 -3.89 -7.215 -6.2475 -4.7485 -5.7155 -6.606 -8.500501 -8.422501 
-12.1304 -6.337501 -8.2805 -9.5345 -8.339001 -6.831 -5.977 -5.543 -7.262 -7.655 -4.963 -7.7235 -10.0995 -10.126 -10.4875 -16.0949 -16.6893 -13.816 -8.925501 -6.719501 -4.963 -8.196 -6.745 -7.861001 -8.2465 -7.765 -7.798 -7.385 -9.502001 -7.968501 -7.215 -7.4555 -6.2475 -9.059 -7.773 -8.500501 -8.500501 
-15.2434 -8.2805 -11.1321 -10.7615 -8.8645 -9.233001 -5.977 -8.050501 -8.2165 -8.7565 -7.7235 -11.5768 -12.7346 -11.015 -16.8393 -19.9354 -16.6893 -15.5255 -10.27 -7.161 -8.196 -8.196 -9.3125 -10.3475 -8.259501 -7.798 -7.798 -10.074 -10.2495 -11.7849 -7.4555 -7.4555 -11.0252 -11.2985 -9.525001 -8.500501 
-2.6165 -2.5045 -3.543 -3.981 -5.0395 -3.7075 -1.7695 -3.563 -5.007 0 -1.7695 -3.5045 -1.7695 -3.3165 -1.7695 -2.9905 -3.6515 -3.4155 -3.673 -1.756 -3.183 -3.327 -3.6845 -2.857 -3.5495 -4.105 -4.5505 0 
-4.853 -5.323 -7.757501 -10.254 -8.812 -5.234 -4.525 -7.394 -5.007 -1.7695 -4.661 -5.8085 -4.0585 -3.881 -6.079 -6.606 -8.422501 -6.187 -5.3365 -4.9065 -5.471 -5.623 -6.506001 -6.044 -6.689 -6.731 -4.5505 
-8.1385 -8.2725 -14.3797 -14.7021 -10.6659 -7.671 -7.805501 -7.394 -6.350501 -4.661 -7.592501 -7.441501 -4.7935 -8.2115 -8.844001 -8.500501 -10.523 -7.6925 -8.1525 -7.6055 -7.455 -9.204 -10.1305 -7.765 -7.385 -6.731 
-11.3962 -15.4559 -18.8278 -16.556 -13.1029 -11.3239 -7.805501 -7.951 -10.1 -7.592501 -10.0005 -7.465001 -8.8005 -11.4139 -10.634 -10.5325 -12.0285 -10.5235 -9.874001 -9.7573 -10.553 -13.0937 -12.0009 -7.798 -7.385 
-18.5796 -19.904 -20.6817 -18.993 -16.7558 -11.3239 -8.4895 -12.2687 -13.0315 -10.0005 -10.423 -13.1374 -12.1817 -13.2039 -12.666 -12.038 -14.8595 -12.245 -12.3348 -12.8553 -14.4427 -14.9641 -12.0339 -7.798 
-2.6165 -1.934 -3.997 -5.0395 -3.7075 -1.7695 -4.3465 -3.1725 -1.7695 -3.5045 -5.222 -3.4155 -1.756 -3.321 -3.5045 -2.857 -3.5495 -4.105 -4.5505 0 
-4.552 -6.2505 -10.382 -8.812 -5.234 -7.771501 -9.4265 -4.5275 -4.661 -8.5015 -6.4885 -5.209 -4.0055 -5.6355 -6.682 -6.044 -6.689 -6.731 -4.5505 
-8.351001 -13.0775 -14.1545 -10.6659 -12.0454 -12.8925 -10.9541 -8.3405 -9.436501 -10.0925 -8.127001 -7.3465 -5.989 -8.0375 -8.2465 -7.765 -7.385 -6.731 
-15.3002 -16.85 -16.0084 -17.4773 -17.1664 -14.4201 -14.7671 -13.6016 -11.1617 -11.9856 -10.2235 -9.495001 -8.1675 -8.304001 -8.259501 -7.798 -7.385 
-19.0727 -18.7039 -22.8198 -22.5983 -18.694 -18.2331 -20.0282 -15.3268 -13.0548 -14.0821 -12.372 -11.7557 -8.304501 -8.317 -8.261001 -7.798 
-8.381001 -2.5045 -2.6165 -3.115 -1.8085 -3.7855 -3.997 0 -2.7835 -2.7295 -3.465 -1.7695 -3.563 -3.1725 -3.3255 -5.0395 0 -2.7295 -2.674 -1.7695 -3.857 -2.857 -3.5495 -4.105 -4.5505 -3.6845 -1.4985 -2.9905 -3.6515 -3.4155 
-10.6945 -5.4895 -5.172501 -4.2095 -4.803 -7.5505 -3.997 -2.7835 -4.405 -4.7235 -3.665 -4.525 -5.077 -6.7475 -7.921 -5.0395 -2.7295 -3.8 -3.787 -4.747 -6.5975 -6.044 -6.689 -6.731 -9.047001 -4.7485 -5.7155 -6.606 -8.422501 
-14.2714 -8.931001 -6.672 -8.272501 -8.448501 -7.5505 -6.385 -4.405 -5.969501 -4.9515 -5.761 -5.997 -7.965001 -8.844501 -7.921 -8.4905 -3.8 -4.963 -6.301 -7.287001 -10.044 -7.765 -7.385 -10.564 -10.1 -9.059 -7.773 -8.500501 
-17.8631 -10.3225 -10.389 -12.3814 -8.448501 -7.665 -8.2255 -5.969501 -6.12 -7.454 -6.153 -8.3155 -9.159 -8.844501 -11.8894 -9.6595 -4.963 -7.366 -8.54 -11.1603 -10.7385 -7.798 -10.6465 -11.617 -14.8449 -11.2985 -9.525001 
-19.2546 -14.0395 -14.4979 -12.3814 -10.553 -12.0881 -9.801001 -6.12 -8.758 -9.804 -9.790001 -9.219001 -9.159 -13.3117 -13.0584 -10.3985 -7.366 -9.7992 -12.5667 -11.8548 -10.765 -11.5447 -11.6995 -16.3619 -17.0844 -13.0505 
