-4.759 
n/a 
n/a 
n/a 
n/a 
-4.759 
n/a 
n/a 
n/a 
n/a 
-4.759 
n/a 
n/a 
n/a 
n/a 
-4.759 
n/a 
n/a 
n/a 
n/a 
-5.1875 -4.2655 -5.0335 -3.3715 -4.677 -4.752 -1.756 -5.1875 -4.2655 -3.452 -5.302 -2.264 
-7.408 -7.8155 -8.6675 -8.7515 -10.647 -6.673501 -7.085001 -7.408 -7.594 -9.3675 -7.6855 
-11.3586 -12.7913 -14.2917 -14.8495 -12.5685 -13.1299 -9.292001 -10.335 -14.1795 -11.97 
-16.3344 -18.4155 -20.3897 -16.771 -19.0249 -15.3369 -12.197 -16.9205 -16.782 
-21.9586 -24.5135 -22.3112 -23.2274 -21.2319 -18.2419 -18.7825 -19.523 
-1.4985 -3.7515 -1.7565 -1.4985 -4.947 -6.864 -2.7415 -1.4985 -3.17 -4.0845 -5.6445 -1.7565 -1.4985 -3.5125 -1.7565 -3.502 -4.1865 -5.1875 -5.1845 -3.9675 -1.4985 -7.4885 -3.152 -5.0305 -5.4195 -1.7565 -4.245 -1.756 -3.594 0 
-4.705501 -4.6045 -2.4195 -5.804 -10.127 -9.5625 -4.063 -3.7115 -6.319 -9.601501 -6.8335 -2.4195 -4.7015 -4.312 -4.9855 -6.301 -7.6475 -8.156501 -8.286 -5.746 -8.1875 -9.4565 -7.506001 -10.6605 -6.413001 -5.743001 -5.425 -5.3155 -3.594 
-4.844501 -5.7455 -6.5165 -10.2695 -12.9747 -10.5055 -5.6305 -6.6165 -12.2358 -10.405 -7.511 -5.810501 -4.846 -7.1545 -7.733 -9.1765 -11.1415 -11.9088 -9.774 -12.8034 -9.573 -13.9297 -13.7508 -11.654 -9.23 -6.640501 -7.035001 -5.3155 
-5.9585 -9.696 -10.7495 -13.1702 -13.9177 -10.767 -8.6905 -12.7149 -13.0393 -11.0825 -9.97 -5.975501 -7.7785 -9.869 -10.0885 -12.8749 -14.8938 -13.3968 -16.8892 -14.1889 -14.0506 -20.1745 -14.7443 -14.471 -9.797501 -7.864501 -7.035001 
-9.77 -14.2808 -13.6502 -14.1132 -14.1792 -15.0304 -14.9487 -13.5184 -13.7168 -13.5415 -10.0085 -8.9335 -10.0885 -12.2951 -13.9247 -16.6272 -16.3818 -20.512 -18.2747 -18.6665 -20.2954 -21.168 -17.5613 -15.0385 -10.536 -7.864501 
-5.1875 -7.4975 -4.8395 0 -4.1885 -4.677 -2.4945 -1.4985 -5.1875 -2.229 -4.245 -3.737 -2.186 -1.4985 -4.9705 -1.7565 -5.1875 -2.229 -4.245 0 
-10.8415 -12.9132 -4.8395 -4.1885 -10.382 -7.5425 -3.9315 -5.496 -7.694 -5.976501 -8.123001 -6.325 -3.339 -5.9585 -6.514501 -6.68 -7.694 -5.976501 -4.245 
-16.2572 -12.9132 -9.4995 -10.382 -13.2475 -8.628 -8.993501 -8.279501 -11.8757 -9.595501 -11.2066 -7.620501 -7.3105 -6.8785 -12.0128 -8.989 -11.8757 -5.976501 
-16.2572 -17.5732 -15.946 -13.2475 -14.333 -13.82 -10.5135 -12.594 -15.4947 -12.9759 -12.5021 -11.7794 -8.3345 -12.4744 -14.3218 -13.4895 -11.8757 
-20.9172 -24.0197 -18.8115 -14.333 -19.525 -15.34 -14.828 -16.213 -18.8751 -14.2714 -16.661 -12.8034 -14.0948 -14.7834 -18.8223 -13.4895 
-5.1875 -4.2655 -5.277 0 -3.3715 -5.585 -3.718 0 -1.756 -5.1875 -4.2655 -3.594 -3.759 0 -2.186 -4.523 -1.7695 -3.2345 -2.688 -3.845 0 
-7.408 -9.085001 -5.277 -3.3715 -7.705001 -10.276 -3.718 -1.756 -7.085001 -7.408 -7.0955 -7.0925 -3.759 -2.186 -7.046 -5.5405 -3.713 -5.830501 -5.8275 -3.845 
-12.6281 -9.085001 -8.727 -7.705001 -12.7822 -10.276 -5.3695 -7.085001 -9.292001 -10.586 -11.7206 -7.0925 -5.642 -7.046 -8.1285 -6.7925 -6.328 -10.238 -5.8275 
-12.6281 -12.8332 -13.2721 -12.7822 -12.7822 -11.9275 -11.6301 -9.292001 -12.448 -15.2111 -11.7206 -9.291 -11.1172 -8.1285 -9.842 -9.642501 -10.8307 -10.238 
-16.3763 -17.3783 -18.3493 -12.7822 -14.4337 -18.1881 -13.8371 -12.448 -17.0731 -15.2111 -13.9191 -14.863 -12.1997 -9.842 -12.8092 -14.3904 -10.8307 
