-4.759 
n/a 
n/a 
n/a 
n/a 
-4.759 
n/a 
n/a 
n/a 
n/a 
-4.759 
n/a 
n/a 
n/a 
n/a 
-4.759 
n/a 
n/a 
n/a 
n/a 
-1.934 -5.8725 -3.1435 -5.532 -2.5195 -3.8005 0 -3.8735 0 -4.9115 -1.756 -3.875 -1.756 -4.519 -1.4985 -4.8615 -1.934 -3.277 -1.756 -3.43 -3.277 -2.664 -3.77 -3.3755 -1.7695 -3.8185 0 
-8.481001 -10.104 -6.0665 -8.1855 -5.533 -3.8005 -3.8735 -3.8735 -4.9115 -5.9325 -5.479 -5.0395 -5.8305 -5.2055 -5.761001 -5.78 -5.341 -4.6335 -5.055 -5.7705 -5.8655 -4.9335 -5.318501 -3.992 -4.74 -3.8185 
-13.0255 -13.1698 -8.72 -11.5638 -5.533 -5.7635 -3.8735 -8.047 -5.9325 -8.412001 -6.7535 -10.3568 -6.37 -10.2168 -6.7025 -9.9975 -6.4025 -7.419 -6.7205 -7.893001 -7.8 -5.7245 -5.4685 -7.342 -4.74 
-16.0913 -15.8233 -12.2101 -11.5638 -7.2095 -5.7635 -8.047 -9.4725 -8.412001 -10.459 -12.1988 -10.8963 -11.7077 -11.1583 -11.1728 -11.1386 -9.1085 -7.9955 -8.855 -9.1875 -8.481 -5.8145 -8.6645 -7.342 
-18.7448 -19.3134 -12.2101 -13.2403 -7.2095 -9.852 -9.4725 -12.0166 -10.459 -15.9043 -12.7383 -16.234 -12.6492 -15.6286 -12.3139 -13.8446 -10.2085 -10.3345 -10.434 -10.5919 -8.562 -8.8425 -8.6645 
-3.436 -2.3335 -4.179 -3.8005 0 -3.8735 0 -4.9115 0 -3.875 -4.816 -3.45 -1.756 -4.09 -3.5855 -1.934 -1.8085 -4.4265 -4.412 
-5.4805 -7.08 -8.589001 -3.8005 -3.8735 -3.8735 -4.9115 -4.9115 -3.875 -9.3865 -7.981001 -6.326 -5.5625 -8.175 -5.265 -3.2685 -5.3885 -7.111501 
-10.459 -11.9356 -8.589001 -5.7635 -3.8735 -8.047 -4.9115 -8.561001 -9.3865 -12.7243 -10.757 -10.5635 -9.6525 -10.022 -7.040501 -6.659501 -7.4545 
-15.3146 -11.9356 -10.6095 -5.7635 -8.047 -8.047 -8.561001 -14.3655 -12.7243 -15.5003 -14.9945 -14.6535 -11.5711 -11.9619 -10.564 -7.462 
-15.3146 -13.9561 -10.6095 -9.852 -8.047 -12.2431 -14.3655 -17.7033 -15.5003 -19.7378 -19.0845 -16.5721 -13.511 -15.4854 -11.3665 
-2.3335 -3.436 0 -1.4985 -3.5855 -2.7415 -4.09 -2.3345 -3.402 -2.264 -1.4985 -3.914 -1.7565 -3.8005 0 -3.8735 0 -4.9115 -1.756 -3.875 0 
-5.763 -3.436 -1.4985 -5.1475 -6.693501 -5.289001 -4.8155 -7.612 -3.793 -2.9195 -5.0465 -4.677 -5.0365 -3.8005 -3.8735 -3.8735 -4.9115 -5.9325 -5.479 -3.875 
-5.763 -4.213 -5.1475 -7.8415 -8.957001 -5.882 -10.4505 -7.732 -4.34 -6.6645 -5.7695 -8.2705 -5.0365 -5.7635 -3.8735 -8.047 -5.9325 -8.412001 -5.479 
-6.6295 -8.3325 -7.8415 -10.275 -9.601501 -11.9872 -10.6 -8.7435 -7.322001 -7.3385 -9.896 -8.2705 -7.438001 -5.7635 -8.047 -9.4725 -8.412001 -8.412001 
-10.8792 -9.743501 -10.275 -10.9195 -15.8299 -12.1367 -11.6115 -11.8169 -7.806 -11.5494 -9.896 -11.101 -7.438001 -9.852 -9.4725 -12.0166 -8.412001 
-2.264 -5.2935 -2.4285 -3.781 -3.6075 -4.1125 0 -4.8625 0 -5.1255 -1.756 -5.59 -3.3825 0 -3.5855 -4.1695 -2.8645 -3.1125 -6.237 
-7.381001 -7.688001 -6.3905 -7.9255 -8.505 -4.1125 -4.8625 -4.8625 -5.1255 -6.206 -7 -10.411 -3.3825 -3.5855 -8.7915 -7.124001 -3.5345 -7.376501 
-9.72 -9.933001 -10.749 -13.3274 -8.505 -8.040001 -4.8625 -9.25 -6.206 -9.3525 -12.0064 -10.411 -6.757501 -8.7915 -12.06 -7.545001 -7.7975 
-12.275 -14.7123 -16.1509 -13.3274 -12.5953 -8.040001 -9.25 -9.807501 -9.3525 -14.3963 -12.0064 -14.0918 -12.9887 -12.06 -12.481 -12.3886 
-17.0543 -20.1142 -16.1509 -17.4177 -12.5953 -10.147 -9.807501 -13.1372 -14.3963 -14.3963 -15.6872 -20.323 -16.2572 -12.481 -17.3246 
