-4.759 
n/a 
n/a 
n/a 
n/a 
-4.759 
n/a 
n/a 
n/a 
n/a 
-4.759 
n/a 
n/a 
n/a 
n/a 
-4.759 
n/a 
n/a 
n/a 
n/a 
-2.9805 -4.005 -3.275 -1.7565 -4.1265 -2.229 -4.0415 -3.9665 -8.003 
-5.8795 -8.2335 -5.893 -6.491001 -4.834 -5.372 -6.334 -12.9761 
-9.510501 -9.857 -10.7595 -7.137501 -7.4095 -8.047501 -16.1552 
-11.7812 -14.7813 -11.406 -10.31 -9.559 -18.0075 
-16.7055 -15.4278 -14.5785 -12.4595 -19.5766 
-1.4985 -3.757 -4.6015 -1.4985 -3.5855 -1.7565 -10.989 -1.7565 -1.4985 -4.1265 -2.229 -4.7095 -4.348 -1.756 -5.5635 -3.1435 -4.231 0 
-4.5435 -7.893001 -5.477 -4.794 -5.122 -11.353 -10.2075 -2.4195 -4.572001 -4.834 -6.294 -5.061501 -5.634 -7.13 -8.032001 -6.585 -4.231 
-8.279 -8.97 -7.4125 -5.4055 -9.432 -8.623501 -7.397 -5.174 -4.963 -7.870501 -6.374 -6.4215 -9.6715 -8.962 -10.0035 -6.585 
-9.186501 -9.995501 -7.6385 -9.1455 -9.712001 -8.816001 -9.870501 -5.521 -8.203501 -7.9155 -7.473 -9.695001 -10.1405 -10.1305 -10.0035 
-10.1005 -10.009 -10.1155 -9.889001 -9.942 -11.373 -9.845 -8.675 -8.250001 -8.972 -10.1335 -10.14 -10.147 -10.1305 
-3.757 -2.674 -4.1265 -2.229 -3.177 -4.257 -4.156 -3.275 0 
-7.1095 -8.277 -4.834 -4.81 -7.7565 -6.5735 -8.045 -3.275 
-13.0061 -8.521 -6.242 -9.018001 -9.881001 -9.992001 -8.045 
-13.2501 -11.2106 -9.826 -10.1905 -10.7535 -9.992001 
-15.9397 -14.7946 -11.2907 -11.763 -10.7535 
-1.4985 -3.275 -1.7565 -4.257 -4.795 -4.6535 -2.186 -3.1125 -4.005 -2.356 -1.4985 -3.757 -1.7565 -1.4985 -4.1265 
-4.7845 -5.893 -6.290501 -7.142 -8.875 -6.974 -6.9115 -5.929501 -6.1725 -3.1615 -4.5435 -4.5665 -2.4195 -4.572001 
-6.356 -9.166 -8.468501 -11.4994 -11.4699 -11.9711 -9.276 -7.479001 -6.7205 -6.183001 -5.3175 -4.9145 -5.174 
-9.319 -12.3372 -13.1423 -14.0943 -16.467 -14.3356 -11.0257 -8.0165 -9.094 -6.9355 -5.501 -8.280001 
-12.483 -17.011 -15.7372 -19.0914 -18.8315 -16.0853 -11.5632 -10.467 -9.427 -7.162 -8.672501 
