-4.759 
n/a 
n/a 
n/a 
n/a 
-4.759 
n/a 
n/a 
n/a 
n/a 
-4.759 
n/a 
n/a 
n/a 
n/a 
-4.759 
n/a 
n/a 
n/a 
n/a 
-2.3615 -6.933001 -3.5965 -3.5855 -7.642 -1.934 -2.915 -3.433 
-10.119 -11.1451 -4.7765 -9.8675 -9.438001 -5.4615 -4.682 
-14.3311 -12.3251 -11.7921 -11.7261 -12.9895 -6.115 
-15.5111 -19.3407 -13.6507 -15.2776 -13.643 
-22.5267 -21.1993 -17.2022 -15.9311 
-2.3615 -3.922 -2.186 -1.4985 -4.338 -1.7565 -3.5965 -3.5855 -1.934 -12.16972 -1.4985 -7.318501 -4.454 -1.7565 -3.0435 0 -4.708 -1.7565 -3.72 -3.8125 0 -6.036 0 -4.4665 -2.3345 -2.3615 -5.563 -2.186 -1.4985 -7.259 -1.7565 -1.4985 -3.16 -1.756 -1.4985 -3.4425 -1.7565 -1.4985 -3.875 0 
-6.813001 -5.748 -3.339 -5.492001 -6.521 -5.041 -4.7765 -5.265 -15.11012 -13.66822 -9.540501 -10.7335 -5.578 -4.5275 -3.0435 -4.708 -6.672 -5.4475 -7.813001 -3.8125 -6.036 -6.036 -4.4665 -6.5705 -4.499 -8.383 -6.486001 -3.339 -8.293501 -8.362 -2.4195 -4.0625 -5.1995 -3.0405 -4.548 -4.3385 -2.4195 -6.274 -3.875 
-7.7675 -6.7055 -7.986001 -7.4205 -9.094501 -5.545 -6.9425 -19.57112 -16.60862 -21.71022 -13.1511 -11.8575 -9.3165 -4.5275 -7.705501 -6.672 -10.7076 -9.457001 -7.813001 -10.3895 -6.036 -10.119 -6.5705 -9.750501 -11.1645 -10.144 -7.656001 -9.910501 -8.468 -9.318001 -5.068501 -5.714 -6.699 -6.102 -4.8815 -4.879 -7.2865 -6.274 
-9.101001 -12.3207 -9.318501 -10.1985 -9.424001 -7.616 -21.85162 -21.06962 -24.65062 -25.32082 -14.2751 -15.596 -9.3165 -9.5023 -10.749 -10.7076 -14.7171 -9.457001 -14.569 -10.3895 -10.119 -12.223 -9.750501 -16.3473 -11.6895 -10.4515 -14.6863 -10.6886 -9.410501 -12.0886 -6.949501 -6.854001 -10.3815 -6.2505 -5.3695 -10.494 -7.2865 
-14.7736 -13.6532 -12.7477 -10.4835 -11.7316 -22.72712 -23.35012 -29.11162 -28.26122 -26.44482 -18.0136 -15.596 -14.4401 -12.5458 -14.7846 -14.7171 -14.7171 -16.4928 -14.569 -14.4725 -12.223 -15.403 -16.3473 -17.2798 -12.863 -18.0021 -15.7492 -11.6311 -12.1997 -13.9696 -7.8365 -10.522 -10.53 -6.7485 -11.2013 -10.494 
-2.3615 -4.5675 -3.4405 -3.5855 -1.756 -3.5965 -3.4635 -3.326 -2.356 -1.4985 -3.0785 -1.7565 0 -10.649 0 0 -2.3615 -4.5675 -2.7415 -3.433 -1.934 -3.5855 -1.756 -3.5965 0 
-6.74 -7.477 -7.527 -4.5585 -5.135 -5.901 -6.1105 -5.8645 -3.1615 -4.779 -5.1815 -1.7565 -7.4605 -7.4605 0 -2.3615 -6.74 -6.9525 -7.973001 -5.207 -5.251 -4.5585 -5.135 -3.5965 
-9.0585 -11.8957 -8.911 -7.338 -7.319 -8.7675 -8.546 -6.737 -5.297501 -5.2205 -5.1815 -9.300501 -7.4605 -7.4605 -2.3615 -6.74 -8.197001 -12.585 -9.461 -8.2585 -5.9185 -7.338 -5.135 
-13.5152 -13.2797 -11.8051 -9.777 -10.4585 -11.907 -9.293501 -8.5425 -5.3145 -5.2205 -12.3155 -9.300501 -7.4605 -11.3086 -6.74 -8.197001 -14.1649 -14.073 -12.6463 -9.102 -9.43 -7.338 
-14.8992 -16.1738 -14.2441 -12.9717 -13.598 -12.6545 -11.2314 -8.554001 -5.3145 -12.3394 -12.3155 -9.300501 -11.3086 -15.8615 -8.197001 -14.1649 -15.6529 -17.2583 -13.4898 -12.6657 -9.43 
-1.934 -2.3615 -4.0375 -3.8755 -2.5045 -1.4985 -12.16972 -2.915 -3.433 -3.4005 -3.655 -2.5045 -3.5965 -3.5855 -6.3235 -2.3615 -12.16972 -2.5045 -1.4985 -3.5025 -1.756 -3.875 -4.0375 0 
-3.539 -6.665501 -8.049001 -5.988501 -3.583 -14.76202 -15.08472 -4.682 -5.821 -6.637 -6.271501 -6.839001 -4.7765 -8.3675 -7.767 -15.81942 -14.67422 -3.583 -4.16 -5.073 -5.479 -7.577001 -4.0375 
-7.8225 -9.9305 -10.586 -7.210001 -17.01852 -17.67702 -16.85172 -7.104001 -9.801001 -9.472 -11.104 -8.292001 -9.3195 -10.233 -22.33992 -18.32392 -15.75272 -6.3695 -5.3485 -9.992001 -9.834001 -7.577001 
-11.4227 -12.5507 -11.8075 -20.98552 -19.93352 -19.44402 -19.27372 -11.9722 -12.6996 -14.4877 -12.557 -12.081 -11.4 -25.00492 -25.23642 -19.40242 -18.53922 -7.501 -10.028 -14.7658 -9.834001 
-14.0429 -13.7722 -25.58302 -23.90052 -21.70052 -21.86602 -24.14192 -14.8708 -17.7153 -15.9407 -16.346 -14.819 -26.46092 -27.50942 -26.31492 -22.18892 -19.67072 -12.5293 -14.8692 -14.7658 
