-4.759 
n/a 
n/a 
n/a 
n/a 
-4.759 
n/a 
n/a 
n/a 
n/a 
-4.759 
n/a 
n/a 
n/a 
n/a 
-4.759 
n/a 
n/a 
n/a 
n/a 
-2.0935 -3.668 -2.3345 -4.5715 -3.8105 -1.4985 -3.0835 -4.0245 -2.4285 -3.228 -4.0245 -2.4285 -3.9785 -4.1395 -1.7565 -1.4985 -3.6765 -2.229 -3.098 0 -7.995 0 0 -4.4305 0 0 -2.8635 0 0 -4.5085 0 -2.186 -4.0225 -3.325 -6.0825 0 -6.319 -2.4285 -4.39 0 -2.925 -2.742 -3.322 -3.45 -4.1395 -3.074 -2.5195 -1.4985 -4.6955 -2.0935 -2.3615 -3.074 -2.4265 -2.186 -4.5855 -1.7695 -3.9105 -3.6555 -2.4285 -2.847 0 
-3.995 -5.866 -5.899 -6.627 -4.5835 -3.535 -5.8595 -5.9965 -6.151501 -6.6805 -5.9965 -6.6245 -8.745501 -5.398 -2.4195 -4.501 -4.9715 -4.8015 -3.098 -7.995 -7.995 0 -4.4305 -4.4305 0 -2.8635 -2.8635 0 -4.5085 -4.5085 -2.186 -5.1295 -6.703 -10.468 -6.0825 -6.319 -8.335 -6.219 -4.39 -2.925 -4.3725 -5.816 -6.7025 -6.836 -7.4425 -5.787 -3.1695 -5.892 -7.241 -3.854 -5.384501 -5.653 -3.292 -5.596 -5.247 -4.925 -5.997001 -5.616 -4.9945 -2.847 
-5.942 -8.4715 -7.6965 -7.306 -7.046 -6.1575 -7.4555 -9.922501 -8.894501 -8.3205 -11.3037 -10.718 -9.4385 -6.3325 -5.357 -5.6 -6.331 -4.8015 -11.4864 -7.995 -7.995 -4.4305 -4.4305 -4.4305 -2.8635 -2.8635 -2.8635 -4.5085 -4.5085 -7.2735 -5.1295 -7.431 -14.6322 -10.468 -8.123501 -8.335 -12.4703 -6.219 -7.561501 -4.3725 -7.397 -8.6945 -8.885 -9.598001 -9.755 -6.4295 -7.4895 -8.4805 -9.179501 -7.403 -7.990001 -6.273 -6.479 -5.99 -7.967 -7.367001 -7.2565 -5.6855 -4.9945 
-8.5165 -10.286 -8.2745 -10.134 -9.4665 -7.48 -10.4945 -10.5365 -10.5865 -14.5793 -15.3972 -11.411 -9.939501 -8.944 -6.324501 -6.851501 -6.331 -13.9185 -11.4864 -7.995 -12.9631 -4.4305 -4.4305 -7.036 -2.8635 -2.8635 -7.351501 -4.5085 -7.2735 -10.3605 -7.431 -15.9274 -14.6322 -12.509 -10.159 -12.4703 -12.4703 -9.804501 -9.0495 -7.397 -10.459 -10.9896 -11.7556 -11.9105 -10.556 -10.8861 -10.3095 -10.118 -12.9525 -8.969501 -8.632001 -10.019 -6.6845 -8.620501 -10.085 -8.1225 -7.276501 -5.6855 
-10.31 -10.864 -10.6595 -12.5545 -11.2086 -10.5745 -10.5905 -12.2285 -16.8453 -18.6728 -16.0902 -11.912 -12.551 -9.052 -8.077001 -6.851501 -16.2282 -13.9185 -11.4864 -12.9631 -12.9631 -4.4305 -7.036 -7.036 -2.8635 -7.351501 -7.351501 -7.2735 -10.3605 -12.662 -15.9274 -15.9274 -16.6732 -14.5445 -14.4565 -12.4703 -16.0558 -11.4033 -12.102 -10.459 -12.7541 -13.8602 -14.0681 -12.7115 -15.0126 -13.7061 -11.947 -13.9928 -14.519 -9.923 -12.5244 -10.2485 -9.698501 -10.9229 -10.9743 -8.1385 -7.276501 
-2.0935 -3.668 -7.995 0 -3.0835 -4.0245 0 -3.002 0 0 -2.9505 0 0 -2.8635 0 -2.4945 -1.4985 -3.9785 -1.756 -3.228 -4.1395 -2.4945 -3.557 -1.934 -1.4985 -4.7285 
-3.995 -12.3334 -7.995 -3.0835 -5.8595 -4.0245 -3.002 -3.002 0 -2.9505 -2.9505 0 -2.8635 -2.8635 -2.4945 -3.9315 -4.496 -5.6125 -5.3125 -7.525001 -5.9615 -5.304 -4.4175 -2.6125 -5.663 
-12.7684 -12.3334 -11.6161 -5.8595 -5.8595 -6.688001 -3.002 -3.002 -2.9505 -2.9505 -2.9505 -2.8635 -2.8635 -6.467 -3.9315 -7.690001 -6.102 -7.564 -8.178 -8.9995 -8.845 -5.732501 -4.9675 -6.791501 
-12.7684 -15.9545 -14.3921 -5.8595 -8.686001 -6.688001 -3.002 -4.893 -2.9505 -2.9505 -4.8425 -2.8635 -6.467 -7.507 -7.690001 -9.1855 -8.962501 -9.834001 -9.3035 -11.9798 -9.240001 -6.2285 -8.7395 
-16.3895 -18.7305 -14.3921 -8.686001 -8.686001 -6.688001 -4.893 -4.893 -2.9505 -4.8425 -4.8425 -6.467 -7.507 -11.4489 -9.1855 -12.256 -10.8619 -11.4165 -12.498 -12.3748 -9.634001 -10.476 
-2.0935 -3.668 -2.925 -3.1425 -3.855 -2.7835 -1.8085 -3.6765 -2.229 -3.098 0 -7.995 0 -4.4665 -2.356 -4.0245 0 -4.4305 0 0 0 -2.9505 0 0 0 -2.8635 0 -2.4285 -1.4985 -3.9785 -1.756 -3.228 -4.1395 -3.6955 -2.5195 -6.0825 -2.4285 -6.319 -1.756 -3.322 -2.9905 -3.45 -4.1395 -3.074 -2.5195 -1.4985 -4.3775 -4.6955 -8.2605 -3.932 -1.7695 -3.9105 -3.6555 -2.4285 -2.847 -2.0935 -3.1495 -3.6245 0 
-3.995 -6.2375 -4.669 -5.99 -5.774 -4.329 -4.452 -4.9715 -4.8015 -3.098 -7.995 -7.995 -4.4665 -5.207 -6.456 -4.0245 -4.4305 -4.4305 0 0 -2.9505 -2.9505 0 0 -2.8635 -2.8635 -2.4285 -4.002501 -4.496 -5.6125 -5.3125 -7.525001 -7.79 -4.843 -9.225 -7.964001 -8.671501 -7.3305 -5.0645 -6.0645 -6.174 -6.836 -7.4425 -5.787 -3.1695 -5.5605 -7.1775 -12.3755 -13.3075 -4.4665 -4.925 -5.997001 -5.616 -4.9945 -6.154 -4.7405 -6.764501 -3.6245 
-6.3215 -7.9715 -7.3785 -7.557 -7.601001 -5.909 -5.5075 -6.331 -4.8015 -11.4864 -7.995 -12.9991 -5.207 -8.205001 -6.456 -8.2145 -4.4305 -4.4305 0 -2.9505 -2.9505 -2.9505 0 -2.8635 -2.8635 -6.0075 -4.002501 -7.198 -6.102 -7.564 -8.178 -11.7359 -8.5785 -12.1291 -11.2789 -8.827001 -9.8675 -11.2792 -7.41 -9.4505 -9.2635 -9.598001 -9.755 -6.4295 -7.119 -8.418501 -12.7923 -17.3158 -13.9075 -7.3685 -7.367001 -7.2565 -5.6855 -7.495501 -8.8835 -8.1695 -6.764501 
-8.057 -10.1065 -8.9565 -9.5165 -9.007501 -7.348001 -7.039001 -6.331 -13.9185 -11.4864 -12.9991 -13.7396 -8.205001 -8.205001 -11.6422 -8.2145 -4.4305 -4.4305 -2.9505 -2.9505 -2.9505 -2.9505 -2.8635 -2.8635 -6.0075 -7.7325 -7.198 -9.456 -8.962501 -9.834001 -12.8407 -12.5244 -15.9878 -14.183 -12.1419 -10.032 -13.8624 -13.6247 -10.5325 -12.54 -12.1029 -11.9105 -10.556 -10.5156 -9.978001 -13.8418 -17.6198 -17.6678 -17.2275 -9.534 -8.1225 -7.276501 -7.5825 -9.873501 -12.5555 -8.1695 
-10.147 -11.6845 -11.1542 -10.923 -10.758 -8.75 -7.039001 -16.2282 -13.9185 -16.4905 -13.7396 -16.7376 -8.205001 -14.3012 -11.6422 -8.2145 -4.4305 -6.7995 -2.9505 -2.9505 -2.9505 -4.8425 -2.8635 -6.0075 -7.7325 -11.1194 -9.456 -12.3291 -10.8619 -14.9537 -13.6292 -19.9337 -18.0417 -15.046 -13.3469 -14.0269 -16.2079 -16.7472 -13.622 -15.3794 -14.4154 -12.7115 -14.6421 -13.3746 -15.4581 -18.6241 -17.9718 -20.9878 -19.393 -10.42 -8.1385 -8.875501 -9.92 -13.9325 -12.5555 
-3.668 -2.871 -3.6765 -3.098 0 -10.6925 0 -3.0835 -4.0245 0 -3.0015 0 0 -4.602 0 -1.7565 -3.6715 0 -3.979 -4.1395 -1.756 -8.4925 -5.5555 -4.066 -1.7695 -8.4055 -1.756 -3.322 -1.7695 -1.4985 -3.778 -1.756 -3.6555 -2.4285 -2.847 -3.932 0 
-6.000501 -5.168 -6.4875 -3.098 -10.6925 -10.6925 -3.0835 -5.8595 -4.0245 -3.0015 -3.0015 0 -4.602 -4.602 -1.7565 -6.7605 -3.6715 -3.979 -9.206501 -5.2725 -10.862 -10.5035 -9.9895 -4.6735 -11.1572 -9.470501 -5.0645 -5.841001 -2.7955 -5.177 -5.524 -5.3065 -5.616 -4.9945 -7.5655 -3.932 
-8.013 -9.2085 -6.4875 -14.1839 -10.6925 -13.776 -5.8595 -5.8595 -6.823 -3.0015 -3.0015 -4.602 -4.602 -8.193501 -6.7605 -6.7605 -7.807001 -9.206501 -10.5865 -15.6221 -12.873 -14.9375 -10.665 -14.4992 -12.2222 -13.055 -7.367 -6.837501 -6.483 -6.859 -9.126 -8.337501 -5.6855 -10.064 -7.5655 
-12.4555 -9.2085 -18.0302 -14.1839 -13.776 -16.552 -5.8595 -8.991 -6.823 -3.0015 -7.4185 -4.602 -8.193501 -13.3533 -6.7605 -11.452 -14.0843 -10.5865 -20.9361 -17.6331 -17.307 -15.613 -20.4907 -15.5642 -15.8067 -15.3575 -8.113 -10.468 -8.3365 -10.281 -12.2832 -8.502501 -10.513 -10.064 
-12.4555 -20.9992 -18.0302 -17.2674 -16.552 -16.552 -8.991 -8.991 -6.823 -7.4185 -7.4185 -8.193501 -13.3533 -13.3533 -11.452 -17.7293 -15.4643 -20.9361 -22.9471 -22.0671 -17.9825 -25.4387 -21.5557 -19.1487 -18.1092 -16.1035 -11.9285 -12.3215 -11.9511 -13.4382 -12.4482 -13.6992 -10.513 
