-4.759 
n/a 
n/a 
n/a 
n/a 
-4.759 
n/a 
n/a 
n/a 
n/a 
-4.759 
n/a 
n/a 
n/a 
n/a 
-4.759 
n/a 
n/a 
n/a 
n/a 
-3.2615 -2.3335 -5.3885 -3.2875 -4.09 -1.8085 -3.845 
-5.0495 -8.870501 -7.8685 -7.822001 -5.1625 -3.9645 
-12.0093 -11.6933 -12.7962 -8.587 -7.813 
-14.8321 -16.621 -13.5612 -11.3319 
-19.7598 -17.386 -16.3061 
-3.2615 -2.3335 0 -1.4985 -3.2875 -1.7565 -5.3885 -5.7505 -1.8085 -3.845 -1.7565 -3.3825 0 
-5.0495 -2.3335 -1.4985 -4.127 -4.3315 -7.235001 -11.08 -6.3985 -3.9645 -4.13 -5.1565 -3.3825 
-5.0495 -3.3515 -4.127 -4.75 -8.165501 -13.2895 -11.728 -9.015 -4.156 -7.5835 -5.1565 
-6.2185 -5.9315 -4.75 -8.489501 -14.5024 -13.9375 -14.3445 -9.030001 -7.6 -7.5835 
-8.824 -6.7675 -8.489501 -14.9768 -15.1504 -16.554 -14.3595 -12.6748 -7.6 
-3.2615 -2.3335 0 -5.3885 -3.2875 -3.251 -4.09 -1.8085 -3.845 0 
-5.0495 -2.3335 -5.3885 -7.8685 -6.462501 -6.222 -5.1625 -3.9645 -3.845 
-5.0495 -8.870501 -7.8685 -10.1635 -9.314 -6.831 -7.813 -3.9645 
-12.0093 -11.6933 -10.1635 -13.6446 -9.785501 -9.359 -7.813 
-14.8321 -13.9883 -13.6446 -14.1161 -12.3135 -9.359 
-3.2615 -2.3335 0 -5.3885 -3.2875 -4.09 -3.383 -3.4915 0 
-5.0495 -2.3335 -5.3885 -7.8685 -7.822001 -7.395 -4.8075 -3.4915 
-5.0495 -8.870501 -7.8685 -12.7962 -10.5745 -9.007 -4.8075 
-12.0093 -11.6933 -12.7962 -15.5487 -12.1865 -9.007 
-14.8321 -16.621 -15.5487 -17.1607 -12.1865 
