-4.759 
n/a 
n/a 
n/a 
n/a 
-4.759 
n/a 
n/a 
n/a 
n/a 
-4.759 
n/a 
n/a 
n/a 
n/a 
-4.759 
n/a 
n/a 
n/a 
n/a 
-3.321 -4.4025 -10.9655 -4.4785 -9.013 -1.7565 -4.474 0 -6.389 -3.986 -4.657 -1.934 -5.331 -2.5195 -1.4985 -3.7515 -1.7565 -2.7035 -1.7695 -2.6615 
-8.423 -16.0366 -15.444 -12.1265 -10.102 -6.192 -4.474 -6.389 -6.917 -8.403501 -5.156 -6.441 -8.216001 -3.1695 -4.705501 -4.6045 -4.887 -5.205 -4.739 
-20.1801 -20.5151 -23.17 -15.742 -15.0524 -6.192 -10.427 -6.917 -11.7713 -8.827001 -8.788 -8.7145 -9.290001 -6.4965 -4.844501 -6.91 -6.851 -6.368 
-24.6586 -28.2411 -26.7075 -20.3679 -15.0524 -12.4996 -11.3726 -11.7713 -12.1948 -9.901501 -10.1635 -9.822001 -12.6428 -6.561 -6.957001 -8.47 -7.779 
-32.3846 -31.7786 -31.3334 -20.3679 -21.36 -13.4452 -16.2269 -12.1948 -13.2693 -10.308 -11.8884 -13.1748 -12.7073 -8.099 -8.5235 -9.906 
-3.321 -6.3665 -6.15 -5.267 -2.264 -12.16972 -2.5045 -7.795 -2.9805 -3.511 -1.934 -12.16972 -2.5045 -2.7035 -1.7695 -2.6615 -3.7515 
-9.844501 -13.2041 -12.349 -7.663 -15.46572 -14.67422 -12.042 -10.3235 -7.128 -4.582 -15.11012 -14.67422 -4.6755 -5.205 -4.739 -6.926001 
-17.0113 -19.4031 -14.745 -21.41672 -17.97022 -24.69032 -14.1586 -14.7682 -7.9665 -18.48512 -17.61462 -16.84522 -7.5465 -6.368 -8.9905 
-23.2103 -21.7991 -28.49872 -23.92122 -27.98632 -26.32832 -18.8193 -15.6067 -22.04682 -20.98962 -19.78562 -19.71622 -8.6505 -9.8195 
-25.6063 -35.55282 -31.00322 -33.93732 -29.62432 -30.98902 -19.6578 -29.68702 -24.55132 -23.16062 -22.65662 -20.82022 -12.3576 
-3.321 -4.4025 -9.5895 -4.4785 -6.3665 -9.368 -1.7565 -9.2925 -1.756 -6.0395 -3.986 -4.657 -1.934 -12.16972 -2.5195 -2.7035 -3.277 -1.7695 -2.6615 -3.277 
-8.423 -14.6606 -14.2838 -8.8225 -16.4221 -11.2885 -11.9982 -11.4791 -7.587 -6.7285 -8.403501 -5.156 -15.11012 -14.68922 -5.3855 -5.0805 -4.9945 -4.739 -4.7555 
-18.8041 -19.3549 -18.6278 -20.2335 -18.3426 -21.5302 -14.1848 -17.3101 -8.349 -11.575 -8.827001 -18.98412 -17.62962 -17.55522 -7.8365 -7.2725 -7.7825 -6.135 
-23.4984 -23.6989 -30.0388 -22.154 -28.5843 -23.7168 -20.0158 -18.0721 -13.4207 -11.9985 -23.17412 -21.50362 -20.49562 -20.00622 -8.5515 -9.341001 -7.8865 
-27.8424 -35.1099 -31.9593 -32.3957 -30.7709 -29.5478 -20.7778 -23.1438 -13.8442 -26.34562 -25.69362 -24.36962 -22.94662 -20.72122 -9.824 -9.3865 
-3.2615 -2.3335 -4.4025 -12.16972 -3.7555 -4.4785 -1.7695 -4.474 -2.229 -5.565 -12.16972 0 -1.756 -4.714 -3.986 -4.657 -1.934 -5.331 -2.5195 -3.091 -4.8835 -4.1425 -1.7695 -5.343 -4.1425 
-5.0495 -7.338 -17.24082 -15.92522 -6.1 -5.4835 -6.567 -6.2665 -7.8725 -18.49372 -12.16972 -1.756 -6.497 -4.759 -8.403501 -5.156 -6.441 -8.216001 -4.8225 -6.672 -6.1855 -6.466001 -7.585001 -6.9595 
-9.837501 -20.57412 -20.99632 -18.26972 -7.3635 -10.9042 -7.8265 -12.7148 -21.14902 -18.49372 -13.92572 -6.497 -6.5705 -9.401501 -8.827001 -8.788 -8.7145 -10.7025 -8.707001 -8.495501 -8.283501 -9.854501 -8.6035 
-23.07362 -24.32962 -23.34082 -19.53322 -12.9566 -12.1637 -14.426 -25.99132 -21.14902 -20.24972 -18.66672 -6.5705 -11.8194 -9.817 -9.901501 -10.1635 -11.3712 -14.587 -9.956 -11.1441 -11.914 -9.916501 
-26.82912 -26.67412 -24.60432 -25.12632 -14.2161 -18.7632 -27.70252 -25.99132 -22.90502 -24.99072 -18.74022 -11.8194 -12.2349 -10.8141 -10.308 -13.4376 -15.2557 -15.836 -12.7418 -14.7746 -11.976 
