-4.759 
n/a 
n/a 
n/a 
n/a 
-4.759 
n/a 
n/a 
n/a 
n/a 
-4.759 
n/a 
n/a 
n/a 
n/a 
-4.759 
n/a 
n/a 
n/a 
n/a 
-3.676 -2.8645 -3.7555 -3.4865 -4.177 -2.356 -4.088 0 -4.685 -2.5195 -2.3615 -2.4265 -2.8645 -3.7555 -4.0205 -4.177 -2.356 -3.959 -3.115 -3.8655 0 -2.688 -4.247 0 -4.034 -1.756 -4.231 -2.3345 -1.4985 -3.5435 -3.354 -2.925 -1.7565 -3.676 0 -3.691 -1.756 -3.9885 -2.8645 -3.7555 -3.54 -3.3755 -3.8355 -4.92 -3.4945 -2.9995 -9.271501 -1.756 -3.433 -1.7565 -2.3615 -3.074 -3.676 -2.8645 -3.7555 -4.0205 -4.53 -2.356 -3.45 -3.959 0 
-5.929501 -5.647 -7.639501 -6.478001 -4.944 -6.746 -4.088 -4.685 -5.093 -4.4095 -5.3335 -4.1435 -5.647 -7.7275 -6.6 -4.944 -6.703501 -6.08 -7.156001 -3.8655 -2.688 -4.249001 -4.247 -4.034 -5.5175 -5.9505 -6.675 -3.233 -4.2755 -6.943 -4.3775 -4.898 -4.4345 -3.676 -3.691 -5.176 -5.8745 -6.5995 -5.647 -6.675 -5.8675 -7.228001 -7.2685 -7.9525 -4.9185 -10.4265 -10.4855 -5.2745 -4.1845 -3.523 -5.384501 -7.843 -5.929501 -5.647 -7.7275 -7.7775 -6.269 -5.0785 -6.0255 -3.959 
-8.616501 -9.4135 -11.0648 -6.9865 -8.7795 -6.746 -8.604 -5.093 -6.587 -6.897 -6.948 -6.906 -9.1905 -10.7404 -7.0165 -8.935 -7.797501 -7.703 -7.156001 -5.416 -4.249001 -4.249001 -6.9755 -5.5175 -8.385 -8.1975 -7.671501 -5.4055 -7.367001 -7.455 -6.495 -8.6415 -4.4345 -6.069 -5.176 -6.476501 -8.061001 -9.7185 -8.5845 -10.316 -7.851 -11.274 -10.674 -9.304 -10.451 -11.6405 -14.004 -5.8975 -5.5485 -7.4945 -11.2069 -9.728001 -8.616501 -9.1905 -11.9179 -8.631001 -8.946 -7.7885 -6.0255 
-12.5836 -12.887 -11.5733 -10.085 -8.7795 -11.8444 -8.727501 -6.587 -8.186501 -8.658501 -9.476501 -10.134 -12.4038 -11.1569 -11.1529 -9.828501 -9.286001 -7.703 -8.706 -5.45 -4.249001 -6.9755 -8.248 -8.385 -10.757 -9.5165 -10.0545 -9.6265 -7.825 -10.292 -10.6773 -8.6415 -7.158 -7.5365 -6.476501 -9.004001 -11.4462 -12.6186 -12.2979 -12.5737 -12.4614 -14.6795 -12.0255 -14.8945 -11.665 -15.159 -14.627 -6.7895 -8.722501 -13.6387 -13.0919 -12.468 -12.3606 -13.5813 -12.7714 -11.3572 -11.7548 -7.7885 
-16.0571 -13.3955 -14.6718 -10.085 -13.9635 -11.9679 -10.3607 -8.186501 -9.267501 -11.289 -12.7933 -13.3473 -12.8203 -15.2933 -12.0464 -11.2852 -9.286001 -9.063 -8.717001 -5.45 -6.9755 -8.248501 -10.2695 -10.757 -12.076 -11.9757 -14.5207 -10.2245 -10.7562 -14.4743 -10.6773 -11.716 -8.323 -8.2475 -9.004001 -12.5474 -14.3463 -16.332 -14.5556 -17.1841 -15.8669 -16.031 -17.616 -16.1085 -15.1835 -15.782 -15.519 -9.9475 -15.0833 -15.5237 -15.8319 -16.2121 -16.7514 -14.4348 -15.4976 -14.166 -11.7548 
-1.4985 -3.4225 -3.468 -5.2625 -4.0205 -4.883 -2.356 -1.4985 -3.4225 -4.0965 0 -3.691 0 -3.8655 0 -2.688 -4.247 0 -4.034 0 -3.502 -4.28 0 -1.756 -4.231 -2.4265 -3.8125 -4.6785 -2.356 -4.623 -5.148 -3.499 -2.264 -4.0415 -1.756 -3.441 -3.614 -1.756 -2.356 -3.1435 -4.868 -3.3255 -1.4985 -3.9235 -1.7565 -3.4975 -3.468 -1.756 -3.046 -3.8355 -4.582 -3.2775 -2.5045 -1.4985 -6.6165 -3.5455 -3.4975 -3.046 -3.8355 -3.8675 -2.356 -3.691 -1.756 -3.9885 0 
-3.9655 -3.628 -8.360001 -7.751 -6.707 -5.896 -3.1615 -3.9655 -4.2 -4.0965 -3.691 -3.691 -3.8655 -3.8655 -2.688 -4.249001 -4.247 -4.034 -4.034 -3.502 -4.844 -4.28 -1.756 -5.9505 -6.745001 -4.7235 -6.1735 -5.3275 -6.0225 -8.7715 -7.2885 -5.8285 -6.207 -5.4805 -4.74 -5.596001 -4.8565 -4.553 -4.6055 -6.361 -7.8785 -3.8945 -4.814 -5.24 -4.91 -6.428 -4.7175 -4.77 -5.4575 -6.0385 -7.073 -3.678 -3.583 -7.096001 -9.405001 -4.936501 -6.4795 -5.4575 -5.926001 -5.006 -6.439 -5.176 -5.8745 -3.9885 
-4.053 -8.3765 -9.923 -9.3905 -7.3945 -6.587 -5.7915 -5.179 -4.2 -6.318501 -3.691 -6.026 -3.8655 -5.416 -4.249001 -4.249001 -6.9755 -4.034 -6.6295 -4.844 -4.844 -5.884501 -5.9505 -8.0965 -9.714001 -7.829 -6.1865 -8.813001 -9.728001 -9.284 -9.2515 -9.372001 -7.522 -7.18 -6.694 -6.863 -7.789001 -6.6565 -7.2435 -8.9095 -8.5465 -7.275001 -5.8265 -6.592501 -6.627 -7.542 -8.123501 -7.0585 -6.541 -8.045501 -7.176001 -4.625 -8.830501 -9.792001 -9.459001 -6.642 -6.5795 -6.0975 -6.967 -7.984 -7.384 -6.476501 -5.8745 
-8.384501 -9.925501 -10.2425 -9.56 -7.9095 -7.813001 -7.314 -5.179 -6.3195 -6.318501 -6.026 -6.026 -5.416 -5.45 -4.249001 -6.9755 -6.9755 -6.6295 -6.739501 -4.844 -6.466 -8.489 -8.0965 -10.1945 -10.162 -7.849 -9.6075 -10.259 -9.986501 -10.2345 -10.2495 -10.164 -8.874001 -8.81 -8.043501 -9.6435 -9.915501 -9.1365 -9.489 -9.4785 -10.1345 -7.8715 -6.813001 -6.679 -7.751 -10.1225 -9.7515 -7.9255 -8.637001 -8.067 -7.5505 -9.3245 -10.131 -9.808001 -9.8205 -6.645501 -6.6315 -7.1 -8.712501 -8.762501 -7.7145 -6.476501 
-9.93 -10.2475 -10.2615 -9.883 -9.195001 -9.200001 -7.314 -7.5745 -6.3195 -6.689001 -6.026 -6.5875 -5.45 -5.45 -6.9755 -6.9755 -8.8915 -6.739501 -6.739501 -6.466 -9.007 -10.181 -10.1945 -10.2305 -10.1735 -10.218 -10.261 -10.268 -10.2665 -10.269 -10.269 -10.256 -9.346001 -9.842501 -10.0405 -10.2555 -10.263 -10.2595 -9.860001 -10.1355 -10.141 -9.057 -6.869 -7.8005 -10.122 -10.129 -10.0875 -9.801001 -8.656001 -8.403501 -10.0845 -10.131 -10.1375 -10.0535 -9.823501 -6.681 -8.455501 -8.818501 -9.109 -9.08 -7.7145 
-3.676 -2.674 -1.8085 -3.301 -4.177 -2.356 -4.088 -3.676 -2.674 -4.0205 -4.177 -2.356 -3.8655 0 -2.688 -4.247 0 -4.034 0 -4.231 0 -1.756 -5.148 -3.959 -3.676 -2.674 -4.177 -2.356 -3.691 0 -1.756 -3.9885 -2.0935 -3.8355 -3.8675 0 
-6.567 -3.63 -4.019 -6.469501 -4.944 -6.746 -7.966001 -6.567 -6.0445 -6.6 -4.944 -6.524501 -3.8655 -2.688 -4.249001 -4.247 -4.034 -4.034 -4.231 -4.231 -1.756 -6.4275 -7.1695 -7.3555 -6.567 -7.838 -4.944 -6.439 -3.691 -1.756 -5.8745 -6.456 -5.78 -5.926001 -3.8675 
-7.7535 -5.301 -6.6085 -6.7135 -8.7795 -10.2435 -11.2768 -9.8245 -9.0425 -7.0165 -8.5085 -6.524501 -5.416 -4.249001 -4.249001 -6.9755 -4.034 -7.939001 -4.231 -5.514501 -6.4275 -8.6085 -10.9244 -11.3901 -12.0116 -8.3875 -8.4195 -6.439 -5.176 -5.8745 -7.4645 -10.1145 -9.278501 -5.926001 
-9.5755 -7.2065 -6.829 -10.6465 -12.3626 -13.5543 -14.5343 -12.9173 -9.4255 -9.998 -8.5085 -8.4245 -5.45 -4.249001 -6.9755 -6.9755 -7.939001 -7.939001 -5.514501 -9.051001 -8.6085 -12.4352 -14.959 -16.8347 -12.5611 -11.9616 -8.4195 -7.384 -6.476501 -7.4645 -11.6484 -13.613 -9.278501 
-11.723 -7.359 -10.8552 -14.2296 -15.6734 -16.8118 -17.6271 -13.3003 -12.425 -9.998 -10.427 -8.455501 -5.45 -6.9755 -6.9755 -9.755501 -7.939001 -8.575001 -9.051001 -10.734 -12.4352 -16.4698 -20.4036 -17.3842 -16.1352 -11.9616 -9.182 -7.7145 -8.170501 -11.6484 -15.1469 -13.613 
-3.676 0 -4.088 -3.251 -1.8085 -3.4865 -4.53 -6.091 -2.925 -2.4945 -3.074 -3.251 -1.8085 -4.53 -4.335 -2.356 -3.8655 0 -7.1985 0 -4.034 0 -4.231 0 0 -12.16972 -2.925 -2.4945 -3.6705 -4.6735 -2.3345 -1.4985 -4.789 -3.3755 -3.8675 -2.356 -1.4985 -3.9235 -1.7565 -1.4985 -3.4975 -3.5435 0 -3.691 0 -3.9885 -2.186 -2.3335 -7.4095 -4.1975 -3.2895 0 -3.046 -3.559 0 
-3.676 -4.088 -6.941 -4.1695 -4.572001 -7.906001 -8.842501 -8.3655 -3.7675 -4.4205 -5.3525 -4.1695 -6.247001 -7.3145 -6.149 -6.524501 -3.8655 -7.1985 -7.1985 -4.034 -4.034 -4.231 -4.231 0 -12.16972 -15.09472 -3.7675 -5.072001 -8.046 -7.237 -3.233 -5.956 -9.4455 -7.936 -5.006 -3.1615 -4.814 -5.24 -2.4195 -4.3125 -6.2345 -3.5435 -3.691 -3.691 -3.9885 -6.295 -3.9765 -10.1185 -10.5685 -7.657001 -3.2895 -3.046 -5.647 -3.559 
-6.7445 -6.941 -8.061001 -6.681 -8.272501 -11.339 -11.122 -8.932 -5.576 -9.731001 -5.926 -8.801001 -8.534 -8.195001 -9.681 -6.524501 -12.0132 -7.1985 -13.1619 -4.034 -7.939001 -4.231 -4.231 -12.16972 -15.09472 -15.93722 -6.1635 -9.051001 -11.5563 -8.0965 -7.877501 -10.078 -13.9716 -8.857 -5.546 -6.4315 -5.8265 -5.796 -4.9065 -6.705 -6.2345 -7.1265 -3.691 -6.070001 -6.295 -8.338501 -12.136 -14.1854 -14.5749 -7.657001 -6.951 -5.647 -5.647 
-10.586 -8.061001 -10.6533 -9.6 -11.7125 -13.6081 -12.3241 -11.026 -11.1697 -10.556 -10.647 -10.2235 -9.239501 -11.9938 -9.681 -15.425 -12.0132 -13.1619 -13.1619 -7.939001 -7.939001 -4.231 -17.47872 -15.09472 -15.93722 -18.33322 -10.3475 -12.7275 -12.4158 -13.31 -12.1341 -14.6041 -14.8926 -9.410501 -8.6495 -7.4055 -6.324 -7.995501 -7.495501 -6.705 -10.0505 -7.1265 -6.070001 -9.007501 -8.338501 -16.7714 -15.752 -17.6524 -14.5749 -12.0169 -8.368501 -5.647 
-11.706 -10.6533 -13.5723 -13.623 -13.9564 -14.7626 -14.2407 -16.8269 -11.9947 -15.277 -12.0695 -10.6965 -13.1063 -11.9938 -20.2983 -15.425 -17.9766 -13.1619 -17.0669 -7.939001 -7.939001 -17.47872 -20.40372 -15.93722 -18.33322 -22.51722 -14.1282 -13.587 -17.6293 -17.5666 -16.6602 -15.5251 -15.4461 -12.6314 -9.342501 -7.8075 -8.558001 -10.45 -7.495501 -10.074 -10.0505 -10.5811 -9.007501 -11.3004 -16.7714 -20.2968 -19.219 -17.6524 -18.9348 -13.4344 -8.368501 
