-4.759 
n/a 
n/a 
n/a 
n/a 
-4.759 
n/a 
n/a 
n/a 
n/a 
-4.759 
n/a 
n/a 
n/a 
n/a 
-4.759 
n/a 
n/a 
n/a 
n/a 
-5.867 -1.7695 -1.4985 -4.257 -3.2615 -3.4625 -5.1745 -2.3345 -3.2495 -4.6285 -4.519 -5.3585 0 
-6.57 -2.7955 -5.0245 -7.0675 -5.2175 -8.110001 -6.008 -5.238 -7.609 -5.576 -6.8995 -5.3585 
-6.9175 -6.482501 -7.462501 -8.8165 -10.467 -8.3805 -8.254001 -9.429 -8.5555 -7.642 -6.8995 
-9.134 -8.726501 -9.117001 -14.227 -10.6605 -10.7699 -12.801 -9.979 -9.3205 -7.642 
-11.72 -10.4265 -14.6165 -14.4205 -13.0499 -15.3169 -13.351 -10.417 -9.3205 
-4.891 -2.6165 -4.688 -2.0935 -4.3455 -1.4985 -3.8755 -3.6835 -3.2895 0 
-8.227501 -6.915 -6.2385 -7.975 -5.183 -4.6775 -6.9195 -4.478 -3.2895 
-13.0238 -9.705 -12.7374 -9.163501 -8.4235 -7.665 -7.817501 -4.478 
-15.8138 -16.2149 -13.9259 -12.4514 -11.764 -9.0695 -7.817501 
-22.3237 -17.4034 -17.2138 -15.7919 -13.1685 -9.0695 
-6.144 -3.5745 -5.651501 -3.6845 -2.9995 -4.752 -2.3335 -2.925 -2.4945 -4.7155 -3.8755 -3.6835 -3.2895 0 
-8.7865 -9.1155 -7.442501 -5.9635 -7.302 -5.7915 -4.0295 -3.7675 -6.996 -8.1035 -6.9195 -4.478 -3.2895 
-13.0598 -11.488 -10.538 -8.153501 -7.626 -7.3125 -4.811 -8 -10.5535 -11.4603 -7.817501 -4.478 
-15.2593 -11.061 -13.4515 -8.356 -8.975 -8.043 -8.487 -11.8337 -13.9103 -12.3583 -7.817501 
-16.7324 -14.7264 -14.0068 -9.986 -9.8625 -12.1178 -12.5045 -15.1905 -14.8083 -12.3583 
-6.144 -3.4405 -5.651501 -4.688 -2.3335 -2.925 -2.742 -4.092 -4.509 -1.4985 -3.9005 -3.6835 -3.2895 0 
-8.995 -9.1385 -8.879001 -6.0905 -4.0295 -4.3725 -8.2815 -7.2295 -6.154 -4.797 -6.2545 -4.478 -3.2895 
-13.6545 -13.271 -11.2385 -7.5265 -5.3675 -10.054 -9.2155 -8.2345 -9.842501 -7.22 -6.685501 -4.478 
-19.7899 -14.6729 -12.8375 -8.0555 -11.228 -10.6525 -9.9285 -12.206 -12.2655 -7.6365 -6.685501 
-20.6174 -16.2719 -13.2785 -14.1164 -11.8265 -11.3655 -13.9 -14.629 -12.682 -7.6365 
