-4.759 
n/a 
n/a 
n/a 
n/a 
-4.759 
n/a 
n/a 
n/a 
n/a 
-4.759 
n/a 
n/a 
n/a 
n/a 
-4.759 
n/a 
n/a 
n/a 
n/a 
-2.5685 -3.4075 -1.756 -3.38 -4.4495 -2.4945 -4.5845 -1.934 -5.3885 0 
-6.3545 -5.099 -4.792 -7.2515 -6.1345 -6 -5.781 -6.4035 -5.3885 
-7.522501 -5.4755 -7.993001 -9.3785 -9.1825 -6.889 -10.757 -6.4035 
-7.948 -8.707001 -10.2585 -12.6003 -10.108 -12.1182 -10.757 
-11.4693 -11.1531 -13.4803 -13.5258 -15.61 -12.1182 
-2.7295 -2.7765 -3.047 -2.5685 -3.4075 -1.756 -2.5685 -3.188 -5.151 0 
-4.065 -4.5075 -3.897 -6.3545 -5.099 -4.2335 -6.2315 -9.257 -5.151 
-5.696 -6.441 -7.728 -7.522501 -8.8105 -7.965 -13.0763 -9.257 
-7.889 -11.105 -10.233 -10.543 -12.7038 -15.458 -13.0763 
-12.8236 -13.61 -13.8463 -14.4363 -20.1968 -15.458 
-4.426 -1.7565 -1.4985 -3.6115 -4.7285 -4.1555 -3.147 -5.3885 -3.1385 -3.423 -3.047 -2.5685 -3.4075 -1.756 -3.188 -3.46 -4.4495 0 
-5.47 -2.4195 -4.081 -6.5495 -8.4455 -5.77 -9.413 -9.1225 -5.9005 -5.286 -3.897 -6.3545 -5.099 -5.351 -6.8125 -6.116 -4.4495 
-5.9535 -5.180501 -6.670501 -9.978001 -9.541501 -12.177 -13.2636 -12.1937 -7.445001 -7.351 -7.728 -7.522501 -6.7105 -9.335501 -9.021501 -6.116 
-8.462501 -7.797 -10.054 -11.0524 -15.9485 -16.0276 -16.3348 -13.7382 -9.675501 -12.1952 -10.233 -9.975 -11.7924 -11.9391 -9.021501 
-10.2375 -11.2985 -11.1648 -17.4594 -19.7991 -19.0988 -17.8793 -15.9687 -14.6759 -14.7002 -13.2783 -15.1389 -14.396 -11.9391 
-2.5685 -3.4075 -1.756 -2.5685 -4.1745 -3.955 -2.4945 -3.962 -1.934 -5.3885 
-6.3545 -5.099 -4.2335 -7.104 -6.5525 -6.9355 -5.752 -4.8165 -6.4035 
-7.522501 -8.8105 -9.129001 -10.2368 -9.2795 -9.878 -6.640501 -10.1185 
-10.543 -13.8678 -12.3408 -12.9638 -12.615 -10.371 -12.2457 
-15.6003 -17.0796 -15.0678 -16.2993 -13.108 -16.2672 
