-4.759 
n/a 
n/a 
n/a 
n/a 
-4.759 
n/a 
n/a 
n/a 
n/a 
-4.759 
n/a 
n/a 
n/a 
n/a 
-4.759 
n/a 
n/a 
n/a 
n/a 
-3.948 -4.3705 -5.552 -1.756 -4.798 -3.8125 -5.108 -1.4985 -3.5125 -1.7565 -3.043 -3.995 -2.8645 -3.1125 -3.43 -1.756 -2.925 -3.074 -4.603 -2.3335 -1.4985 -3.995 -2.186 -3.43 -2.925 -1.7565 -4.377 -3.8905 
-7.115 -9.723001 -6.573 -6.089 -6.529 -9.6735 -6.344 -4.7015 -4.312 -4.6315 -7.5765 -6.472 -3.5345 -4.9425 -5.3195 -4.2585 -4.9325 -6.622 -5.5525 -3.3515 -4.712 -5.7465 -4.64 -5.0455 -4.898 -6.1545 -7.482501 
-13.2833 -10.853 -10.061 -7.723001 -12.9248 -10.3845 -8.8365 -4.846 -7.201 -8.63 -9.403001 -7.1305 -5.341 -6.447001 -7.4585 -6.357 -7.995501 -7.055 -6.4215 -6.432 -6.1195 -7.973001 -5.649 -5.285 -8.951 -10.2695 
-14.4133 -14.341 -11.8924 -14.4082 -13.6358 -12.877 -8.9145 -7.585 -11.3359 -10.586 -10.576 -9.244 -6.876 -8.503 -9.795501 -9.533501 -8.547001 -7.838 -9.910501 -6.931 -8.3395 -8.5485 -5.6955 -9.2275 -13.27 
-17.9013 -16.1724 -18.5776 -15.1192 -16.1283 -12.955 -11.8347 -11.8105 -13.2919 -11.759 -12.6895 -11.0278 -9.165501 -11.0184 -12.9818 -10.2495 -9.278001 -11.3942 -10.32 -9.363501 -8.7545 -8.5765 -9.6555 -13.6367 
-2.5045 -3.543 -1.4985 -4.8685 -5.5145 -1.7565 -3.3715 -5.2835 0 -3.995 -2.186 -3.8755 -2.3345 -1.8085 -4.377 -3.8905 0 
-5.323 -5.62 -5.8725 -8.8485 -6.4645 -4.845 -7.0965 -5.2835 -3.995 -5.7465 -5.2415 -4.4955 -3.8605 -5.0495 -7.482501 -3.8905 
-5.8685 -10.134 -10.564 -10.4855 -9.928 -8.003 -7.0965 -9.511001 -5.7465 -8.967501 -5.98 -5.999001 -7.094501 -8.552501 -7.482501 
-10.2645 -14.9453 -12.201 -13.949 -13.086 -8.003 -11.8438 -11.5447 -8.967501 -9.726001 -7.1905 -9.308001 -9.989 -8.552501 
-15.1196 -16.5823 -15.6645 -17.107 -13.086 -12.9927 -13.8775 -14.7657 -9.726001 -10.3635 -10.733 -10.7505 -9.989 
-5.6125 -1.756 -5.389 -4.073 -3.5455 -1.4985 -5.066 -3.8405 -1.756 -4.832 -1.756 -3.982 -4.073 -3.882 0 -4.5905 -1.7695 -1.4985 -3.898 -1.7565 -5.1845 -4.245 0 
-7.32 -6.929 -9.318501 -8.061501 -3.91 -6.044001 -6.9255 -5.3535 -6.287 -6.4175 -5.594 -8.165501 -8.6085 -3.882 -4.5905 -5.113 -2.7955 -5.0465 -4.9795 -6.580501 -7.991 -4.245 
-8.829 -10.4855 -13.3792 -8.370001 -7.645 -7.152 -8.126 -10.564 -8.229 -9.167001 -9.01 -12.9868 -8.6085 -8.355 -5.113 -5.582 -6.25 -5.3325 -9.765501 -8.729001 -7.991 
-10.5865 -14.5462 -13.6877 -12.267 -7.995 -8.277 -13.5849 -12.506 -11.1041 -12.6602 -13.9753 -12.9868 -13.1919 -8.5975 -5.582 -7.5295 -6.477 -9.9375 -10.546 -8.729001 
-14.6472 -14.8547 -17.5847 -12.617 -9.1225 -13.7675 -15.5269 -15.3811 -14.5973 -17.6255 -13.9753 -17.5702 -13.4344 -8.93 -7.5295 -7.738501 -10.4585 -10.664 -10.546 
-4.246 -5.414 -4.5235 -2.186 -4.7815 -1.7695 -2.674 -4.296 -1.8085 -9.857 -5.31 -3.6215 -2.543 -4.277 -3.277 -3.393 -1.756 -3.957 -1.8085 -4.277 -3.277 -3.882 -1.4985 -3.228 -3.8225 -5.638 -1.7565 -2.5685 -3.3435 -5.2025 
-7.3955 -9.358 -6.623001 -5.5035 -5.3125 -3.8225 -5.933 -5.561 -8.3715 -9.543501 -8.894501 -6.2075 -5.5705 -6.336 -4.243 -5.1685 -5.5485 -5.259501 -5.858 -6.336 -5.128 -5.3145 -3.9575 -7.604001 -6.326 -6.434 -3.938 -6.153501 -8.1675 
-10.223 -10.2445 -9.861001 -5.737 -6.0265 -7.2425 -6.6125 -11.402 -9.703 -10.453 -10.305 -8.141001 -7.555 -6.849 -5.5495 -8.962501 -6.844501 -6.7925 -7.397 -8.502501 -6.144 -8.030001 -7.797501 -7.802501 -7.280001 -7.669001 -6.907001 -10.151 
-10.289 -10.285 -9.871001 -6.431 -8.921 -8.047001 -11.055 -11.4965 -10.633 -10.3315 -10.327 -9.3 -7.9315 -8.003 -9.394 -9.6475 -8.7895 -8.340501 -9.0655 -9.357 -8.833 -10.4185 -7.9455 -8.092001 -8.167001 -9.308001 -10.5035 
-10.2985 -10.3 -10.2505 -9.1455 -9.8255 -10.9465 -10.372 -11.4445 -10.332 -10.3485 -10.337 -9.448501 -9.132 -10.4585 -9.9185 -10.384 -10.298 -9.8625 -9.954 -10.412 -10.4345 -10.447 -8.1105 -8.9145 -9.473001 -10.523 
