-4.759 
n/a 
n/a 
n/a 
n/a 
-4.759 
n/a 
n/a 
n/a 
n/a 
-4.759 
n/a 
n/a 
n/a 
n/a 
-4.759 
n/a 
n/a 
n/a 
n/a 
-3.995 -2.229 -3.739 -2.186 -1.934 -3.7075 -2.229 -4.2285 
-5.324 -5.3345 -5.6835 -4.0835 -6.1845 -5.5255 -5.858 
-7.828001 -6.8265 -7.029 -8.79 -7.4285 -9.4875 
-9.399501 -7.9505 -12.3519 -9.295 -10.208 
-9.861501 -13.5728 -12.8569 -12.5061 
-1.4985 -3.739 -1.7565 -3.995 -4.641 -3.893 -3.7075 0 
-4.208 -4.784 -5.423 -8.22 -5.812 -8.583 -3.7075 
-4.881 -8.237 -9.822001 -9.229501 -10.061 -8.583 
-8.375501 -10.419 -10.9037 -13.5459 -10.061 
-10.442 -11.6747 -15.2201 -13.5459 
-3.995 -3.3435 -4.641 -3.893 -3.7075 0 
-7.265 -6.934 -5.812 -8.583 -3.7075 
-10.459 -8.019501 -10.061 -8.583 
-11.4301 -12.5381 -10.061 
-15.9487 -12.5381 
-3.995 -2.229 -3.739 -4.641 -2.264 -3.7075 0 
-5.324 -5.3345 -7.032001 -4.7885 -5.29 -3.7075 
-7.828001 -7.700001 -7.1235 -8.926001 -5.29 
-10.0375 -7.7945 -11.692 -8.926001 
-10.0795 -12.6732 -11.692 
