-4.759 
n/a 
n/a 
n/a 
n/a 
-4.759 
n/a 
n/a 
n/a 
n/a 
-4.759 
n/a 
n/a 
n/a 
n/a 
-4.759 
n/a 
n/a 
n/a 
n/a 
-2.9805 -4.673 -9.674001 -4.764 -2.356 -1.4985 -5.62 -1.7565 -4.3915 -3.1385 -2.186 -1.4985 -3.3755 -1.7565 -4.3915 -3.8905 
-6.22 -15.3262 -14.544 -7.7995 -3.1615 -6.374001 -6.648 -6.071001 -6.8005 -5.6995 -3.339 -4.057 -4.5295 -6.071001 -7.0135 
-16.9054 -20.1962 -17.5795 -9.257501 -7.429001 -6.871 -9.6815 -8.0775 -9.123 -6.81 -5.581 -5.3375 -7.919001 -8.039001 
-21.7754 -23.2317 -19.0375 -13.6892 -8.396501 -10.586 -11.8304 -10.476 -10.019 -8.684501 -6.897 -9.007 -9.1455 
-24.8109 -24.6897 -23.4692 -14.6567 -12.0111 -12.7349 -14.2289 -11.372 -11.8935 -10.1465 -11.0231 -10.249 
-2.9805 -3.9535 -6.6575 -4.0695 -4.2425 -2.3335 -3.1335 -1.7695 -5.3435 -2.186 -3.1335 -1.7695 -3.8905 0 
-5.607 -11.0805 -7.771 -8.2025 -5.5255 -5.9635 -4.809 -6.549 -6.795 -6.2335 -4.809 -5.2345 -3.8905 
-13.427 -12.194 -12.3602 -10.218 -9.892001 -7.5265 -7.9605 -8.2445 -9.731 -8.021501 -7.3715 -5.2345 
-14.5405 -16.7832 -14.3757 -14.5845 -11.6278 -10.064 -9.147 -9.767 -9.915501 -8.704 -7.3715 
-19.1297 -18.7987 -18.7422 -16.3203 -14.1653 -10.281 -9.769 -9.933001 -9.957001 -8.704 
0 -5.2135 -3.6385 -2.186 -1.4985 -3.1335 -1.7565 -3.8905 0 -1.934 -2.3615 -3.3755 -2.9805 -4.3535 -1.756 -2.9805 -4.834 -1.4985 -6.6575 -4.0695 0 
-5.2135 -9.918 -5.351501 -3.339 -4.5045 -5.0585 -4.622 -3.8905 -1.934 -3.539 -4.8525 -5.502501 -6.7985 -6.6265 -4.3555 -7.379001 -6.454 -8.014501 -7.771 -4.0695 
-9.918 -11.753 -6.5675 -6.7835 -5.7615 -7.263 -4.622 -5.5195 -3.539 -5.301 -6.8695 -9.327001 -8.7605 -8.764 -8.99 -8.239501 -13.1658 -8.379001 -7.771 
-11.753 -12.969 -10.6465 -8.139 -7.364 -7.263 -5.9595 -7.102 -5.301 -7.181 -10.3885 -11.3372 -10.287 -13.5245 -9.897 -15.0763 -13.5303 -8.379001 
-12.969 -17.048 -12.002 -9.6455 -7.364 -8.5815 -7.549001 -8.165 -7.181 -10.621 -12.3987 -12.8637 -15.0475 -14.4315 -16.7338 -15.4408 -13.5303 
-2.9805 -3.5185 -6.6575 -6.4345 -2.7415 -1.4985 -5.5855 -2.186 -3.1385 -2.229 -3.1335 -2.186 -1.8085 -3.8905 -2.229 -7.057 -5.3695 0 
-7.6775 -11.6846 -9.243 -8.384501 -4.063 -6.43 -6.935 -6.2215 -4.6125 -5.622 -4.6915 -3.164 -5.690001 -4.803 -9.2805 -13.1107 -5.3695 
-16.2818 -14.2701 -11.2852 -9.885 -7.857 -7.703001 -11.4091 -7.6185 -7.8405 -7.2365 -6.202 -6.415 -7.535501 -13.3449 -16.0012 -13.1107 
-18.8673 -16.3123 -12.7857 -13.679 -10.749 -12.3419 -12.8061 -11.0379 -9.660501 -8.629001 -9.8135 -8.736501 -16.222 -20.0656 -16.0012 
-20.9095 -17.8128 -16.5797 -16.571 -15.3879 -13.7389 -16.2255 -12.8579 -10.69 -12.3595 -13.0676 -17.7078 -22.9427 -20.0656 
