-4.759 
n/a 
n/a 
n/a 
n/a 
-4.759 
n/a 
n/a 
n/a 
n/a 
-4.759 
n/a 
n/a 
n/a 
n/a 
-4.759 
n/a 
n/a 
n/a 
n/a 
-2.4265 -5.6155 -2.5045 -4.916 -1.7565 -3.7825 -4.7005 -1.7565 -4.7125 -1.7565 -3.391 0 -3.6885 0 -4.2655 -1.756 -3.9675 
-6.9895 -6.442501 -8.23 -5.372 -5.0275 -6.9735 -4.764 -6.5035 -5.316 -5.298 -3.391 -3.6885 -3.6885 -4.2655 -5.291 -4.942 
-8.160501 -12.9494 -8.837501 -8.241 -8.101501 -7.02 -8.511001 -7.437 -9.484 -5.298 -7.199501 -3.6885 -6.9515 -5.291 -6.936 
-15.1546 -13.5569 -11.8375 -10.6875 -8.307 -10.9578 -10.1675 -11.7668 -9.484 -9.135 -7.199501 -6.9515 -7.456 -6.936 
-15.7621 -16.5569 -14.284 -10.7115 -12.3574 -12.6143 -14.4973 -11.7668 -13.6582 -9.135 -9.961 -7.456 -8.676001 
-2.3615 -4.49 -1.4985 -4.0045 -1.7565 -3.7825 -3.6065 -4.8445 0 -4.2915 0 -4.8775 -1.756 -4.612 -2.5045 -1.8085 -4.39 -1.7565 -2.5685 0 
-7.769 -5.9395 -4.6965 -4.606501 -5.0275 -5.8455 -6.7685 -4.8445 -4.2915 -4.2915 -4.8775 -5.757 -6.273 -6.317 -3.3625 -4.9975 -4.681 -3.938 -2.5685 
-10.2535 -8.545501 -4.8345 -8.3135 -6.973001 -9.025001 -6.7685 -8.283 -4.2915 -7.1925 -5.757 -10.419 -7.716001 -6.7545 -6.756001 -5.0535 -6.757 -3.938 
-12.8595 -8.623 -8.571501 -9.379001 -9.934501 -9.025001 -9.650001 -8.283 -7.1925 -7.648 -10.419 -11.862 -8.085501 -10.76 -6.865 -7.035 -6.757 
-12.937 -12.4814 -9.562 -12.6199 -9.934501 -12.0377 -9.650001 -10.0005 -7.648 -12.9322 -11.862 -12.2315 -12.2554 -10.869 -8.8915 -7.035 
-3.1495 -3.7825 -3.319 -1.7565 -3.9675 0 -3.6885 0 -3.5005 -1.7695 -5.9965 -1.7565 -4.548 0 
-5.8665 -7.942501 -4.165 -5.5405 -3.9675 -3.6885 -3.6885 -3.5005 -6.54 -6.678501 -8.860001 -7.471001 -4.548 
-10.025 -8.510501 -7.9375 -5.5405 -6.8405 -3.6885 -6.761001 -6.54 -11.8424 -10.354 -14.6383 -7.471001 
-10.538 -12.503 -7.9375 -8.025001 -6.8405 -6.761001 -10.459 -11.8424 -15.5179 -16.4291 -14.6383 
-14.5305 -12.503 -10.6926 -8.025001 -10.513 -10.459 -15.7614 -15.5179 -21.593 -16.4291 
-2.3615 -4.612 -3.301 -1.756 -4.916 -1.7695 -3.335 -5.891 0 -11.0905 0 -3.9675 0 
-7.127501 -7.485 -4.994 -7.2075 -6.507 -4.5005 -10.396 -5.891 -11.0905 -11.0905 -3.9675 -3.9675 
-11.0497 -9.6335 -11.5215 -9.661 -10.228 -12.4155 -10.396 -17.8919 -11.0905 -15.058 -3.9675 
-13.1982 -16.5098 -13.975 -13.3022 -18.143 -12.4155 -22.3969 -17.8919 -15.058 -15.058 
-20.0745 -18.9633 -17.6162 -21.2172 -18.143 -24.4164 -22.3969 -21.8594 -15.058 
