-4.759 
n/a 
n/a 
n/a 
n/a 
-4.759 
n/a 
n/a 
n/a 
n/a 
-4.759 
n/a 
n/a 
n/a 
n/a 
-4.759 
n/a 
n/a 
n/a 
n/a 
-3.284 -3.4005 -1.934 -12.16972 -7.4715 -5.9095 0 
-5.8745 -5.069 -15.11012 -19.64122 -11.136 -5.9095 
-7.264 -19.10792 -22.58162 -23.30572 -11.136 
-21.55952 -26.57942 -26.24612 -23.30572 
-29.03102 -30.24392 -26.24612 
-2.9805 -3.9535 -3.091 -3.284 -3.4005 -2.5045 -11.0905 -7.4715 -5.9095 -3.284 
-5.607 -6.091001 -6.365 -5.8745 -5.658 -14.29 -18.562 -11.136 -10.1075 
-6.646501 -9.3995 -8.5205 -7.8505 -18.0767 -21.7615 -22.2265 -15.334 
-9.958501 -11.6742 -9.346001 -20.516 -25.5482 -25.426 -26.4245 
-12.2332 -12.4997 -22.4147 -27.9875 -29.2127 -29.624 
-2.9805 -3.9535 -2.356 -3.595 -3.284 -3.3435 -1.934 -7.4715 -5.9095 -3.284 
-5.607 -5.1375 -4.882 -8.471001 -6.271 -4.8115 -10.368 -11.136 -10.1075 
-7.1385 -8.1855 -9.651501 -11.669 -7.704 -13.9941 -14.0325 -15.334 
-10.0125 -13.0156 -12.8811 -13.102 -17.3428 -17.6586 -18.2305 
-15.0364 -16.2452 -14.3141 -22.7408 -21.0073 -21.8566 
-2.9805 -3.9535 -3.091 -3.284 -3.833 -2.5045 -11.0905 -9.401 -3.284 
-5.607 -6.091001 -6.365 -7.354501 -5.687 -14.29 -20.4915 -12.7384 
-6.646501 -9.3995 -9.094501 -8.796 -18.2179 -23.691 -23.8289 
-9.958501 -12.2482 -10.703 -21.4981 -27.6189 -27.0284 
-12.8072 -13.8567 -23.4051 -30.8991 -30.9563 
