-4.759 
n/a 
n/a 
n/a 
n/a 
-4.759 
n/a 
n/a 
n/a 
n/a 
-4.759 
n/a 
n/a 
n/a 
n/a 
-4.759 
n/a 
n/a 
n/a 
n/a 
-5.1265 -5.1845 -3.9675 -3.2295 -1.4985 -3.188 
-10.564 -8.286 -7.4235 -3.844 -3.619 
-13.6655 -12.0122 -7.759 -5.1895 
-17.3917 -12.3477 -10.1035 
-17.7272 -14.6922 
-12.16972 -9.681001 -10.124 -8.8625 -10.3915 -8.571501 
-21.85072 -20.5492 -19.0309 -19.716 -19.1104 
-32.71892 -29.4561 -29.8844 -28.4349 
-41.62582 -40.3096 -38.6033 
-52.47932 -49.0285 
-12.16972 -5.1845 -7.752 -3.188 -4.0005 -3.013 -4.4755 0 
-17.35422 -9.828001 -11.3868 -4.969501 -7.9465 -7.960501 -4.4755 
-21.99772 -13.6566 -13.1683 -8.633501 -13.5784 -7.960501 
-25.82632 -15.4381 -16.8323 -14.4758 -13.5784 
-27.60782 -19.1021 -22.6746 -14.4758 
-5.1845 -8.1225 -3.465 -1.7695 -4.4755 -2.5685 -3.2295 -1.4985 -3.188 
-14.6014 -12.0895 -3.665 -5.448 -6.844 -4.661 -3.844 -3.619 
-18.5684 -12.2895 -7.0485 -8.184501 -7.0025 -4.894 -5.1895 
-18.7684 -15.673 -10.0065 -8.5395 -7.173 -5.231 
-22.1519 -18.631 -10.558 -8.706 -7.704 
