-4.759 
n/a 
n/a 
n/a 
n/a 
-4.759 
n/a 
n/a 
n/a 
n/a 
-4.759 
n/a 
n/a 
n/a 
n/a 
-4.759 
n/a 
n/a 
n/a 
n/a 
-5.1845 -4.245 -2.186 -3.8905 -1.4985 -3.3715 -3.3435 -3.6835 
-7.991 -6.276501 -6.8395 -5.052 -4.859 -7.197001 -5.2295 
-9.797501 -11.3452 -7.835 -8.962 -8.400001 -9.5755 
-14.8662 -12.3407 -11.874 -12.7678 -10.9647 
-15.8617 -16.3797 -15.6798 -15.3325 

n/a 
n/a 
n/a 
n/a 
-1.4985 -5.1845 -4.245 -4.6525 -2.7455 -3.6065 -4.763 -1.7565 -3.3435 
-6.5205 -7.991 -8.357 -6.5805 -6.2395 -6.2 -5.1985 -4.4105 
-9.690001 -12.4224 -10.1765 -9.361501 -9.302 -6.3855 -6.9305 
-14.1512 -14.2419 -13.2165 -12.5974 -9.444501 -7.9085 
-15.9707 -17.2819 -16.4524 -12.7399 -10.9487 
-5.1845 -4.245 -2.229 -4.6525 -2.8705 -3.3435 -3.9035 
-7.991 -7.2375 -7.456 -7.745 -5.8555 -8.2915 
-11.3029 -12.9179 -10.9361 -10.575 -11.4167 
-16.9833 -16.398 -13.7661 -16.1362 
-20.4634 -19.228 -19.3273 
