-4.759 
n/a 
n/a 
n/a 
n/a 
-4.759 
n/a 
n/a 
n/a 
n/a 
-4.759 
n/a 
n/a 
n/a 
n/a 
-4.759 
n/a 
n/a 
n/a 
n/a 
-3.4765 -3.929 -6.557 -2.8645 -4.09 -1.934 -3.6065 -4.837 0 -2.4265 -3.251 -3.6885 -3.264 -1.7565 -3.1385 -1.934 -3.6845 -3.42 
-4.589 -10.9575 -9.126 -5.262 -5.2875 -4.9755 -7.186501 -4.837 -2.4265 -4.8545 -6.976 -5.0915 -3.6125 -4.388 -4.522 -5.785501 -7.495501 
-11.9607 -13.5265 -11.5019 -7.006 -7.922 -9.366501 -7.186501 -7.255501 -4.8545 -8.528 -9.4895 -5.1115 -5.281 -5.585501 -9.928 -9.132001 
-14.5297 -15.9024 -13.2459 -9.343 -12.7064 -9.366501 -9.262 -9.7215 -8.528 -11.1453 -9.509501 -6.0365 -6.328 -11.0979 -13.4571 
-16.9056 -17.6464 -15.5829 -14.3784 -12.7064 -11.5836 -11.9126 -13.4022 -11.1453 -11.1653 -10.4763 -7.7085 -12.347 -14.627 
-3.135 -4.4345 -1.7565 -4.02 -2.186 -3.5725 -3.325 -1.4985 -4.4625 -3.42 -3.4765 -1.4985 -5.1845 -5.74 -4.25 -1.934 -3.3715 -3.4425 
-7.267 -4.719 -5.4345 -5.624 -4.471 -5.944 -3.898 -5.768001 -6.088 -6.989 -4.778 -6.5205 -5.7465 -10.396 -5.8025 -4.622 -7.0315 
-7.3975 -6.891 -7.6715 -7.631001 -6.3235 -7.042 -7.4685 -6.291 -8.827001 -8.422501 -9.7465 -7.317 -10.411 -11.9485 -8.21 -8.318001 
-9.938701 -9.238001 -9.772 -9.643001 -7.773 -9.9405 -7.7335 -8.926001 -10.218 -13.4418 -10.545 -12.5873 -11.9635 -14.356 -12.1956 
-12.2857 -11.4465 -11.784 -10.3555 -10.434 -10.072 -10.3605 -10.3605 -15.2373 -14.2403 -15.8153 -14.1398 -14.371 -18.3416 
-6.557 -4.09 -3.17 -1.7565 -1.4985 -4.415 0 -2.872 -3.17 -1.7565 -1.4985 -3.511 -3.325 -1.4985 -4.4625 -3.42 0 
-11.3364 -7.677 -4.179 -2.4195 -5.9505 -4.415 -2.872 -5.3695 -4.179 -2.4195 -5.375 -6.526 -3.898 -5.768001 -6.088 -3.42 
-14.9234 -8.078 -4.497 -6.762501 -5.9505 -7.26 -5.3695 -5.822001 -4.497 -6.466501 -9.8675 -7.035501 -7.4685 -6.291 -6.088 
-15.3244 -8.349 -8.492001 -6.762501 -8.859501 -9.4665 -5.822001 -6.26 -8.462 -10.7595 -10.302 -8.4405 -7.7335 -6.291 
-15.5954 -12.4038 -8.492001 -9.445001 -11.1324 -10.052 -6.26 -10.585 -12.9762 -11.194 -11.707 -8.514 -7.7335 
-3.135 -1.7565 -4.9225 -2.4945 -3.325 -4.4625 -3.42 0 -2.7835 -6.557 -2.674 -3.1125 -4.0545 -1.4985 -4.7705 -4.134 0 
-3.9195 -6.4125 -6.9525 -5.3365 -8.0365 -6.088 -3.42 -2.7835 -10.7495 -9.433001 -3.6315 -8.528501 -5.291 -5.884501 -9.5985 -4.134 
-9.502501 -8.7425 -9.434501 -9.918 -8.6815 -6.088 -5.8695 -10.7495 -13.6255 -10.3115 -8.9145 -10.504 -10.586 -10.3885 -9.5985 
-12.0209 -11.3121 -14.2318 -10.258 -8.6815 -8.553 -14.2089 -13.6255 -14.504 -15.5945 -11.0408 -15.799 -15.09 -10.3885 
-14.5905 -16.1094 -14.5718 -10.258 -11.1743 -17.0574 -17.0849 -14.504 -19.787 -17.7208 -16.3358 -20.303 -15.09 
