-4.759 
n/a 
n/a 
n/a 
n/a 
-4.759 
n/a 
n/a 
n/a 
n/a 
-4.759 
n/a 
n/a 
n/a 
n/a 
-4.759 
n/a 
n/a 
n/a 
n/a 
-3.291 -6.4115 -4.245 -10.9935 -7.528 -3.881 -2.3345 -12.16972 0 
-10.451 -11.3539 -16.2043 -18.5215 -12.1192 -4.5275 -14.83482 -12.16972 
-15.3934 -23.3132 -23.7323 -23.1127 -12.7657 -17.79482 -14.83482 
-27.3527 -30.8412 -28.3235 -23.7592 -26.03302 -17.79482 
-34.8807 -35.4324 -28.97 -37.02652 -26.03302 
-3.571 -2.871 -1.7565 -1.4985 -3.2825 -3.3785 0 -7.831 -8.965501 -4.0385 -10.638 0 
-5.3415 -3.5385 -2.4195 -3.712 -7.264 -3.3785 -7.831 -17.6017 -13.3706 -15.4149 -10.638 
-6.1345 -3.7675 -4.687 -7.972501 -7.264 -12.4493 -17.6017 -22.0068 -24.747 -15.4149 
-6.817 -4.982 -8.485001 -7.972501 -16.4248 -22.22 -22.0068 -33.3832 -24.747 
-8.6565 -8.7445 -8.485001 -17.0157 -26.1955 -26.6251 -33.3832 -33.3832 
-12.16972 -2.229 -12.16972 -2.186 -1.4985 -3.2825 -4.245 0 
-14.39872 -14.99372 -14.35572 -3.339 -3.712 -7.8785 -4.245 
-27.16344 -17.17972 -15.50872 -4.8425 -8.203 -7.8785 
-29.34944 -18.33272 -17.01222 -9.9805 -8.203 
-30.50244 -19.83622 -22.15022 -9.9805 
-1.4985 -5.154 -12.16972 -2.229 -3.291 -4.245 -2.186 -12.16972 0 
-5.884001 -18.17392 -14.39872 -5.1395 -8.540501 -6.276501 -15.56612 -12.16972 
-19.25072 -20.40292 -17.30922 -10.884 -11.0638 -20.07182 -15.56612 
-21.47972 -23.31342 -23.05372 -13.4073 -24.85912 -20.07182 
-24.39022 -29.05792 -25.57702 -27.20262 -24.85912 
