-4.759 
n/a 
n/a 
n/a 
n/a 
-4.759 
n/a 
n/a 
n/a 
n/a 
-4.759 
n/a 
n/a 
n/a 
n/a 
-4.759 
n/a 
n/a 
n/a 
n/a 
-3.3785 -2.7455 -3.188 -8.35 -4.02 0 
-4.6985 -6.2925 -12.6754 -12.8856 -4.02 
-8.373 -16.8447 -17.211 -12.8856 
-19.4264 -21.3803 -17.211 
-23.962 -21.3803 
-3.013 -2.3585 -3.3785 -1.4985 -3.264 -8.863001 -2.229 -1.934 -1.4985 -3.188 0 
-3.8955 -4.1185 -4.6165 -4.0935 -12.4958 -11.676 -4.573 -2.6125 -3.619 -3.188 
-5.003 -5.3115 -7.002501 -14.9387 -15.3088 -14.02 -5.268 -4.377 -3.619 
-6.22 -7.7485 -17.9013 -17.7517 -17.6528 -14.715 -7.338 -4.377 
-8.575001 -18.6839 -20.7143 -20.0957 -18.3478 -16.785 -7.338 
-3.3785 -1.4985 -3.188 -9.6365 -4.02 0 
-4.6165 -3.619 -13.9619 -13.7827 -4.02 
-7.119 -14.7229 -18.1081 -13.7827 
-18.8329 -18.8691 -18.1081 
-22.9791 -18.8691 
-3.013 -2.3585 -3.3785 -1.4985 -4.02 -1.7565 -3.188 -5.1845 -3.1385 0 
-3.8955 -4.1185 -4.6165 -4.914001 -5.1665 -5.13 -8.0565 -7.4095 -3.1385 
-5.003 -5.3115 -8.339001 -5.776 -9.005 -10.27 -11.0213 -7.4095 
-6.22 -9.0695 -8.8405 -9.713501 -14.2378 -13.2348 -11.0213 
-9.932501 -9.4355 -12.8498 -14.9881 -17.2026 -13.2348 
