-4.759 
n/a 
n/a 
n/a 
n/a 
-4.759 
n/a 
n/a 
n/a 
n/a 
-4.759 
n/a 
n/a 
n/a 
n/a 
-4.759 
n/a 
n/a 
n/a 
n/a 
-3.8825 -10.488 0 -12.16972 -3.8145 -2.4945 -4.1 -2.3345 -3.277 -2.4945 -4.2695 -1.934 -3.8275 
-15.2281 -10.488 -12.16972 -15.98422 -6.5495 -7.8875 -6.368001 -5.5635 -5.237 -6.275001 -5.4675 -5.911 
-15.2281 -22.65772 -15.98422 -18.71922 -12.2415 -10.082 -10.2185 -7.539001 -9.0495 -6.4925 -9.842001 
-27.39782 -26.47222 -18.71922 -24.41122 -14.436 -13.9687 -12.194 -11.6367 -9.3695 -11.2272 
-31.21232 -29.20722 -24.41122 -26.60572 -18.3227 -15.9442 -16.2917 -11.9567 -14.201 
-3.8825 -7.299 0 -7.2215 0 -2.4945 -1.4985 -3.8145 -2.4945 -4.465 -2.3345 -3.277 0 -2.985 -2.4945 -3.2825 -1.934 -3.8275 -3.772 0 
-11.136 -7.299 -7.2215 -7.2215 -2.4945 -3.9315 -4.691 -6.5495 -6.062 -5.2135 -5.5635 -3.277 -2.985 -6.5775 -5.666 -5.0275 -5.911 -7.727 -3.772 
-11.136 -10.375 -7.2215 -10.733 -3.9315 -7.9945 -7.160501 -10.0575 -6.2845 -7.7105 -5.5635 -6.016 -6.5775 -10.688 -7.486001 -9.581501 -9.3985 -7.727 
-14.212 -10.375 -10.733 -12.17 -7.9945 -10.6816 -10.4675 -10.214 -9.0675 -7.7105 -8.2295 -9.074 -10.688 -12.508 -12.4366 -13.2328 -9.3985 
-14.212 -14.1429 -12.17 -16.233 -10.6816 -13.9886 -10.624 -13.2192 -9.0675 -10.3745 -11.4287 -13.3925 -12.508 -17.4586 -16.0879 -13.2328 
-8.3895 -6.999001 0 -6.873 -4.7315 -2.4945 -3.9285 -2.925 -2.674 -4.8275 -1.934 -4.5165 
-17.6798 -6.999001 -6.873 -10.2045 -6.3605 -5.071 -7.304 -4.1785 -6.931 -5.852 -7.024 
-14.9851 -9.243001 -10.2045 -11.8335 -8.7115 -7.998 -8.698 -8.369 -7.468 -11.5658 
-17.5561 -12.9227 -11.8335 -14.1845 -11.9837 -9.477501 -13.0831 -8.909 -13.4078 
-21.2358 -14.5517 -14.1845 -17.4567 -13.4632 -14.0274 -13.6231 -14.9358 
-7.598001 -3.152 -6.6525 -1.934 -3.772 -1.7565 -3.8275 
-11.4062 -9.1975 -7.6605 -6.028 -5.153 -4.8265 
-17.4517 -10.3989 -12.3225 -7.243001 -9.377501 
-18.6531 -15.0609 -13.5375 -11.8729 
-23.3151 -16.2759 -18.1674 
