-4.759 
n/a 
n/a 
n/a 
n/a 
-4.759 
n/a 
n/a 
n/a 
n/a 
-4.759 
n/a 
n/a 
n/a 
n/a 
-4.759 
n/a 
n/a 
n/a 
n/a 
-3.0365 -2.186 -3.776 -4.031 -2.0935 -3.952 -1.7695 -2.3335 -3.5015 
-3.66 -6.1405 -6.766001 -4.8935 -6.916 -4.9895 -4.46 -5.909 
-7.688001 -9.328501 -7.3205 -8.406 -7.718 -7.5695 -7.019 
-9.345501 -10.3105 -11.3308 -8.7405 -10.7304 -9.449 
-10.468 -14.4364 -11.6653 -13.2717 -12.6099 
-3.0365 -2.186 -2.664 -3.571 -4.031 -1.7695 -5.3705 -1.7695 -2.3335 -3.5015 0 
-3.66 -3.8555 -6.992 -5.785 -5.006 -5.874001 -6.1115 -4.46 -5.909 -3.5015 
-4.9795 -8.0375 -9.673 -6.3475 -8.6765 -6.544001 -8.818501 -7.019 -5.909 
-8.8555 -10.316 -10.4785 -9.638 -9.135501 -9.2045 -11.5655 -7.019 
-10.553 -11.1215 -13.769 -10.1525 -11.8282 -12.0293 -11.5655 
-3.0365 -2.7415 -2.871 -2.645 -4.031 -2.0935 -3.091 -4.4995 0 
-4.2225 -4.8915 -5.038 -6.304501 -4.8935 -4.5345 -7.3545 -4.4995 
-5.9715 -7.3835 -6.7405 -7.2845 -6.9185 -8.626 -7.3545 
-7.691 -9.0255 -7.8545 -9.5915 -10.476 -8.626 
-9.528501 -9.790501 -10.553 -13.2872 -10.476 
-5.211 -1.7695 -2.3335 -3.5015 -2.7415 -3.074 -1.8085 -4.031 
-6.421 -4.46 -5.909 -5.962 -4.727 -4.639 -5.249001 
-9.366501 -7.019 -7.515 -8.328501 -5.633 -7.719 
-12.0601 -9.425 -10.2085 -9.333 -8.804501 
-14.4661 -12.2043 -11.213 -12.5669 
