-4.759 
n/a 
n/a 
n/a 
n/a 
-4.759 
n/a 
n/a 
n/a 
n/a 
-4.759 
n/a 
n/a 
n/a 
n/a 
-4.759 
n/a 
n/a 
n/a 
n/a 
-6.502 0 -1.7565 -1.4985 -3.1385 -2.674 -2.985 -4.121 -5.0485 -2.5045 -3.6085 -1.756 -5.5045 0 -3.1385 -2.674 -2.985 -4.121 -5.0485 -2.5045 -3.9685 
-5.947001 -1.7565 -2.4195 -4.2575 -4.8995 -5.042 -6.031 -6.243001 -7.225 -6.601501 -5.232 -8.031 -5.317 -3.1385 -4.8995 -5.042 -6.031 -6.243001 -7.225 -6.944 
-8.3575 -2.4195 -5.013 -6.4605 -7.0665 -8.5955 -7.172501 -8.157001 -10.2085 -7.7945 -10.953 -7.8365 -9.174 -4.8995 -7.0665 -8.5955 -7.172501 -8.157001 -10.341 
-8.886001 -5.013 -7.433001 -8.4495 -10.9662 -10.4265 -8.703 -10.298 -11.4015 -14.5289 -11.8006 -12.0713 -11.216 -7.0665 -10.9662 -10.4265 -8.703 -10.459 
-11.9887 -7.433001 -9.536501 -12.6954 -12.7972 -11.957 -10.485 -11.491 -18.1359 -14.5289 -16.0354 -14.1133 -14.5825 -10.9662 -12.7972 -11.957 -10.5035 
-3.6085 -6.502 0 -4.9225 -3.9685 -5.5045 0 -4.9225 -2.4945 -3.7875 -2.8705 -4.121 -5.5585 
-10.3295 -5.947001 -4.9225 -9.3195 -10.145 -5.317 -4.9225 -6.9525 -5.3155 -6.5065 -6.469501 -9.788501 
-10.3165 -12.2456 -9.3195 -15.0741 -9.547501 -11.6788 -6.9525 -9.8505 -7.5835 -10.115 -12.547 
-16.6151 -16.9284 -15.0741 -15.0741 -16.6057 -13.9708 -9.8505 -12.0927 -11.5026 -16.2539 
-21.2979 -22.683 -15.0741 -22.1323 -18.8977 -16.8688 -12.0927 -16.0118 -17.6415 
-4.4345 -1.7565 -3.1385 -3.0695 -4.3845 -3.6085 -2.4945 -6.502 0 -1.756 -3.9685 -4.4615 -3.1385 -2.4945 -5.5045 0 0 
-4.719 -4.388 -4.286 -6.3415 -5.8455 -6.704 -9.566501 -5.947001 -1.756 -5.691 -6.385 -6.835 -4.588 -9.0205 -5.317 0 
-6.56 -5.278 -7.143001 -7.37 -8.3815 -14.6085 -10.054 -8.7025 -5.691 -7.575 -8.071501 -8.345 -11.9295 -9.111001 -5.317 
-7.146 -8.093 -8.236 -9.265 -16.392 -14.6085 -12.8095 -13.4669 -7.575 -9.354501 -9.8105 -15.8609 -11.9295 -9.111001 
-9.6155 -9.191001 -10.041 -17.3849 -16.392 -17.364 -17.5739 -15.3955 -9.354501 -11.1845 -17.3264 -15.8609 -11.9295 
-3.6085 -2.186 -1.4985 -4.121 -5.0485 -1.7695 -6.502 0 -3.1385 -1.756 -3.9685 -2.186 -1.4985 -4.121 -5.0485 -1.7695 -5.5045 0 -3.1385 0 
-5.869 -3.339 -5.189 -6.243001 -6.8655 -8.131001 -5.947001 -3.1385 -4.6325 -5.691 -6.6415 -3.339 -5.189 -6.243001 -6.8655 -7.924001 -5.317 -3.1385 -3.1385 
-6.763 -6.504 -7.125501 -8.315001 -13.9226 -8.304 -9.9975 -4.6325 -9.317 -8.146 -7.599 -6.504 -7.125501 -8.315001 -13.4691 -7.850501 -9.174 -3.1385 
-9.2145 -8.263 -9.055 -15.6147 -13.9226 -12.7725 -12.0657 -9.317 -11.9132 -9.036501 -9.517 -8.263 -9.055 -15.1612 -13.4691 -12.1487 -9.174 
-9.27 -10.3095 -16.4603 -15.6147 -18.3911 -14.8407 -17.1444 -11.9132 -12.8037 -11.1251 -9.540501 -10.3095 -16.0068 -15.1612 -17.7673 -12.1487 
