-4.759 
n/a 
n/a 
n/a 
n/a 
-4.759 
n/a 
n/a 
n/a 
n/a 
-4.759 
n/a 
n/a 
n/a 
n/a 
-4.759 
n/a 
n/a 
n/a 
n/a 
-3.8735 -2.186 -1.4985 -3.6115 -3.4635 -2.0935 -3.948 -4.0135 -1.7565 -4.2465 0 -3.6885 -3.402 -3.1385 -4.657 -2.3615 -2.186 -3.6115 -3.5015 -1.7565 -3.976 0 
-5.949 -3.339 -4.081 -8.2075 -5.9495 -5.290501 -7.6445 -4.201 -5.513 -4.2465 -3.6885 -6.6625 -7.662001 -6.756001 -7.135 -3.5005 -5.979 -5.6765 -4.783 -5.493001 -3.976 
-7.04 -5.563 -8.5375 -10.4765 -9.0695 -8.831501 -7.7165 -7.589001 -5.513 -7.509 -6.6625 -11.4889 -11.6115 -9.141001 -8.011001 -7.785501 -8.602 -8.091001 -9.2875 -5.493001 
-8.355 -9.5775 -10.9261 -13.5965 -12.8093 -8.849001 -11.3381 -7.589001 -9.122001 -9.910501 -11.4889 -15.4384 -13.9965 -10.1905 -12.7808 -10.5855 -11.3051 -12.8443 -9.2875 
-13.5249 -12.0739 -14.0461 -17.3363 -12.8268 -12.6706 -11.3381 -11.2034 -11.7783 -15.1805 -15.4384 -17.8234 -15.046 -15.1017 -15.5808 -13.2886 -16.0584 -12.8443 
-3.098 -3.2615 -3.976 -5.213 -3.8735 -2.8645 -5.101 -3.4425 -1.7565 -3.9675 0 -3.6885 -1.756 -4.8975 -1.7565 -3.9005 -2.9705 -4.796 -3.2955 
-5.4695 -8.4905 -7.8535 -8.307 -6.143 -8.73 -6.176001 -4.5535 -5.5405 -3.9675 -3.6885 -5.041 -6.2385 -6.194 -5.5045 -7.662001 -7.229 -7.429 
-11.1347 -12.788 -11.4253 -10.089 -12.4075 -10.4855 -7.2955 -8.191 -5.5405 -6.8405 -5.041 -9.6245 -7.32 -10.7978 -9.441 -12.3355 -10.0345 
-15.4322 -16.3598 -13.2073 -16.3535 -14.163 -10.538 -11.4264 -8.191 -8.025001 -7.327001 -9.6245 -10.7936 -12.2116 -14.7343 -14.1101 -15.141 
-19.004 -18.1418 -19.4718 -18.109 -14.2155 -14.6689 -11.4264 -10.9047 -8.394 -12.4971 -10.7936 -15.6852 -16.1481 -19.4034 -16.9156 
-3.291 -1.7695 -9.225 -5.213 0 -3.6885 0 -3.9675 -4.7715 -3.17 -4.6365 -3.681 -4.077 -4.644 -3.5015 -2.7415 -3.8735 0 
-4.6915 -11.9767 -14.8602 -5.213 -3.6885 -3.6885 -3.9675 -8.821001 -7.7765 -8.8655 -8.939501 -7.8385 -9.0965 -7.283 -5.962 -7.6505 -3.8735 
-15.2963 -17.6119 -14.8602 -9.529501 -3.6885 -6.431 -8.821001 -11.9366 -14.0404 -13.4001 -13.4938 -13.2562 -12.2115 -10.9043 -10.5975 -7.6505 
-20.9315 -17.6119 -19.1767 -9.529501 -6.431 -12.0271 -11.9366 -18.2005 -18.575 -17.9544 -18.9115 -16.3712 -15.8328 -15.5398 -10.5975 
-20.9315 -21.9284 -19.1767 -12.4334 -12.0271 -15.1427 -18.2005 -22.7351 -23.1293 -23.3721 -22.0265 -19.9925 -20.4683 -15.5398 
-3.2615 -3.502 -3.976 -3.8375 -3.9675 0 -3.6885 0 -1.756 -4.2085 -4.7365 -4.7715 -2.871 -1.756 -3.098 -3.8735 -2.229 -2.0935 -3.291 -3.5015 0 
-7.410501 -4.3935 -8.52 -7.568501 -3.9675 -3.6885 -3.6885 -1.756 -6.31 -9.203501 -9.367001 -7.242001 -4.864 -4.806 -7.8165 -5.3655 -4.9355 -5.3105 -6.915 -3.5015 
-7.9445 -9.613501 -12.9998 -7.568501 -6.8405 -3.6885 -5.041 -6.31 -10.316 -13.9656 -11.9887 -9.0585 -5.8745 -9.435501 -8.938 -9.5185 -8.262501 -9.824501 -6.915 
-13.7195 -14.2953 -12.9998 -10.451 -6.8405 -5.041 -9.908 -10.316 -15.5081 -16.5873 -13.8052 -10.8598 -10.1145 -10.9082 -13.2154 -13.0715 -12.9863 -9.824501 
-18.4013 -14.2953 -15.8823 -10.451 -7.327001 -9.908 -13.8574 -15.5081 -18.1298 -18.4038 -15.6065 -15.0998 -12.1924 -15.1856 -16.7684 -17.7953 -12.9863 
