-4.759 
n/a 
n/a 
n/a 
n/a 
-4.759 
n/a 
n/a 
n/a 
n/a 
-4.759 
n/a 
n/a 
n/a 
n/a 
-4.759 
n/a 
n/a 
n/a 
n/a 
-12.16972 -2.688 -3.8675 -1.934 -1.4985 -3.5435 -5.4125 -4.029 
-14.85772 -6.461 -5.6555 -2.6125 -4.2755 -9.406501 -7.5845 
-18.63072 -8.253 -6.286 -5.924 -10.126 -12.1471 
-20.42272 -9.047001 -9.894 -12.1623 -12.6352 
-21.21672 -12.7534 -16.2251 -14.6715 
-7.4775 -7.4575 -1.8085 -2.688 -3.8675 -1.7565 -4.351 -1.934 -1.7695 -3.3715 -3.319 -1.7565 -4.385 0 
-15.3146 -9.474501 -3.642 -6.461 -5.702 -5.2575 -6.3545 -4.0395 -5.0445 -7.602501 -4.165 -6.061501 -4.385 
-17.3316 -11.4746 -6.8635 -8.9965 -10.1206 -7.0795 -10.5225 -7.7325 -8.88 -7.992501 -9.551001 -6.061501 
-19.3317 -14.6961 -9.3195 -13.5573 -11.9426 -11.5445 -14.2155 -12.0192 -9.399501 -13.5581 -9.551001 
-22.5532 -17.1521 -13.9455 -15.3793 -16.4076 -15.2375 -18.5022 -12.5387 -15.0777 -13.5581 
-8.2545 -4.4895 -3.3715 -7.1505 -2.264 -3.8675 -7.4195 -2.264 -4.6555 -5.0765 -1.934 -1.4985 -4.042 
-13.0916 -7.2705 -9.809001 -8.593 -7.116501 -12.5974 -8.6975 -6.994 -9.474501 -6.26 -2.6125 -4.778501 
-15.8726 -14.124 -11.3273 -14.2933 -16.4314 -13.8754 -13.6505 -12.3858 -9.852 -6.8135 -5.9235 
-22.7261 -15.6423 -17.0276 -23.6082 -17.7094 -18.8284 -19.0423 -12.7633 -10.373 -8.275001 
-24.2444 -21.3426 -26.3425 -24.8862 -22.6624 -24.2202 -19.4198 -13.2843 -11.8345 
-5.192 -3.43 -2.664 -3.8675 -2.264 -4.042 -2.3335 -4.507 -3.5435 -5.0765 -1.934 -3.845 -1.7565 -3.772 
-8.126501 -5.286 -5.2005 -5.5115 -6.679501 -6.191501 -6.198501 -7.887501 -6.9275 -6.26 -6.872 -4.13 -5.3335 
-9.796 -7.381 -6.4915 -10.396 -9.9375 -9.452001 -9.5485 -12.1073 -7.463 -11.9024 -8.0495 -7.558001 
-11.891 -8.983 -11.611 -13.654 -13.1902 -13.101 -13.8915 -12.6428 -13.6598 -13.0799 -10.7025 
-13.493 -14.2271 -14.869 -16.9067 -16.8392 -17.444 -14.427 -18.8396 -14.8373 -15.7329 
