-4.759 
n/a 
n/a 
n/a 
n/a 
-4.759 
n/a 
n/a 
n/a 
n/a 
-4.759 
n/a 
n/a 
n/a 
n/a 
-4.759 
n/a 
n/a 
n/a 
n/a 
-1.4985 -4.962 -5.2135 -6.3435 -2.985 -3.5435 -2.3345 -4.1885 -1.8085 -3.9675 0 -2.356 -3.4915 -4.099 -5.633 -2.264 -1.4985 -4.1235 -1.7565 -5.6655 -1.7695 -4.2505 -3.519 
-7.351501 -9.343 -10.598 -8.4145 -6.2395 -6.1215 -5.4895 -4.744501 -6.421 -3.9675 -2.356 -5.7105 -5.8065 -9.052 -6.876501 -2.9195 -4.498 -5.2215 -7.101 -7.2415 -5.364 -7.404 
-9.915001 -14.7543 -10.6175 -10.598 -8.453 -8.6145 -5.935 -9.357 -6.421 -6.949 -5.7105 -7.265 -10.523 -9.1785 -7.5585 -6.2745 -5.307 -9.8465 -8.636001 -9.958501 -7.7685 
-15.3263 -14.7738 -10.637 -10.6295 -10.354 -9.128 -10.4265 -9.357 -8.01 -9.906 -7.265 -10.5975 -10.57 -9.3455 -9.361501 -6.507 -9.867001 -9.9145 -10.5535 -10.527 
-15.3458 -14.7933 -10.6685 -10.6495 -10.5645 -10.6095 -10.4265 -10.4605 -10.328 -10.6015 -10.5975 -10.617 -10.609 -10.566 -9.415501 -10.4585 -9.926001 -10.572 -10.6155 
-2.5195 -1.4985 -3.8405 -1.7565 -12.16972 -12.16972 -4.0835 -3.3715 -5.585 
-3.1695 -4.7545 -4.563 -14.87542 -24.33944 -16.25322 -7.278001 -7.705001 
-6.7345 -5.365 -18.84312 -27.04514 -28.42294 -19.44772 -9.3585 
-7.3005 -19.68832 -31.01284 -31.12864 -31.61744 -21.52822 
-21.84762 -31.85804 -35.09634 -34.32314 -33.69794 
-2.5195 -1.4985 -3.7515 -1.7565 -10.318 0 -7.4885 -4.0835 -3.849 -5.585 -2.872 -1.4985 -7.4885 -3.729 -2.9705 -4.0835 -3.436 -1.4985 -3.0835 -8.035001 -3.152 -2.6165 -3.4625 -1.8085 -4.232 0 
-3.1695 -4.705501 -4.6045 -13.0237 -10.318 -7.4885 -10.443 -7.361001 -8.2495 -7.852 -4.035 -8.1875 -11.8447 -6.2365 -7.226001 -6.754001 -4.213 -3.535 -12.3287 -12.0446 -4.6295 -5.0235 -4.6565 -4.9935 -4.232 
-6.4965 -4.844501 -16.9403 -13.0237 -17.9039 -10.443 -13.7205 -10.0225 -10.586 -8.7005 -11.0622 -12.9403 -14.3522 -10.292 -10.3965 -7.544001 -5.983 -13.1036 -16.3383 -13.5221 -6.6845 -6.284 -8.31 -4.9935 
-6.561 -17.8063 -16.9403 -20.6096 -20.8584 -13.7205 -16.382 -12.4436 -11.4345 -16.0165 -15.815 -15.4478 -18.4077 -13.7279 -11.1865 -9.2755 -15.7834 -17.1132 -17.8158 -15.5771 -9.6485 -10.6215 -8.31 
-20.128 -17.8063 -24.5262 -23.5641 -24.1359 -16.382 -18.8031 -13.2921 -18.7505 -20.7693 -18.3225 -19.5033 -21.8436 -14.5179 -12.918 -19.3509 -19.793 -18.5907 -19.8708 -18.5411 -14.071 -10.6215 
-2.5195 -10.318 -2.95 -7.4885 -4.0835 -3.3715 -4.677 0 -2.872 -1.4985 -3.8405 -3.436 -12.16972 0 -6.864 -4.644 -4.456 -3.152 -2.6165 -3.383 -3.6135 -3.8195 -2.4285 -3.7345 0 
-13.5111 -13.3654 -11.3721 -10.443 -7.278001 -8.7515 -4.677 -2.872 -4.035 -4.7545 -6.325 -16.69552 -12.16972 -6.864 -10.4765 -10.1115 -6.660501 -4.6295 -5.2735 -5.8785 -7.879 -5.995501 -6.351501 -3.7345 
-16.5585 -21.7875 -14.3266 -13.6375 -13.0056 -8.7515 -7.2785 -4.035 -7.827001 -6.9685 -19.82732 -16.69552 -19.03372 -10.4765 -15.944 -12.4296 -8.140501 -6.8695 -7.415501 -9.7825 -10.243 -9.762501 -6.351501 
-24.9806 -24.742 -17.5211 -19.3651 -13.0056 -11.481 -8.2485 -7.827001 -10.118 -20.70262 -19.82732 -23.55952 -22.64622 -15.944 -18.2621 -13.9096 -10.7025 -9.137501 -11.9471 -12.0331 -14.01 -9.762501 
-27.9351 -27.9365 -23.2487 -19.3651 -15.7351 -12.451 -12.2109 -10.118 -23.85212 -20.70262 -26.69132 -27.17202 -28.11372 -18.2621 -19.7421 -16.4716 -12.9705 -13.7861 -14.1977 -15.8001 -14.01 
