-4.759 
n/a 
n/a 
n/a 
n/a 
-4.759 
n/a 
n/a 
n/a 
n/a 
-4.759 
n/a 
n/a 
n/a 
n/a 
-4.759 
n/a 
n/a 
n/a 
n/a 
-3.9225 -3.277 0 -5.237 -3.5865 0 -5.965 -4.0955 -3.5865 0 -5.508 -7.6455 0 -2.688 -3.5865 0 -7.544 -3.5865 -1.756 -6.920001 -7.6455 -2.4945 -3.135 -1.7565 -1.4985 -5.0455 -3.7375 0 
-5.4525 -3.277 -5.237 -7.876501 -3.5865 -5.965 -8.2575 -6.407 -3.5865 -5.508 -10.907 -7.6455 -2.688 -6.224 -3.5865 -7.544 -8.767 -5.18 -8.703501 -15.3153 -10.8025 -4.575 -3.9195 -2.4195 -6.402 -9.263 -3.7375 
-5.4525 -10.104 -7.876501 -7.876501 -8.463 -8.2575 -8.301001 -6.407 -7.8095 -10.907 -10.907 -10.6605 -6.224 -6.224 -12.3659 -8.767 -10.8083 -13.1755 -17.317 -18.4723 -12.883 -5.097 -4.168 -7.014501 -10.4505 -9.263 
-12.2191 -13.0297 -7.876501 -9.305501 -9.7305 -8.301001 -8.301001 -10.4035 -14.3283 -10.907 -13.922 -14.1965 -6.224 -15.7442 -13.5889 -10.8083 -18.8038 -21.789 -20.474 -20.5528 -13.405 -5.465 -7.850501 -10.733 -10.4505 
-15.1448 -13.0297 -9.305501 -10.6664 -9.751 -8.301001 -10.7575 -17.0167 -14.3283 -13.922 -17.458 -14.1965 -15.7442 -16.9672 -15.6302 -18.8038 -27.4173 -24.946 -22.5545 -21.0748 -13.773 -8.934501 -11.7638 -10.733 
-3.7375 -1.7565 -3.277 -5.3885 -3.4075 -3.5865 0 -5.3885 -4.0955 -3.5865 0 -5.508 -3.5865 0 -2.688 -3.5865 0 -7.569 -3.5865 -1.756 -6.920001 -3.5865 -3.8185 -1.4985 -4.649 -3.35 -5.369 0 
-5.127501 -4.25 -10.0785 -8.153501 -6.252501 -3.5865 -5.3885 -9.762001 -6.407 -3.5865 -5.508 -6.958 -3.5865 -2.688 -6.224 -3.5865 -7.569 -10.634 -5.18 -8.703501 -8.582001 -8.099001 -4.662 -6.8715 -7.187 -8.401501 -5.369 
-6.142 -11.1349 -12.8435 -10.586 -6.252501 -7.666 -9.762001 -12.3487 -6.407 -7.8095 -6.958 -6.958 -6.4375 -6.224 -6.224 -12.3909 -10.634 -12.7161 -13.1755 -10.674 -13.4063 -8.863001 -10.7248 -8.875 -9.8365 -8.401501 
-13.2845 -13.8999 -15.276 -10.586 -11.5342 -12.4801 -12.3487 -12.3487 -10.4035 -8.2745 -6.958 -10.4675 -8.064501 -6.224 -15.7692 -15.4559 -12.7161 -20.7116 -15.146 -15.4983 -14.1703 -15.1918 -12.7283 -11.5923 -9.8365 
-16.0495 -16.3324 -15.276 -15.8677 -16.3483 -15.0668 -12.3487 -16.3452 -10.73 -8.2745 -10.4675 -12.4079 -8.064501 -15.7692 -18.8342 -17.538 -20.7116 -22.6821 -19.9703 -16.2623 -20.4991 -17.1953 -15.4456 -11.5923 
-5.3885 -5.237 -3.5865 0 -5.3885 -4.0955 -3.5865 0 -5.508 -3.5865 0 -2.688 -4.536 0 -7.309 -3.5865 0 -6.920001 -3.5865 -2.4945 -1.4985 -3.5865 -1.7695 -2.489 -4.4155 
-10.013 -7.876501 -3.5865 -5.3885 -9.762001 -6.407 -3.5865 -5.508 -6.958 -3.5865 -2.688 -7.872 -4.536 -7.309 -10.064 -3.5865 -6.920001 -8.582001 -6.639 -3.9315 -4.809 -5.995501 -3.1405 -5.37 
-10.2185 -7.876501 -7.666 -9.762001 -12.3487 -6.407 -7.8095 -6.958 -6.958 -6.4375 -7.872 -7.872 -13.1836 -10.064 -10.064 -9.579 -8.582001 -11.9463 -8.124001 -8.041 -6.7375 -7.3665 -6.5695 
-10.2185 -9.068501 -12.4801 -12.3487 -12.3487 -10.4035 -8.2745 -6.958 -10.4675 -10.513 -7.872 -16.8518 -15.9386 -10.064 -16.0565 -9.901001 -11.9463 -13.4313 -10.074 -10.2293 -8.1155 -11.2973 
-10.773 -14.0408 -15.0668 -12.3487 -16.3452 -10.73 -8.2745 -10.4675 -14.8564 -10.513 -16.8518 -19.6068 -15.9386 -16.0565 -16.3785 -13.4535 -13.4313 -15.3813 -12.9425 -11.6073 -12.0931 
-3.45 -3.5795 -5.3885 -5.237 -3.5865 0 -4.0955 -7.47 0 -8.6085 -3.5865 0 -7.544 -3.5865 0 -2.688 -3.5865 0 -6.920001 -3.5865 -2.4945 -5.091 0 
-7.1055 -9.570001 -10.013 -7.876501 -3.5865 -4.0955 -9.8965 -7.47 -8.6085 -9.703501 -3.5865 -7.544 -8.767 -3.5865 -2.688 -6.224 -3.5865 -6.920001 -8.582001 -6.639 -6.871 -5.091 
-13.3126 -14.3013 -10.2185 -7.876501 -7.708 -9.8965 -9.8965 -16.5923 -9.703501 -9.703501 -12.3659 -8.767 -8.767 -6.4375 -6.224 -6.224 -9.579 -8.582001 -11.9463 -11.4035 -6.871 
-18.0439 -14.5068 -10.2185 -12.6096 -14.207 -9.8965 -19.4164 -17.6873 -9.703501 -18.5957 -13.5889 -8.767 -12.0658 -8.064501 -6.224 -12.9573 -9.901001 -11.9463 -16.7108 -11.4035 
-18.2494 -14.5068 -15.2934 -19.1086 -14.207 -19.4164 -20.5114 -17.6873 -18.5957 -19.8187 -13.5889 -12.0658 -13.6928 -8.064501 -12.9573 -13.2793 -13.4535 -16.7108 -16.7108 
