-4.759 
n/a 
n/a 
n/a 
n/a 
-4.759 
n/a 
n/a 
n/a 
n/a 
-4.759 
n/a 
n/a 
n/a 
n/a 
-4.759 
n/a 
n/a 
n/a 
n/a 
-3.091 -3.0835 -4.3165 -2.7415 -3.3195 -2.264 -3.488 -3.144 -3.428 
-4.956 -7.096001 -6.9935 -5.298 -4.385 -4.790501 -6.0865 -5.693501 
-8.4835 -8.576501 -9.870001 -5.434 -6.07 -7.118501 -7.7355 
-9.1035 -12.0592 -10.1148 -7.7205 -8.5425 -9.281501 
-13.2102 -12.304 -12.4013 -9.988601 -10.5035 
-3.091 -3.0835 -3.308 -4.3165 -2.7415 -3.793 -1.934 -3.488 -2.1715 -3.428 
-4.956 -6.4995 -6.5155 -6.9935 -5.337501 -4.752 -4.9205 -4.8925 -5.196 
-8.1025 -8.5985 -8.926001 -9.938001 -5.761 -6.992 -7.5625 -6.321 
-10.248 -11.3694 -12.0727 -10.579 -7.7135 -10.3675 -9.622001 
-13.0189 -14.5161 -12.7137 -12.9145 -11.3414 -12.427 
-3.091 -3.0835 -5.1845 -4.548 -1.934 -3.488 -3.144 -3.428 0 
-4.956 -8.6225 -11.0269 -6.462 -4.9205 -6.0865 -5.693501 -3.428 
-10.061 -14.7049 -12.9409 -9.3225 -8.38 -7.7355 -5.693501 
-16.358 -16.6189 -15.8014 -12.931 -10.5975 -7.7355 
-18.272 -19.4794 -19.4099 -15.1485 -10.5975 
-3.091 -3.0835 -5.1845 -3.308 -2.7415 -3.793 -1.934 -3.488 -3.144 -3.428 0 
-4.956 -8.6225 -8.542 -6.3785 -5.337501 -4.752 -4.9205 -6.0865 -5.693501 -3.428 
-10.061 -12.22 -12.2349 -9.133 -5.761 -6.992 -8.38 -7.7355 -5.693501 
-13.8731 -15.9129 -14.9894 -10.089 -7.7135 -10.9993 -10.5975 -7.7355 
-17.566 -18.6674 -15.9454 -12.0661 -11.9732 -13.2168 -10.5975 
