-4.759 
n/a 
n/a 
n/a 
n/a 
-4.759 
n/a 
n/a 
n/a 
n/a 
-4.759 
n/a 
n/a 
n/a 
n/a 
-4.759 
n/a 
n/a 
n/a 
n/a 
-3.17 -1.7565 -4.9225 -1.934 -6.6585 -4.2655 -10.4535 -4.9225 0 
-4.179 -6.4125 -6.477 -7.809 -11.136 -15.9542 -15.376 -4.9225 
-9.287001 -7.9235 -13.0396 -12.7437 -22.8247 -20.8767 -15.376 
-10.94 -14.6725 -17.9743 -24.4324 -27.7472 -20.8767 
-17.689 -19.6072 -29.663 -29.3549 -27.7472 
-6.6585 -2.229 -4.0885 -3.288 -2.186 -6.5175 
-9.037001 -5.006001 -7.5005 -5.4075 -9.2075 
-12.0554 -8.139 -10.6465 -13.0926 
-15.1884 -11.7748 -18.3316 
-18.8242 -19.4599 
-4.628 -6.9645 -3.17 -1.7565 -3.1385 -2.4945 -12.16972 
-7.012 -10.249 -4.179 -4.388 -4.588 -16.09242 
-10.2645 -10.5225 -7.521 -5.892 -19.04912 
-10.542 -13.8645 -8.700001 -20.63332 
-13.884 -15.0435 -23.63132 
-3.17 -1.7565 -1.4985 -9.924001 -4.02 -2.4945 -9.634001 
-4.179 -2.4195 -12.5163 -14.2176 -6.378 -13.5567 
-4.497 -13.6281 -16.8099 -16.5756 -17.79 
-16.2416 -17.9217 -19.1679 -27.9876 
-20.5352 -20.2797 -30.5799 
