-4.759 
n/a 
n/a 
n/a 
n/a 
-4.759 
n/a 
n/a 
n/a 
n/a 
-4.759 
n/a 
n/a 
n/a 
n/a 
-4.759 
n/a 
n/a 
n/a 
n/a 
-4.518 -3.7455 -2.674 -4.1925 -3.2895 -2.0935 -4.1865 -3.5035 -3.729 -4.0395 0 
-4.659 -6.9145 -7.5185 -9.272501 -5.6595 -6.2405 -6.743 -7.255 -6.665 -4.0395 
-7.63 -12.1442 -13.0219 -12.0163 -9.166 -9.127001 -11.0615 -10.6222 -6.665 
-12.9527 -17.6476 -15.7657 -15.5228 -12.4637 -13.7515 -14.4287 -10.6222 
-18.4561 -20.3914 -19.2722 -18.8205 -17.0882 -17.1187 -14.4287 
-3.299 -3.7455 -1.7565 -3.8735 -2.674 -1.4985 -4.712 -3.519 -1.7565 -4.1865 -4.579 0 
-5.544001 -4.7725 -5.112 -6.702 -3.998 -5.178 -6.9805 -4.6225 -5.463 -7.4635 -4.579 
-6.5865 -7.4285 -7.712 -8.34 -7.136001 -7.518001 -8.127501 -8.8255 -8.778001 -7.4635 
-9.73 -9.978001 -9.562 -11.7878 -8.0775 -8.203501 -12.9557 -12.4393 -8.778001 
-12.3269 -11.9048 -13.0878 -12.7293 -8.488001 -13.1515 -16.5695 -12.4393 
-1.4985 -3.717 -1.7565 -3.84 -1.934 -3.8735 -2.186 -3.325 -1.4985 -3.4985 -1.7565 -4.518 -3.7455 0 
-5.2815 -5.34 -5.6425 -5.6145 -4.885 -5.949 -5.2405 -3.898 -4.798 -4.622 -6.403501 -4.659 -3.7455 
-5.745 -9.054501 -7.185 -8.861501 -6.6635 -8.7345 -6.0125 -5.8625 -5.425 -9.6185 -6.647501 -4.659 
-9.758 -10.6236 -10.711 -10.8622 -9.451501 -9.731 -7.0855 -5.8915 -10.1065 -10.046 -6.647501 
-11.4261 -14.1496 -12.7117 -13.6502 -10.323 -10.663 -7.1215 -10.1855 -10.534 -10.046 
-2.5045 -3.543 -1.4985 -4.1865 -3.5035 -3.2 0 -4.518 -3.7455 -2.8645 -1.4985 -8.710501 -3.519 
-5.323 -5.62 -5.177 -6.743 -6.889 -3.2 -4.518 -4.659 -5.5765 -4.3545 -9.4925 -11.6395 
-5.8685 -8.665001 -7.894001 -10.172 -6.889 -8.223001 -4.659 -6.18 -7.196 -11.1945 -10.9795 
-8.6815 -10.3155 -10.749 -10.172 -9.321501 -8.3535 -6.18 -8.2045 -15.1796 -13.0344 
-10.322 -13.1705 -10.749 -12.6045 -9.3225 -10.4005 -8.2045 -15.8883 -16.8411 
