-4.759 
n/a 
n/a 
n/a 
n/a 
-4.759 
n/a 
n/a 
n/a 
n/a 
-4.759 
n/a 
n/a 
n/a 
n/a 
-4.759 
n/a 
n/a 
n/a 
n/a 
-10.1485 0 -5.9595 -10.8475 0 -5.9595 -10.8475 0 -6.1895 -5.5785 0 -8.7875 -12.16972 0 -4.567 -6.885 0 -5.9595 -12.16972 -2.674 -3.881 -3.3715 -4.0945 -2.0935 -7.093 
-10.1485 -5.9595 -17.6908 -10.8475 -5.9595 -17.6908 -10.8475 -6.1895 -6.407001 -5.5785 -8.7875 -21.12122 -12.16972 -4.567 -9.597 -6.885 -5.9595 -19.01302 -14.84372 -5.5815 -6.8345 -7.7755 -5.85 -9.8655 
-16.2274 -17.6908 -17.6908 -16.807 -17.6908 -17.6908 -17.037 -6.407001 -6.407001 -15.2374 -21.12122 -21.12122 -16.73672 -9.597 -9.597 -13.7119 -19.01302 -21.68702 -17.75122 -7.639 -10.435 -9.263 -14.0992 
-27.9587 -17.6908 -23.6503 -28.5383 -17.6908 -23.8803 -17.2545 -6.407001 -16.5121 -27.57112 -21.12122 -25.68822 -21.76672 -9.597 -16.3585 -26.76542 -21.68702 -24.59452 -19.80872 -11.3871 -11.9225 -17.57 
-27.9587 -23.6503 -35.3816 -28.5383 -23.8803 -24.0978 -17.2545 -16.5121 -28.84582 -27.57112 -25.68822 -30.71822 -21.76672 -16.3585 -29.41202 -29.43942 -24.59452 -26.65202 -23.55682 -12.8746 -20.2295 
-6.863 0 -5.9595 -10.8475 0 -5.9595 -9.809501 0 -6.1895 -5.5785 0 -10.215 -11.128 0 -4.121 -6.0695 -6.885 0 -6.7685 -12.16972 -1.756 -3.845 -1.7565 -2.8965 -3.1385 -3.251 -3.7855 -5.4425 -5.279 0 
-6.863 -5.9595 -17.6908 -10.8475 -5.9595 -16.6528 -9.809501 -6.1895 -6.407001 -5.5785 -10.215 -21.4462 -11.128 -4.121 -10.0195 -10.4855 -6.885 -6.7685 -19.55582 -13.92572 -6.399 -4.13 -4.5345 -4.8735 -5.812 -5.8015 -8.934501 -9.0535 -5.279 
-10.3745 -17.6908 -17.6908 -16.807 -16.6528 -16.6528 -16.212 -6.407001 -6.407001 -16.6649 -21.4462 -21.4462 -15.249 -10.0195 -14.4355 -10.4855 -14.5209 -19.55582 -21.31182 -18.56872 -7.2605 -6.075 -6.0395 -7.387001 -8.2755 -11.6503 -12.7775 -9.0535 
-22.1058 -17.6908 -23.6503 -27.5003 -16.6528 -23.0553 -16.4295 -6.407001 -17.9396 -27.8961 -21.4462 -25.5672 -21.1475 -14.4355 -14.4355 -18.1214 -27.30822 -21.31182 -25.95482 -19.43022 -8.4075 -6.9585 -8.621 -9.793501 -14.4365 -15.4933 -12.7775 
-22.1058 -23.6503 -34.3436 -27.5003 -23.0553 -23.2728 -16.4295 -17.9396 -29.1708 -27.8961 -25.5672 -31.4657 -25.5635 -14.4355 -22.0714 -30.90872 -29.06422 -25.95482 -26.81632 -20.57722 -9.755501 -9.065001 -11.1347 -15.9315 -18.2795 -15.4933 
-6.863 0 -5.9595 -12.16972 0 -12.16972 0 -6.1895 -5.5785 0 -8.5695 -12.16972 0 -5.746 -6.0695 -6.885 0 -5.9595 -12.16972 -1.756 -3.769 -3.074 -3.6845 -3.301 -8.481501 -1.7695 -2.3615 0 
-6.863 -5.9595 -19.01302 -12.16972 -12.16972 -12.16972 -6.1895 -6.407001 -5.5785 -8.5695 -21.29982 -12.16972 -5.746 -12.6859 -10.4855 -6.885 -5.9595 -19.01302 -13.92572 -4.496 -6.505 -5.86 -6.606501 -10.5535 -9.381001 -3.736 -2.3615 
-10.3745 -19.01302 -19.01302 -24.33944 -12.16972 -18.35922 -6.407001 -6.407001 -15.0194 -21.29982 -21.29982 -17.91572 -12.6859 -17.1019 -10.4855 -13.7119 -19.01302 -20.76902 -16.66572 -7.271 -9.649 -8.4725 -14.4896 -11.453 -12.0375 -3.736 
-23.42802 -19.01302 -31.18274 -24.33944 -18.35922 -18.57672 -6.407001 -16.2941 -27.74972 -21.29982 -27.04582 -24.85562 -17.1019 -17.1019 -17.3124 -26.76542 -20.76902 -23.50902 -19.44072 -10.3405 -12.2549 -16.69 -15.3891 -14.1095 -12.0375 
-23.42802 -31.18274 -31.18274 -30.52894 -18.57672 -18.57672 -16.2941 -29.02442 -27.74972 -27.04582 -33.98572 -29.27162 -17.1019 -23.9288 -30.36592 -28.52142 -23.50902 -26.28402 -22.51022 -12.9464 -20.4724 -17.5895 -18.0456 -14.1095 
-6.863 0 -5.9595 -10.8475 0 -5.9595 -9.809501 0 -8.683001 -5.5785 0 -10.7545 -12.16972 0 -5.0585 -7.8855 0 -5.9595 -12.16972 -2.4945 -3.45 -3.0695 -4.0385 -3.135 -4.676 -3.594 0 
-6.863 -5.9595 -17.6908 -10.8475 -5.9595 -16.6528 -9.809501 -8.683001 -8.966001 -5.5785 -10.7545 -22.92422 -12.16972 -5.0585 -9.462 -7.8855 -5.9595 -19.01302 -14.66422 -5.1125 -4.273 -5.686501 -6.593 -6.933001 -9.423 -3.594 
-10.3745 -17.6908 -17.6908 -16.807 -16.6528 -16.6528 -18.7055 -8.966001 -8.966001 -17.2044 -22.92422 -22.92422 -17.22822 -9.462 -9.462 -14.3252 -19.01302 -21.50752 -17.28222 -5.9735 -7.45 -8.196 -10.304 -12.0072 -9.423 
-22.1058 -17.6908 -23.6503 -27.5003 -16.6528 -25.5488 -18.9885 -8.966001 -20.8083 -29.37412 -22.92422 -27.98272 -21.63172 -9.462 -16.3423 -27.37872 -21.50752 -24.12552 -18.14322 -9.883 -10.388 -12.215 -15.5834 -12.0072 
-22.1058 -23.6503 -34.3436 -27.5003 -25.5488 -25.8318 -18.9885 -20.8083 -32.97802 -29.37412 -27.98272 -32.38622 -21.63172 -16.3423 -29.39582 -29.87322 -24.12552 -24.98652 -22.05272 -12.8404 -14.639 -17.4944 -15.5834 
