-4.759 
n/a 
n/a 
n/a 
n/a 
-4.759 
n/a 
n/a 
n/a 
n/a 
-4.759 
n/a 
n/a 
n/a 
n/a 
-4.759 
n/a 
n/a 
n/a 
n/a 
-3.5385 -2.5195 -1.4985 -6.8885 -3.152 -6.0945 -3.7555 -4.794 0 -2.9705 -2.186 -3.074 -1.8085 -4.031 -2.0935 -4.7565 0 
-5.539001 -3.1695 -7.547501 -8.719 -7.2915 -9.853001 -7.7795 -4.794 -2.9705 -3.89 -4.156 -4.639 -5.249001 -4.8935 -7.4615 -4.7565 
-6.4125 -9.356 -9.139 -12.9669 -11.8846 -13.9432 -7.7795 -8.2945 -3.89 -5.816 -4.962 -7.719 -6.021 -8.6715 -7.4615 
-13.0734 -11.1109 -13.4287 -17.56 -15.9748 -13.9432 -10.485 -8.991501 -5.816 -6.818501 -7.993001 -8.369 -9.878 -8.6715 
-14.8283 -15.4006 -18.0218 -21.6502 -15.9748 -16.6487 -11.182 -11.0809 -6.818501 -9.321501 -8.691501 -12.339 -9.878 
-1.4985 -6.441 -3.5095 -1.4985 -5.3365 -3.8255 -2.9905 -1.7565 -3.277 -2.186 -5.169 -2.871 -1.7565 -4.031 -2.0935 -2.3615 -4.017 
-9.335 -11.0145 -4.7225 -6.4715 -10.058 -5.744 -3.6185 -4.25 -5.384 -7.4735 -8.528501 -3.5385 -5.849501 -4.8935 -3.854 -5.5615 
-14.1101 -12.2275 -9.848501 -11.6316 -12.3749 -5.9855 -6.205 -5.8615 -10.7673 -10.7335 -9.338 -8.693 -7.515501 -5.804 -7.283 
-15.3231 -17.3535 -15.1806 -13.9485 -12.6164 -8.651501 -8.218 -11.2434 -14.0273 -11.543 -14.5895 -10.0605 -9.1385 -9.487 
-20.4491 -22.6856 -17.4975 -14.19 -15.2824 -10.0675 -13.8379 -14.5034 -14.8368 -16.7945 -15.957 -11.7449 -12.7235 
-1.4985 -4.873 -2.674 -4.9335 -2.3335 -1.4985 -6.0885 -5.0405 -2.9905 -1.7565 -3.8335 -2.5195 -4.938 -5.4815 -2.4945 -3.8175 -4.031 -2.0935 -2.3615 
-6.0205 -7.7995 -6.166 -5.9215 -3.3515 -7.4545 -9.5235 -6.991 -3.6185 -5.8355 -6.141 -7.2915 -11.7797 -8.695001 -6.2215 -6.49 -4.8935 -3.854 
-8.7615 -10.4765 -7.081 -6.625 -9.309001 -10.749 -11.6262 -8.3275 -8.14 -7.592 -11.4708 -14.553 -14.9932 -12.525 -10.085 -6.8945 -5.804 
-11.7965 -10.703 -7.822 -12.7225 -12.6007 -12.8517 -12.9627 -13.282 -10.66 -13.2814 -18.7323 -17.7665 -18.8232 -16.3885 -10.3665 -7.768 
-12.023 -11.444 -14.0281 -16.0142 -14.7034 -14.1882 -17.9172 -15.802 -16.3494 -20.5429 -21.9458 -21.5965 -22.6867 -16.67 -11.24 
-1.4985 -3.535 -4.031 -2.0935 -1.4985 -4.017 
-4.255 -5.8145 -4.8935 -2.9725 -4.9995 
-5.876 -6.2975 -5.596 -6.237 
-6.398 -6.9575 -8.481501 
-6.987 -9.146 
