-4.759 
n/a 
n/a 
n/a 
n/a 
-4.759 
n/a 
n/a 
n/a 
n/a 
-4.759 
n/a 
n/a 
n/a 
n/a 
-4.759 
n/a 
n/a 
n/a 
n/a 
-3.5905 -6.7975 0 -5.7865 0 0 -4.0275 -3.6505 0 
-10.1555 -6.7975 -5.7865 -5.7865 0 -4.0275 -6.8435 -3.6505 
-10.1555 -9.258 -5.7865 -5.7865 -4.0275 -6.8435 -6.8435 
-12.7226 -9.258 -5.7865 -10.9856 -6.8435 -6.8435 
-12.7226 -9.258 -10.9856 -13.8016 -6.8435 
-3.5905 0 -5.463 0 -5.7865 0 0 -4.4485 -3.9825 0 
-3.5905 -5.463 -5.463 -5.7865 -5.7865 0 -4.4485 -6.759 -3.9825 
-9.133 -5.463 -11.8781 -5.7865 -5.7865 -4.4485 -6.759 -6.759 
-9.133 -11.8781 -11.8781 -5.7865 -11.4066 -6.759 -6.759 
-15.7217 -11.8781 -11.8781 -11.4066 -13.7171 -6.759 
-3.5905 -8.5275 0 -7.661 0 0 -4.0275 -4.1665 0 -1.8085 
-12.6432 -8.5275 -7.661 -7.661 0 -4.0275 -8.997 -4.1665 -1.8085 
-12.6432 -16.5041 -7.661 -7.661 -4.0275 -8.997 -8.997 -6.471 
-20.6198 -16.5041 -7.661 -12.3541 -8.997 -8.997 -11.4691 
-20.6198 -16.5041 -12.3541 -17.3236 -8.997 -11.4691 
-3.5905 0 -5.463 0 -5.7865 0 -4.0275 -4.609 0 0 -1.8085 0 
-3.5905 -5.463 -5.463 -5.7865 -5.7865 -4.0275 -6.966001 -4.609 0 -1.8085 -1.8085 
-9.133 -5.463 -11.8781 -5.7865 -10.9856 -6.966001 -6.966001 -4.609 -1.8085 -1.8085 
-9.133 -11.8781 -11.8781 -10.9856 -13.9241 -6.966001 -6.966001 -7.0445 -1.8085 
-15.7217 -11.8781 -17.0772 -13.9241 -13.9241 -6.966001 -9.755 -7.0445 
