-4.759 
n/a 
n/a 
n/a 
n/a 
-4.759 
n/a 
n/a 
n/a 
n/a 
-4.759 
n/a 
n/a 
n/a 
n/a 
-4.759 
n/a 
n/a 
n/a 
n/a 
-6.4015 0 -4.7975 -1.7565 -4.3075 0 -9.829 -8.92 -2.5685 -1.7565 -2.3615 -3.034 -3.2955 -5.1565 -1.4985 -5.92 -3.681 -1.756 -2.4265 -2.882 -2.489 -4.296 -3.2615 -3.158 -1.7565 -5.1915 0 
-6.4015 -4.7975 -7.136 -5.902 -4.3075 -9.829 -19.329 -11.7617 -3.887 -3.523 -5.7235 -5.4985 -9.288 -7.0435 -6.984 -10.4185 -5.349 -3.949 -4.4545 -3.631 -5.6415 -7.079 -5.9675 -4.71 -7.664001 -5.1915 
-10.139 -7.136 -10.0315 -5.902 -15.0405 -19.329 -22.1707 -13.0802 -5.316 -6.9175 -8.837 -12.5236 -11.354 -12.9532 -11.8737 -12.0865 -6.9715 -5.951 -4.8375 -6.8245 -8.2135 -10.76 -7.643 -10.0645 -7.664001 
-12.6073 -10.0315 -10.0315 -17.1512 -24.5405 -22.1707 -23.4892 -14.5092 -7.949 -10.074 -16.0161 -14.5896 -17.2637 -17.8429 -13.5417 -13.709 -8.98 -6.3735 -8.597501 -9.529 -12.1027 -12.4355 -13.3483 -10.0645 
-15.5028 -10.0315 -21.2807 -26.6512 -27.3822 -23.4892 -24.9182 -17.1422 -11.4081 -17.3091 -18.0821 -20.4993 -22.1534 -19.5109 -15.1642 -15.7175 -9.413501 -10.067 -11.5252 -13.4504 -13.7782 -18.1408 -13.3483 
-5.127 -2.186 -1.4985 -2.9965 -4.5445 -3.436 -1.934 -1.4985 -3.995 
-6.702001 -3.339 -5.3455 -7.854501 -8.158001 -5.8855 -2.6125 -4.712 
-7.812 -7.5315 -9.347 -11.4082 -10.9127 -6.5755 -6.1055 
-12.6207 -11.6906 -13.2637 -14.1629 -11.6027 -9.218 
-16.7798 -15.6073 -16.0184 -14.8529 -14.2452 
-3.616 -4.4525 0 -4.6625 -1.756 -8.608001 -8.92 -3.1495 -3.074 -4.079 -1.7695 -5.1915 -3.158 -7.4995 0 
-5.8925 -4.4525 -4.6625 -5.769001 -11.0145 -18.0606 -12.3427 -6.687 -6.3095 -5.261 -7.236001 -8.456 -11.7497 -7.4995 
-5.8925 -8.766001 -5.769001 -15.9841 -20.4671 -21.4833 -15.8802 -10.6735 -7.0065 -11.6449 -10.5225 -17.2907 -11.7497 
-10.634 -10.3545 -15.9841 -25.4367 -23.8898 -25.0208 -19.8667 -11.3705 -13.6822 -14.9314 -19.3572 -17.2907 
-12.2225 -20.5696 -25.4367 -28.8594 -27.4273 -29.0073 -20.5637 -18.0462 -16.9687 -23.7661 -19.3572 
-2.7835 -1.4985 -4.3435 -1.7565 -6.4015 0 -6.334 -4.6625 0 -5.508 -2.186 -4.157 -1.7695 -1.8085 -2.645 -4.63 0 -1.4985 -7.660501 -2.742 -3.922 -4.1715 -1.4985 -3.158 -5.1915 -1.756 -2.5045 -2.3335 -2.95 -1.4985 -10.2055 -7.900001 -2.742 -3.074 -2.489 -4.5855 -1.7695 -4.2615 -1.4985 -4.015 -3.893 
-3.7575 -5.6925 -5.325 -7.6225 -6.4015 -6.334 -10.427 -4.6625 -5.508 -7.018001 -5.8055 -5.6485 -3.41 -4.355 -8.319 -4.63 -1.4985 -9.243501 -10.958 -5.363 -7.586 -4.693 -4.178 -7.469501 -7.3275 -4.604 -4.744 -4.8245 -4.514 -8.6675 -16.4997 -11.1355 -4.5095 -4.381 -5.7095 -5.247 -4.7355 -5.128 -5.216001 -7.5255 
-7.859 -5.9175 -11.7104 -7.6225 -13.7773 -10.427 -10.427 -10.348 -7.018001 -10.6735 -6.901 -7.051 -5.5165 -10.322 -8.319 -5.294 -9.243501 -12.732 -13.579 -8.874001 -8.113501 -7.7685 -7.545 -8.8345 -9.837501 -6.419 -5.158 -5.870501 -11.4954 -18.4511 -20.5586 -12.903 -5.0495 -7.9935 -6.025001 -7.909 -5.475 -9.066001 -8.526501 
-8.5705 -12.5315 -11.7104 -15.4203 -17.8703 -10.427 -16.4979 -11.858 -10.6735 -11.769 -8.160001 -9.042 -11.9551 -10.322 -9.0555 -13.6474 -12.732 -15.353 -17.09 -9.3155 -10.494 -9.663001 -8.908501 -11.5787 -11.7421 -6.7955 -6.13 -12.9803 -22.1048 -22.1044 -22.3261 -13.443 -9.0605 -8.253 -8.7115 -8.3905 -9.378 -12.5417 
-15.4629 -12.5315 -19.5082 -19.5133 -17.8703 -16.4979 -18.0079 -15.5135 -11.769 -13.028 -10.4185 -15.955 -11.9551 -11.0585 -17.7503 -17.1359 -15.353 -18.864 -17.5315 -11.8142 -12.3885 -11.0751 -11.6993 -13.4833 -12.1186 -7.6815 -13.2976 -23.5897 -25.3403 -23.8719 -22.8661 -17.454 -9.4595 -11.2645 -9.0345 -12.4451 -12.8627 
