-4.759 
n/a 
n/a 
n/a 
n/a 
-4.759 
n/a 
n/a 
n/a 
n/a 
-4.759 
n/a 
n/a 
n/a 
n/a 
-4.759 
n/a 
n/a 
n/a 
n/a 
-3.1495 -2.5195 -3.587 -4.485 0 -12.16972 -3.0465 -7.734501 -4.7715 0 
-6.5105 -5.632 -5.672 -4.485 -12.16972 -15.21622 -8.4095 -11.0165 -4.7715 
-9.9275 -7.513 -5.672 -17.89472 -15.21622 -19.78922 -13.8512 -11.3477 
-11.8903 -7.513 -20.15392 -20.94122 -19.78922 -26.84592 -14.6762 
-11.8903 -22.33792 -23.20042 -25.51422 -26.84592 -26.84592 
-2.5195 -2.3615 -3.587 -4.485 -1.756 -8.5665 -3.074 -4.357 -3.4605 -3.6205 -2.5195 -2.4265 0 
-4.4095 -6.882 -5.672 -5.993 -12.861 -13.5075 -7.013 -9.3955 -7.5045 -6.2215 -5.0885 -2.4265 
-8.8485 -9.09 -7.0375 -18.4672 -16.6747 -17.6673 -12.4899 -13.4615 -10.341 -9.281 -5.0885 
-11.4737 -10.7723 -20.7873 -21.8773 -20.8345 -23.1442 -16.5559 -16.298 -13.4005 -9.281 
-13.156 -24.5221 -23.7718 -26.0371 -26.3114 -27.2102 -19.3924 -19.3575 -13.4005 
-3.3255 -2.3615 -3.2 -2.7295 -2.7765 -3.074 -3.0465 -7.734501 -3.3255 -3.587 -4.485 -1.756 -2.3585 -4.514 0 
-5.044001 -5.1915 -5.6865 -4.065 -4.359 -5.523 -8.4095 -7.963 -6.933001 -5.672 -5.993 -4.101 -5.731 -4.514 
-7.223001 -7.3795 -7.033 -5.8415 -6.137001 -10.605 -10.573 -10.319 -7.668 -7.0375 -8.475 -7.646501 -5.731 
-9.052001 -8.502001 -8.434 -7.913 -10.575 -12.571 -12.7635 -10.6795 -9.4005 -9.557 -12.1809 -7.646501 
-10.0995 -10.0445 -10.7595 -12.5478 -13.3967 -15.1409 -12.92 -13.0106 -11.9742 -13.2601 -12.1809 
-2.5195 -2.3335 -3.3255 -3.587 -4.485 -2.7295 -2.742 -3.8455 -5.007 
-4.9535 -6.044001 -6.933001 -5.672 -7.1325 -4.076 -4.8095 -7.7805 
-8.9655 -10.5535 -7.668 -9.012501 -8.507501 -7.012 -9.880501 
-13.7718 -11.2885 -11.8501 -10.1995 -11.8825 -12.333 
-14.5068 -15.4706 -13.0371 -13.9157 -17.2035 
