-4.759 
n/a 
n/a 
n/a 
n/a 
-4.759 
n/a 
n/a 
n/a 
n/a 
-4.759 
n/a 
n/a 
n/a 
n/a 
-4.759 
n/a 
n/a 
n/a 
n/a 
-4.642 -2.882 -1.934 -12.16972 0 -4.4045 -3.1385 -4.424 -1.934 -1.4985 -4.6105 -1.7565 -1.4985 -7.3665 -6.271 -1.7565 -4.6685 0 
-6.743 -5.571 -15.11012 -12.16972 -4.4045 -7.474 -6.278501 -5.195 -2.6125 -5.6245 -6.8105 -2.4195 -9.064 -14.2533 -8.618 -6.208001 -4.6685 
-9.081 -19.73052 -15.11012 -16.57422 -7.474 -9.7845 -6.8605 -6.055501 -6.753 -7.512001 -7.7675 -10.1758 -16.237 -16.6003 -13.3913 -6.208001 
-23.48032 -19.73052 -19.51462 -19.64372 -9.7845 -10.624 -7.352 -8.1055 -9.128 -8.446001 -15.8484 -17.3488 -18.584 -21.3736 -13.3913 
-23.48032 -24.13502 -22.58412 -21.95422 -10.624 -11.1155 -9.317 -10.6401 -9.954 -16.6327 -23.0214 -19.6958 -23.3573 -21.3736 
-2.882 -2.7035 0 -12.16972 -4.624 -2.5195 -4.6685 -4.2765 -2.356 -4.6105 -3.9615 -10.272 -1.756 -4.4045 -3.1385 -3.152 -4.493 0 
-5.2685 -2.7035 -12.16972 -16.79372 -6.814 -6.7395 -9.345501 -5.3195 -7.597501 -7.224 -14.9951 -12.028 -6.9095 -7.474 -5.219 -5.593 -4.493 
-5.2685 -15.04522 -16.79372 -18.98372 -10.298 -10.3475 -10.09 -8.8415 -10.7272 -18.6022 -16.7511 -17.1815 -9.482 -9.0675 -6.315001 -5.593 
-18.68962 -19.66922 -18.98372 -22.46772 -14.1304 -10.6575 -13.7364 -12.3936 -22.1054 -20.3582 -21.9046 -19.754 -10.1645 -9.673 -6.315001 
-23.31362 -21.85922 -22.46772 -26.30012 -14.4404 -14.3039 -17.2885 -23.7718 -23.8614 -25.5117 -24.4771 -20.4365 -10.682 -9.673 
-2.264 -2.882 -2.7035 0 -4.4045 -4.9225 -3.152 -4.424 -3.851 -1.7695 -1.4985 -4.624 -4.5595 -1.7565 -7.3665 -6.271 -1.7565 -4.6685 
-4.774 -5.2685 -2.7035 -4.4045 -10.533 -7.4025 -8.638 -7.1215 -4.0015 -2.7955 -5.3995 -5.8805 -6.244 -9.2935 -14.2533 -8.618 -6.208001 
-6.3475 -5.2685 -6.613 -10.533 -13.013 -13.1389 -10.195 -7.127501 -4.5775 -6.6965 -7.074 -8.357 -14.7676 -16.7561 -16.6003 -13.3913 
-6.3475 -10.4855 -13.1875 -13.013 -18.7494 -14.6959 -10.2075 -8.005 -9.003 -8.835001 -8.943001 -17.209 -22.2302 -19.1031 -21.3736 
-12.0505 -17.06 -15.6675 -18.7494 -20.3064 -14.7084 -11.085 -12.6809 -10.1765 -10.5325 -17.9926 -24.6716 -24.5772 -23.8764 
-2.882 -2.7035 -4.6685 -9.919001 -9.046 -1.7695 -3.6845 -4.4045 -3.1385 -4.424 
-5.2685 -7.659 -15.7243 -19.0258 -10.9075 -6.278 -8.342501 -7.474 -6.278501 
-11.3034 -19.5306 -24.8311 -20.8873 -15.416 -10.122 -11.7228 -9.7845 
-23.175 -28.6374 -26.6926 -25.3958 -19.26 -13.5615 -14.0333 
-32.2818 -30.4989 -31.2011 -29.2398 -22.6995 -15.872 
