-4.759 
n/a 
n/a 
n/a 
n/a 
-4.759 
n/a 
n/a 
n/a 
n/a 
-4.759 
n/a 
n/a 
n/a 
n/a 
-4.759 
n/a 
n/a 
n/a 
n/a 
-2.5045 -1.4985 -3.7515 -2.7835 -3.0575 0 -2.9805 -3.644 -2.9805 -3.2955 -7.7825 -1.756 -4.286 
-3.1915 -4.705501 -6.5225 -7.491001 -3.0575 -2.9805 -4.889 -5.161 -5.6305 -12.2178 -8.982 -5.8305 
-5.443 -8.158001 -10.404 -7.491001 -6.725 -4.889 -5.955501 -7.826001 -14.9654 -13.4173 -13.1397 
-9.638 -12.3883 -10.404 -10.041 -8.627001 -5.955501 -8.643001 -17.3959 -16.1649 -17.575 
-13.9035 -12.3883 -12.954 -11.943 -9.434501 -8.643001 -18.5275 -18.5954 -20.3226 
-3.986 -2.9645 -1.4985 -4.286 -1.756 -5.8155 -2.5045 -1.934 -4.7405 -3.7515 
-8.055 -3.957 -5.8225 -5.3085 -7.625 -8.3975 -5.892 -6.6195 -6.614501 
-8.7825 -8.1885 -6.996 -12.2207 -9.576501 -12.2 -11.0217 -7.9165 
-13.33 -9.4685 -14.1036 -14.1722 -13.9792 -17.3297 -12.3187 
-14.61 -16.6183 -16.0551 -18.5749 -19.1089 -18.6267 
-3.986 -3.644 -2.3335 -2.9805 -2.8645 -3.2955 -5.221 -1.756 -5.7915 -4.286 -1.934 -3.091 -4.609 
-6.184501 -4.989501 -4.1515 -4.3245 -5.798 -9.132 -6.593 -7.5935 -6.7465 -5.811501 -4.2105 -7.007 
-7.791 -6.244501 -5.419 -6.981 -11.7175 -9.995 -10.7565 -8.7915 -8.3125 -7.6835 -7.208001 
-8.479 -7.29 -7.8885 -13.1443 -12.5805 -14.4647 -11.9545 -9.946 -10.476 -9.9055 
-9.3765 -9.7685 -14.1946 -14.0073 -17.0502 -15.6627 -13.109 -12.4629 -12.698 
-3.034 -2.9805 -2.7415 -3.0575 -3.277 -3.5905 0 -2.9805 -2.7415 -5.314 -1.756 -3.3425 -4.286 
-4.4605 -4.004 -6.181 -5.4945 -4.7035 -3.5905 -2.9805 -4.004 -8.568501 -6.8365 -5.163 -6.614 
-5.2415 -7.245 -7.236 -6.4425 -4.7035 -6.226501 -4.004 -9.309501 -9.218 -11.0453 -8.0085 
-7.4935 -7.848001 -7.335001 -6.4425 -6.489 -7.036 -9.309501 -10.104 -13.5332 -13.8908 
-8.070001 -7.874001 -7.335001 -8.1745 -7.269001 -12.6375 -10.104 -14.4192 -16.3787 
