-4.759 
n/a 
n/a 
n/a 
n/a 
-4.759 
n/a 
n/a 
n/a 
n/a 
-4.759 
n/a 
n/a 
n/a 
n/a 
-4.759 
n/a 
n/a 
n/a 
n/a 
-3.2615 -3.188 -8.138 -1.756 -3.2615 -3.533 0 -4.3435 -5.3535 -3.748 -3.1385 -5.3905 
-6.178 -8.202001 -9.553 -4.788 -7.028 -3.533 -4.3435 -8.516001 -7.165 -5.326 -8.647501 
-9.3255 -9.577001 -12.6712 -8.5465 -7.028 -7.804501 -8.860001 -11.0585 -8.710001 -10.7495 
-10.734 -12.694 -16.4297 -8.5465 -10.688 -10.752 -9.1905 -11.1965 -14.4962 
-13.851 -16.4525 -16.4297 -12.3295 -13.6355 -10.79 -10.0975 -15.8628 
-3.2615 -1.4985 -3.6115 -3.188 -3.8275 -1.756 -3.533 -3.277 -3.2615 -2.4265 0 -12.364 -3.748 -2.688 -3.1385 -6.3175 -1.7695 -3.8655 0 
-4.032 -4.081 -5.7875 -4.801 -5.1855 -5.8305 -6.4985 -5.1005 -5.2985 -2.4265 -12.5928 -15.1138 -6.219501 -5.555 -8.360001 -6.5905 -5.6875 -3.8655 
-6.193501 -5.93 -5.8365 -6.728 -10.485 -8.604 -8.481501 -6.7945 -5.2985 -16.2157 -15.1138 -17.5008 -8.395 -11.4031 -8.882001 -7.8295 -5.6875 
-6.837 -5.9535 -7.014 -12.4153 -13.2585 -10.702 -9.752001 -6.7945 -19.7409 -18.7367 -17.5008 -20.2068 -14.5533 -11.9251 -9.9805 -7.8295 
-6.8395 -7.031001 -12.8849 -15.1888 -15.3565 -11.9725 -9.752001 -21.9865 -22.2619 -21.1237 -20.2068 -26.3651 -15.0753 -13.0236 -9.9805 
-3.2615 -1.4985 -3.6115 -3.188 -3.8275 0 -4.732 -1.4985 -3.533 -3.158 -4.347 -5.3535 -3.748 -2.688 -3.1385 -2.229 -2.674 -4.06 0 
-4.032 -4.081 -5.7875 -4.801 -3.8275 -4.732 -5.618001 -5.5225 -6.5725 -6.960501 -8.014501 -7.165 -6.219501 -5.555 -4.6125 -5.629 -6.8155 -4.06 
-6.193501 -5.93 -5.8365 -4.801 -8.316501 -5.618001 -9.9975 -7.826 -11.0104 -10.6475 -10.165 -9.229501 -8.395 -7.49 -9.097001 -10.1855 -6.8155 
-6.837 -5.9535 -5.8365 -9.570001 -8.889501 -9.9975 -12.7688 -12.8125 -15.2518 -11.5384 -11.2325 -12.478 -10.6402 -12.8293 -13.6811 -10.1855 
-6.8395 -5.9535 -9.818001 -10.087 -13.4242 -12.7688 -17.7553 -17.0539 -15.5883 -14.7603 -14.3349 -14.8272 -15.9795 -17.4134 -13.6811 
-3.2615 -1.4985 -3.6115 -4.255 -3.188 -3.8275 0 -4.732 -1.4985 -3.158 -1.7565 -3.533 -2.645 -2.4285 -3.689 -5.3535 -3.748 -4.9225 -2.4945 -4.676 -3.9535 -5.081 -3.0365 0 
-4.032 -4.081 -7.8025 -7.066 -4.801 -3.8275 -4.732 -5.618001 -4.178 -4.71 -5.6325 -6.4975 -5.1595 -4.762 -8.8795 -7.165 -8.6395 -6.9525 -6.8475 -7.6025 -10.382 -7.569 -3.0365 
-6.193501 -8.342501 -11.0329 -7.515 -4.801 -8.316501 -5.618001 -7.888 -5.562 -7.763 -8.533501 -9.486 -5.283 -9.360001 -11.0695 -12.2262 -10.238 -11.6235 -9.8695 -14.3096 -12.87 -7.569 
-9.974501 -11.9007 -11.4819 -7.515 -9.570001 -8.889501 -7.888 -9.123001 -8.127001 -10.4675 -11.7266 -9.519001 -10.6245 -11.9984 -17.4012 -14.1283 -14.909 -14.6455 -16.8108 -16.7976 -12.87 
-13.6641 -12.3497 -11.4819 -12.2294 -10.087 -11.3147 -9.123001 -10.7335 -10.749 -13.629 -11.7596 -15.0971 -13.9094 -18.0479 -18.9997 -18.7993 -17.931 -21.5868 -19.2988 -16.7976 
