-4.759 
n/a 
n/a 
n/a 
n/a 
-4.759 
n/a 
n/a 
n/a 
n/a 
-4.759 
n/a 
n/a 
n/a 
n/a 
-4.759 
n/a 
n/a 
n/a 
n/a 
-2.3345 -3.9185 0 -2.664 -4.5085 -3.288 -6.180501 -1.934 -1.4985 -3.4425 -2.356 -5.5505 -4.9535 -1.7565 -3.3715 -3.8225 -1.756 -5.025 -5.1305 -1.4985 -3.4425 -2.7415 -3.9205 -1.7695 -3.1495 -4.3955 -2.5045 -1.4985 -7.0525 -4.01 0 -3.2615 -1.4985 -4.0655 -1.934 -1.4985 -4.2805 -4.938 -4.686 -4.302 -1.7695 -1.4985 -3.5455 
-6.96 -3.9185 -2.664 -6.2465 -7.066 -8.587501 -6.815001 -2.6125 -4.4545 -5.4575 -8.040001 -9.6665 -6.824 -4.845 -6.435 -5.729 -6.194 -8.2085 -6.867001 -4.4545 -5.848001 -5.733 -4.971 -4.7475 -7.258 -6.6075 -3.583 -8.527 -9.868 -4.01 -3.2615 -4.032 -5.895 -5.9875 -2.6125 -5.678 -5.349 -7.048 -8.963001 -5.789 -2.7955 -4.554 
-6.96 -6.755 -6.2465 -8.026 -10.403 -9.519501 -7.156001 -4.866 -6.422 -9.961 -10.485 -10.676 -9.547501 -7.595001 -8.291 -8.6225 -9.1055 -9.742001 -9.925 -6.401 -8.053 -6.494 -8.459001 -8.563001 -9.192 -7.757 -10.3965 -10.298 -9.868 -7.381001 -4.032 -8.2925 -7.7675 -6.5445 -6.6445 -6.668 -7.049001 -11.898 -9.798 -6.3025 -5.5335 
-9.523001 -10.4035 -8.026 -10.4425 -10.471 -9.929501 -8.989501 -6.9475 -10.5125 -10.579 -11.4945 -13.3995 -12.3871 -9.166 -9.416 -10.674 -10.75 -13.0068 -11.9511 -8.289001 -9.0845 -9.118 -12.5455 -9.956 -10.622 -14.8571 -12.1675 -10.298 -13.4342 -8.262 -8.2925 -10.3475 -8.293 -10.1595 -7.6245 -7.3785 -11.8994 -12.733 -9.845501 -7.9045 
-13.4841 -12.183 -10.4425 -10.473 -10.485 -10.4565 -10.4345 -10.5425 -10.5905 -11.5885 -14.218 -16.2391 -13.9581 -10.5382 -12.4407 -12.3185 -14.0148 -15.0329 -13.8391 -9.343 -11.9967 -13.7679 -13.9385 -11.4912 -17.7221 -16.6281 -12.1675 -13.8642 -14.3152 -10.7575 -10.3475 -10.873 -12.1578 -10.4925 -7.859 -12.3963 -12.7344 -12.7805 -10.348 
-4.3685 -3.6135 -3.8195 -3.6445 -1.7565 -4.09 -1.7695 -3.757 -4.5165 -4.617 -3.5125 -2.0935 -4.138 -1.7565 -3.973 0 
-7.440001 -7.6425 -8.065001 -4.775001 -6.500501 -6.198 -5.935501 -4.922 -7.3675 -8.2575 -5.691 -5.6095 -5.1845 -6.670001 -3.973 
-12.7248 -12.3522 -8.7805 -9.4715 -9.019001 -10.1385 -7.2875 -7.3725 -11.6608 -11.0742 -10.1305 -8.001 -11.4094 -6.670001 
-17.4345 -13.0677 -14.568 -12.2662 -13.3263 -11.6323 -9.945501 -11.6836 -14.4775 -15.5137 -12.522 -14.5199 -11.4094 
-18.15 -18.8552 -17.3627 -16.5735 -14.8201 -14.2903 -14.289 -14.5003 -18.917 -17.9052 -19.0409 -14.5199 
-1.4985 -3.17 -1.7565 -1.4985 -4.7075 -3.115 -3.757 -4.5165 0 -4.617 0 -1.756 -5.5925 0 -3.9185 0 -3.8755 -2.645 -4.3225 -2.9705 -4.938 -2.645 -4.02 -5.368 -1.934 -1.4985 -6.99 0 -8.2065 -3.7805 -2.4945 -5.827 -1.934 -3.188 -4.6695 -3.655 0 
-3.7115 -4.179 -2.4195 -6.3485 -7.746 -6.9525 -4.922 -4.5165 -4.617 -4.617 -1.756 -7.585001 -5.5925 -3.9185 -3.9185 -3.8755 -6.653501 -6.9855 -6.779 -7.212501 -6.849 -6.429501 -8.977 -7.1245 -2.6125 -7.778 -6.589 -8.2065 -9.9615 -6.093 -7.464 -7.5435 -5.387 -6.459001 -7.573501 -3.655 
-5.2885 -4.497 -7.477001 -9.216001 -11.7985 -7.4385 -4.922 -7.3675 -4.617 -6.2865 -7.585001 -7.585001 -7.4265 -3.9185 -8.047 -6.653501 -11.5658 -9.503501 -10.2235 -9.161 -9.818001 -10.533 -9.911 -7.713 -9.601 -8.882 -16.3011 -9.9615 -12.274 -10.434 -8.9245 -11.4103 -7.818 -10.3285 -7.573501 
-5.8975 -8.725 -10.2035 -13.4447 -12.2845 -7.4385 -7.3725 -7.3675 -6.2865 -10.1305 -7.585001 -9.394501 -7.4265 -8.047 -11.1192 -11.5658 -14.0838 -13.053 -12.3434 -12.4888 -14.0953 -12.0412 -11.1611 -15.6379 -9.983 -18.8873 -18.0561 -12.274 -16.615 -12.2117 -12.9183 -13.8413 -12.2441 -10.3285 
-10.8273 -11.7585 -14.4322 -13.9307 -12.2845 -10.322 -7.3725 -9.118 -10.1305 -10.1305 -9.394501 -9.394501 -12.1264 -11.1192 -16.0315 -14.0838 -17.6333 -15.1729 -15.6712 -16.7661 -15.6035 -13.2913 -19.086 -15.6379 -19.9883 -20.6423 -20.3686 -16.615 -18.3927 -16.2055 -15.3493 -18.2674 -12.2441 

n/a 
n/a 
n/a 
n/a 
