-4.759 
n/a 
n/a 
n/a 
n/a 
-4.759 
n/a 
n/a 
n/a 
n/a 
-4.759 
n/a 
n/a 
n/a 
n/a 
-4.759 
n/a 
n/a 
n/a 
n/a 
-11.451 -19.282 -7.402 -3.7575 -9.463 -4.677 -2.742 -2.674 -8.452001 -3.3195 -4.179 0 
-30.434 -27.2804 -9.4665 -14.2629 -14.2782 -7.5015 -4.275 -12.6678 -12.4959 -5.502 -4.179 
-38.0566 -29.3449 -20.9147 -19.0781 -17.1027 -9.0705 -14.6908 -16.7117 -14.6784 -5.502 
-40.1211 -40.7931 -25.7299 -21.9026 -18.6717 -19.5585 -18.7347 -18.8942 -14.6784 
-51.5693 -45.6083 -28.5544 -23.4716 -29.1597 -23.6024 -20.9172 -18.8942 
-1.934 -9.169001 0 -12.16972 -2.264 -1.4985 -3.3755 -3.0365 -2.186 -1.8085 -5.699 -3.4155 -4.677 -1.934 -2.9705 -1.8085 -4.928 -3.6905 -3.0365 -2.742 -2.489 -3.9155 -4.088 -1.756 -2.264 -2.3335 -12.16972 -3.193 -3.1385 -3.6675 -1.756 -5.2625 -1.934 -1.4985 -4.485 -3.098 -1.7565 -3.8905 
-10.27 -9.169001 -12.16972 -14.43372 -2.9195 -4.057 -5.929501 -3.66 -3.164 -8.6455 -8.7395 -7.334001 -6.2735 -4.051 -4.946 -6.2395 -8.337501 -6.547 -4.668 -3.301 -5.719 -7.065001 -5.3865 -4.4925 -4.6785 -15.69402 -15.36272 -6.4585 -6.507501 -5.384 -6.354 -7.592501 -2.6125 -4.9985 -6.5295 -4.3615 -4.622 
-10.27 -21.54812 -14.43372 -15.08922 -5.120501 -6.4645 -6.58 -4.218 -9.876 -11.99 -13.2952 -8.733001 -8.1685 -5.3815 -9.386001 -9.1105 -11.7934 -7.693 -4.759501 -6.732 -9.008501 -8.353001 -8.591001 -6.635 -18.49862 -18.88702 -18.62822 -9.8545 -8.2965 -9.487501 -9.174 -8.0795 -6.2095 -7.2515 -7.203 -6.5235 
-22.80612 -23.81212 -15.08922 -17.29022 -7.185 -7.229 -7.173501 -11.3264 -13.2505 -16.5457 -14.6942 -10.2645 -9.7185 -9.862501 -12.342 -12.6608 -12.9394 -7.7425 -8.179001 -10.702 -10.0815 -11.8159 -10.7175 -21.05832 -21.69162 -22.15252 -22.02422 -11.7419 -12.629 -12.3183 -10.119 -11.9913 -8.469501 -7.573501 -8.3155 
-25.07012 -24.46762 -17.29022 -19.35472 -8.4995 -7.7435 -14.4209 -14.7009 -17.8062 -17.9447 -16.2257 -11.8145 -14.3233 -12.8185 -15.8923 -13.8068 -12.9889 -11.3564 -12.489 -11.775 -14.0084 -13.9424 -25.14082 -24.25132 -24.95712 -25.54852 -23.91162 -16.0744 -15.4598 -13.2633 -14.1356 -14.2513 -8.5895 -8.557501 
-7.029 -4.169 -2.4945 -3.8825 -1.934 -1.4985 -8.452001 -4.179 -2.5045 -1.4985 -8.5795 -4.677 -2.9705 -2.186 -4.06 -1.934 -18.966 -4.476 0 
-9.750501 -6.1635 -5.478001 -4.9695 -2.6125 -9.7215 -10.4425 -6.204 -3.1915 -10.27 -9.981 -7.1205 -3.89 -4.672 -4.483 -22.1298 -21.9204 -4.476 
-12.7082 -9.3405 -5.959001 -5.375 -11.2297 -11.8156 -12.4675 -6.775001 -12.422 -11.6715 -12.4245 -7.7255 -6.0725 -5.13 -25.3546 -24.8608 -21.9204 
-15.8852 -10.21 -6.354001 -14.2264 -13.3238 -13.8406 -13.0385 -16.2877 -13.8235 -14.115 -13.0295 -9.0785 -6.527 -26.1376 -28.0856 -24.8608 
-16.7547 -10.745 -15.3752 -16.3205 -15.3488 -14.4116 -22.5512 -17.6892 -16.267 -14.72 -14.3825 -9.5195 -27.714 -28.8686 -28.0856 
-9.811501 -4.0915 -2.4945 -3.0365 -1.934 -8.5795 -4.677 -2.9705 -2.186 -3.8825 -1.934 -7.166501 -10.6645 -3.7425 -2.0935 -8.452001 -8.820001 -4.179 
-13.9294 -7.2425 -4.952001 -5.238 -11.136 -9.981 -7.1205 -3.89 -5.3085 -4.9695 -8.295501 -18.4386 -14.6172 -5.973001 -10.6885 -9.033001 -9.8465 
-17.0804 -9.461 -6.545001 -14.9996 -12.5375 -12.4245 -7.7255 -7.0695 -5.859 -11.8424 -19.855 -22.3913 -16.8477 -15.1418 -11.2695 -9.906001 
-19.2989 -11.1852 -16.6022 -16.4011 -14.981 -13.0295 -11.3288 -7.285 -13.0863 -23.4019 -23.8077 -24.6218 -26.0165 -15.7228 -12.1425 
-21.0231 -21.2424 -18.0037 -18.8446 -15.586 -16.6328 -11.5443 -14.5689 -24.6458 -27.3546 -26.0382 -33.7906 -26.5975 -16.5958 
