-4.759 
n/a 
n/a 
n/a 
n/a 
-4.759 
n/a 
n/a 
n/a 
n/a 
-4.759 
n/a 
n/a 
n/a 
n/a 
-4.759 
n/a 
n/a 
n/a 
n/a 
-4.674 -3.429 -2.871 -3.7285 -4.4975 -2.0935 -1.4985 -3.962 -3.8405 0 
-8.425 -5.7865 -5.7585 -8.769501 -6.672 -2.9725 -4.324 -6.924 -3.8405 
-11.2567 -8.698501 -9.874001 -10.7335 -7.514501 -5.4755 -7.0035 -6.924 
-14.1687 -13.0524 -12.026 -11.576 -9.854501 -7.5385 -7.0035 
-18.5226 -15.2044 -12.8685 -13.916 -12.0411 -7.5385 
-4.674 -2.5045 -5.0455 -2.95 -3.013 -2.6165 -2.9645 -3.486 -4.4975 -5.609 
-6.987 -8.101501 -8.651001 -6.071 -3.724 -4.853 -6.7825 -7.265 -10.884 
-12.9408 -9.236501 -11.8832 -6.6935 -5.182 -8.616501 -11.0503 -14.3005 
-14.0758 -12.5877 -12.5057 -7.2345 -9.163501 -13.2503 -18.0858 
-17.427 -13.2102 -13.0467 -12.3322 -13.9413 -20.2858 
-4.8975 -2.7765 -3.7285 -3.429 -2.871 -5.547 -2.5045 -2.5685 -2.95 
-6.333 -5.4785 -6.295 -5.7865 -9.0235 -8.149 -4.275 -4.8085 
-10.66 -7.441 -8.708 -12.4784 -11.7397 -9.651501 -6.685 
-12.6225 -10.0995 -15.7079 -15.1946 -13.2422 -12.1727 
-15.281 -17.2316 -18.4241 -16.6971 -15.7634 
-4.674 -3.4405 -3.429 -1.4985 -3.486 -6.3705 -2.5045 -2.5685 -3.5215 0 
-6.824 -6.365001 -4.4635 -3.5655 -9.923 -8.8935 -4.275 -4.6355 -3.5215 
-10.459 -7.7145 -6.5965 -10.3815 -12.7984 -10.276 -5.2305 -4.6355 
-11.8085 -10.0185 -13.9113 -13.2569 -14.1809 -11.2315 -5.2305 
-14.1125 -17.3333 -16.7867 -14.6394 -15.1364 -11.2315 
