-4.759 
n/a 
n/a 
n/a 
n/a 
-4.759 
n/a 
n/a 
n/a 
n/a 
-4.759 
n/a 
n/a 
n/a 
n/a 
-4.759 
n/a 
n/a 
n/a 
n/a 
-1.4985 -3.999 -6.501 -3.251 -1.7695 -3.859 -4.4705 -2.356 -3.999 -4.167 -6.227 -3.0415 -2.3335 -2.925 -4.938 -1.756 -3.717 -1.4985 -3.545 0 
-4.7585 -7.7105 -9.054001 -4.3285 -4.462 -6.974501 -6.4635 -5.7985 -7.705501 -11.2832 -8.982 -4.132 -4.0295 -7.8285 -6.1805 -5.358 -4.4985 -4.401 -3.545 
-8.080501 -10.0095 -10.2755 -7.0905 -7.3195 -8.495501 -9.64 -10.013 -15.2435 -14.0382 -9.8365 -5.2485 -9.293501 -8.992001 -10.0155 -5.846 -7.202 -4.401 
-10.2975 -11.231 -13.1425 -9.793 -8.842501 -11.9016 -13.9267 -17.551 -17.9985 -14.8927 -10.332 -10.3815 -10.6982 -13.0332 -10.3205 -8.476501 -7.202 
-11.519 -14.098 -15.845 -11.4638 -12.2744 -16.1883 -21.4647 -20.306 -18.853 -15.3882 -15.977 -11.7862 -14.7394 -13.3382 -12.951 -8.476501 
-2.645 -3.2295 -2.925 -2.674 -1.7695 -3.859 -2.985 -6.104 -3.0415 -2.5045 -2.925 -3.2645 -4.919 -3.436 -3.6515 -1.934 0 
-6.2145 -6.554 -4.1785 -3.787 -4.462 -5.9655 -7.746 -8.805 -4.9235 -4.3205 -4.8195 -7.853 -8.068001 -5.8265 -5.66 -1.934 
-8.824501 -7.923 -5.305501 -6.57 -6.283 -9.311501 -9.842001 -10.427 -7.2835 -6.401 -9.235001 -10.3345 -10.6095 -7.526 -5.66 
-9.943001 -8.875501 -8.0185 -8.2875 -9.708501 -10.661 -11.6728 -12.8282 -9.691 -11.1407 -12.0033 -12.876 -12.309 -7.526 
-10.8955 -11.6611 -9.199 -11.9938 -11.0472 -13.1356 -14.074 -15.2357 -14.3991 -13.909 -14.5448 -14.5755 -12.309 
-3.074 -2.985 -6.104 -3.2645 -2.674 -1.8085 -3.535 -4.8135 -3.0415 -2.3335 -4.0215 -3.2645 -4.919 -1.7695 -3.717 0 
-6.416 -7.746 -9.381001 -4.542 -3.63 -4.294 -7.883 -7.666501 -4.132 -5.3665 -5.9435 -7.853 -6.7635 -4.686 -3.717 
-11.3234 -11.4054 -10.428 -5.5335 -6.0765 -8.152 -10.459 -8.425 -6.548 -6.7275 -10.354 -8.940001 -9.8505 -4.686 
-14.9828 -12.4524 -11.4195 -8.109501 -9.8255 -10.6875 -11.2175 -10.513 -9.313001 -11.3368 -11.441 -12.2768 -9.8505 
-16.0298 -13.4439 -13.9955 -12.0125 -12.2818 -11.446 -13.3055 -13.278 -14.0695 -12.4238 -14.7778 -12.2768 
-1.4985 -4.8135 -3.3875 -3.999 -3.0415 -2.3335 -2.3585 -3.3875 -4.919 -4.155 -1.7695 -3.717 0 
-5.4845 -8.319 -7.789001 -7.376 -4.132 -3.8035 -4.1445 -7.963 -9.096001 -5.482 -4.686 -3.717 
-9.103001 -13.2337 -11.944 -8.3075 -5.21 -5.93 -8.922501 -12.8586 -9.888 -8.679501 -4.686 
-14.2029 -17.3887 -12.8755 -9.6095 -8.2895 -10.275 -14.1385 -13.6506 -13.2251 -8.679501 
-18.3579 -18.3202 -14.1775 -12.6774 -12.8667 -15.6146 -14.9305 -16.9877 -13.2251 
