-4.759 
n/a 
n/a 
n/a 
n/a 
-4.759 
n/a 
n/a 
n/a 
n/a 
-4.759 
n/a 
n/a 
n/a 
n/a 
-4.759 
n/a 
n/a 
n/a 
n/a 
-4.203 -3.152 -3.973 -1.934 -4.219 -2.264 -2.985 -3.301 -4.866 
-7.1035 -8.8365 -5.555501 -6.5445 -6.455501 -4.3835 -6.351 -8.955 
-13.1184 -10.6006 -9.537001 -9.491 -8.846001 -7.784 -12.6226 
-14.8825 -14.5821 -12.6587 -11.9199 -12.5169 -14.4124 
-18.864 -17.7038 -15.0876 -15.5908 -19.1453 
-1.4985 -4.203 -3.6825 -3.918 -2.7415 -5.4865 -3.325 -2.985 -4.132 -1.756 -3.7555 -4.3125 -4.6335 -1.934 -4.519 
-5.438 -6.8015 -7.8135 -6.6195 -7.0795 -8.386001 -5.788 -6.383 -5.267 -5.2875 -7.543 -7.4055 -5.7045 -6.483 
-7.296 -11.5633 -9.978001 -9.632 -9.6245 -11.1692 -8.071501 -7.28 -9.650001 -8.9565 -10.9634 -8.473001 -8.7065 
-12.4276 -13.7278 -12.9905 -12.2454 -12.4179 -13.4527 -9.23 -11.9108 -13.4656 -12.4803 -12.0309 -11.67 
-14.5921 -16.7403 -15.6039 -15.0388 -14.7014 -14.6112 -14.035 -15.7264 -16.9894 -13.5478 -15.2279 
-9.306001 -3.2825 -3.898 -2.0935 -2.3345 -3.45 -3.74 
-12.7401 -7.489 -5.9075 -5.370501 -5.384501 -8.366 
-16.9466 -9.5425 -10.316 -7.923 -10.7253 
-19.0001 -13.9584 -12.8685 -13.4782 
-23.416 -16.5109 -18.4237 
-7.1995 -1.7565 -3.1495 -3.2495 -4.9225 0 -3.818 -3.213 -1.4985 -3.6825 -2.7415 -4.09 -3.301 -1.756 -3.074 -3.7555 -1.8085 -3.4155 -4.6335 -1.934 -1.4985 -4.219 0 
-5.341001 -3.914 -4.8975 -7.127501 -4.9225 -3.818 -5.229 -5.015 -4.87 -6.0635 -5.289001 -7.741 -4.994 -4.566 -5.929501 -4.597 -4.0495 -6.989 -5.7045 -2.6125 -5.129 -4.219 
-6.9865 -5.7375 -8.4305 -7.127501 -8.436501 -5.229 -6.987 -7.949 -6.662001 -9.832001 -10.281 -9.882501 -7.746 -7.544001 -6.5425 -6.3235 -7.224501 -8.194 -6.181 -6.29 -5.129 
-8.943001 -9.157001 -8.4305 -11.2021 -8.698501 -6.987 -10.218 -10.001 -10.5427 -14.864 -12.4225 -12.6345 -10.9126 -8.248501 -8.227 -10.1585 -8.467001 -8.641001 -8.505 -6.29 
-12.827 -9.157001 -12.6933 -11.4641 -10.609 -10.218 -10.7575 -13.8817 -15.5747 -17.0055 -15.1745 -15.8011 -11.6171 -10.1505 -12.1438 -11.401 -8.901501 -10.4035 -8.505 
