-4.759 
n/a 
n/a 
n/a 
n/a 
-4.759 
n/a 
n/a 
n/a 
n/a 
-4.759 
n/a 
n/a 
n/a 
n/a 
-4.759 
n/a 
n/a 
n/a 
n/a 
-3.6705 -2.3615 -3.251 -2.6165 -3.1125 -2.664 -3.699 -4.293 -1.934 -4.389 -1.4985 -4.3685 
-5.211 -6.0015 -4.9545 -4.595 -5.2245 -4.654 -5.8965 -5.2995 -6.466 -5.452001 -5.106 
-8.3175 -7.4065 -5.529 -6.990001 -6.5495 -6.216 -6.26 -8.290501 -7.0285 -7.144501 
-9.1075 -7.667 -7.9245 -8.840501 -7.773 -6.494 -9.1375 -8.871 -8.7605 
-9.407001 -9.4405 -9.966001 -9.764001 -7.9115 -9.568001 -9.887 -10.3485 
-4.319 -2.186 -3.6515 -1.4985 -4.6335 
-6.456 -4.575 -5.974 -5.8 
-8.0295 -7.126 -10.2085 
-10.147 -11.4773 
-14.6837 
-2.872 0 -1.7695 -3.9955 -1.4985 -3.8275 -2.3615 -2.6165 -4.425 -2.664 -3.699 -4.1 
-2.872 -1.7695 -7.624001 -5.0175 -4.726 -6.413 -5.456 -8.348001 -5.9135 -4.654 -7.252 
-4.9315 -7.624001 -8.8835 -6.986 -7.218 -9.882501 -12.1681 -9.759001 -7.35 -8.0865 
-10.7495 -8.8835 -10.9154 -9.06 -10.564 -16.7928 -13.5791 -11.1955 -11.0655 
-12.009 -10.9154 -12.9894 -12.6966 -17.6491 -18.2038 -15.0156 -14.911 
-4.013 0 -2.4265 -2.186 -2.6165 -3.429 -3.699 -3.355 -1.7695 -9.758 -1.4985 -3.8275 
-4.013 -2.4265 -3.292 -3.5105 -5.155 -7.781501 -5.462 -5.411 -10.3815 -10.375 -4.726 
-5.1265 -3.292 -4.443 -8.298 -9.811001 -9.639501 -7.465 -14.5132 -10.9985 -13.9321 
-5.6595 -4.443 -8.965 -13.1362 -11.7416 -12.7573 -17.2096 -15.1302 -14.5556 
-6.4685 -8.965 -13.9734 -15.0668 -14.8594 -22.5019 -17.8266 -18.6873 
