-4.759 
n/a 
n/a 
n/a 
n/a 
-4.759 
n/a 
n/a 
n/a 
n/a 
-4.759 
n/a 
n/a 
n/a 
n/a 
-4.759 
n/a 
n/a 
n/a 
n/a 
-2.3335 -2.95 -6.0625 -3.429 -1.4985 -3.6135 -8.599 
-4.8245 -10.361 -10.821 -4.4635 -4.4525 -13.5419 
-12.5093 -15.1195 -11.8555 -7.4345 -14.8311 
-17.2678 -16.154 -14.8265 -18.2171 
-18.3023 -19.125 -25.6091 
-2.3335 -2.95 -6.0625 -4.0705 -9.689501 -8.729 0 
-4.8245 -10.361 -10.634 -15.1862 -18.5177 -8.729 
-12.5093 -14.9325 -21.7497 -24.0144 -18.5177 
-17.0808 -26.0482 -30.5779 -24.0144 
-28.1965 -34.8764 -30.5779 
-2.3335 -2.95 -5.608 -6.2915 -2.5045 -7.726501 
-4.8245 -9.087501 -10.4945 -8.246 -9.3505 
-10.0815 -14.0902 -12.449 -15.3434 
-15.0842 -16.0447 -19.5464 
-17.0387 -23.1421 
-2.5045 -1.4985 -2.95 -6.0625 -2.7415 -3.4625 -1.4985 -4.116 -1.7565 -5.0655 0 
-3.1915 -3.9285 -10.361 -8.9075 -7.324 -4.474 -5.1355 -5.3425 -6.840001 -5.0655 
-4.5155 -11.9173 -13.206 -13.7122 -7.918 -7.2565 -5.7505 -10.3165 -6.840001 
-12.7533 -14.7623 -18.0107 -14.3062 -10.8465 -7.549 -10.6465 -10.3165 
-15.5983 -19.567 -18.6047 -17.2347 -11.139 -12.942 -10.6465 
