-4.759 
n/a 
n/a 
n/a 
n/a 
-4.759 
n/a 
n/a 
n/a 
n/a 
-4.759 
n/a 
n/a 
n/a 
n/a 
-4.759 
n/a 
n/a 
n/a 
n/a 
-1.4985 -3.6605 -3.288 -5.302 -1.4985 -3.6835 -3.2895 -4.896 -1.934 -4.628 -4.743 0 -2.8845 
-4.6365 -6.08 -9.076 -5.971 -4.7155 -4.478 -5.9355 -6.3155 -5.9605 -4.7515 -4.743 -2.8845 
-6.4915 -12.5392 -9.537001 -9.558001 -5.749001 -6.1425 -6.888 -8.996501 -5.9845 -4.7515 -8.3055 
-13.2397 -13.0002 -13.1898 -9.976501 -7.536 -6.961 -9.051001 -9.001 -5.9845 -8.31 
-13.7007 -16.653 -13.6083 -10.6275 -8.427 -9.081 -9.056001 -9.001 -8.775001 
-12.16972 -6.3825 -1.7695 -2.489 -2.5685 -3.188 -3.1385 -1.7695 -12.16972 
-18.55222 -8.392 -3.1405 -5.5125 -6.2315 -6.4895 -4.6115 -14.92142 
-20.56172 -10.001 -6.119 -9.4095 -9.4175 -8.9425 -18.71822 
-22.17072 -12.9795 -9.8315 -12.6987 -12.1671 -23.14282 
-25.14922 -16.692 -13.1411 -15.4483 -26.36742 
-3.188 -2.5685 -3.288 -2.229 -4.8565 -2.264 -3.6835 -3.2895 -4.671 -1.934 -4.628 -4.743 
-6.0135 -6.095 -5.652 -6.474 -7.009501 -5.34 -4.478 -7.015 -6.588 -5.9605 -4.7515 
-10.6095 -9.8505 -8.9855 -8.741001 -10.3615 -5.701 -7.2095 -8.101001 -10.485 -5.9845 
-14.8284 -13.184 -11.6485 -12.486 -10.4155 -9.116 -8.215 -10.634 -10.509 
-18.1619 -15.847 -15.3935 -12.54 -14.2143 -9.564501 -10.6735 -10.668 
-2.5685 -3.188 -3.564 -3.288 -3.7015 -6.6585 -2.0935 -2.6165 -4.5435 -3.6835 -3.2895 0 -2.8845 
-6.2315 -6.595 -6.603 -7.3545 -9.271501 -9.2925 -5.199 -7.7405 -7.1435 -4.478 -3.2895 -2.8845 
-10.1855 -10.2045 -11.3297 -13.3829 -12.0845 -12.4846 -10.304 -10.7115 -7.847001 -4.478 -7.4175 
-13.727 -15.0848 -17.3581 -16.1959 -15.2766 -17.5896 -13.275 -11.415 -7.847001 -8.132501 
-18.6073 -21.1132 -20.1711 -19.388 -20.3816 -20.5606 -13.9785 -11.415 -11.9453 
