-4.759 
n/a 
n/a 
n/a 
n/a 
-4.759 
n/a 
n/a 
n/a 
n/a 
-4.759 
n/a 
n/a 
n/a 
n/a 
-4.759 
n/a 
n/a 
n/a 
n/a 
-4.979 -3.193 0 -3.524 -2.855 0 
-6.147 -3.193 -3.524 -5.546 -2.855 
-6.147 -6.677 -5.546 -5.546 
-8.9895 -7.839 -5.546 
-9.8385 -7.839 
-4.979 -3.193 0 -3.524 -2.855 0 
-6.147 -3.193 -3.524 -5.546 -2.855 
-6.147 -6.677 -5.546 -5.546 
-8.9895 -7.839 -5.546 
-9.8385 -7.839 
-4.979 -3.193 0 -3.524 -2.855 0 
-6.147 -3.193 -3.524 -5.546 -2.855 
-6.147 -6.677 -5.546 -5.546 
-8.9895 -7.839 -5.546 
-9.8385 -7.839 
-8.792001 -12.16972 -10.981 -4.1685 -3.193 0 -8.731 0 
-21.16912 -23.60352 -14.5808 -7.903001 -3.193 -8.731 -8.731 
-32.60292 -26.75052 -16.0613 -7.903001 -12.942 -8.731 
-35.74992 -28.23102 -16.0613 -17.892 -12.942 
-37.23042 -28.23102 -26.1571 -17.892 
