-4.759 
n/a 
n/a 
n/a 
n/a 
-4.759 
n/a 
n/a 
n/a 
n/a 
-4.759 
n/a 
n/a 
n/a 
n/a 
-4.759 
n/a 
n/a 
n/a 
n/a 
-1.4985 -3.8405 -1.7565 -3.995 -4.9375 -2.186 -4.2815 -1.7695 -1.4985 -4.244 -3.8405 -3.4795 -1.7565 -3.7075 -2.186 -8.232 -4.3365 0 
-4.7545 -4.563 -5.423 -7.3175 -6.586 -6.0975 -4.4915 -2.7955 -4.685 -7.776501 -7.283 -4.599 -5.7275 -5.825 -10.396 -10.966 -4.3365 
-5.365 -8.584001 -8.5065 -9.4335 -10.459 -6.382 -5.0185 -5.8895 -7.969 -11.6876 -9.1575 -7.9495 -8.22 -13.3917 -9.897 -8.14 
-9.564 -12.2955 -10.1465 -13.4785 -10.7435 -6.7405 -7.585001 -9.182501 -12.2239 -13.5621 -12.6452 -10.609 -15.9655 -13.6332 -9.31 
-13.3447 -13.9355 -14.1915 -13.763 -11.102 -8.822001 -10.7575 -13.6342 -14.0984 -17.0498 -15.3047 -18.3545 -16.207 -13.6332 
-2.7835 -2.7295 -4.2815 -3.995 -2.229 -4.9375 -2.95 -2.356 -3.7075 -2.229 -3.4795 0 -2.4265 -4.0705 -4.347 -8.232 -4.3365 0 
-4.405 -6.361 -9.765501 -5.324 -6.736001 -7.647 -4.937 -6.000501 -5.5255 -6.525 -3.4795 -2.4265 -4.783 -6.6035 -10.644 -10.966 -4.3365 
-8.567501 -11.2794 -10.5775 -7.0505 -9.512001 -9.901 -8.8505 -7.131001 -10.0035 -6.525 -5.817 -4.783 -7.2675 -13.4376 -10.939 -8.14 
-13.5869 -12.0914 -12.304 -9.8315 -11.832 -13.9245 -10.2645 -12.3808 -10.0035 -8.9565 -7.624 -7.2675 -14.0608 -14.3745 -11.0474 
-14.3989 -13.8179 -15.085 -12.2023 -15.8555 -15.3385 -15.5143 -12.3808 -12.6378 -10.9353 -10.13 -14.0608 -14.9977 -14.3745 
-4.2815 -1.7695 -3.7075 -3.995 -4.9175 -3.8405 -2.186 -1.4985 -3.784 -3.7075 -3.193 -3.0415 -8.232 -4.3365 -1.934 -3.7075 -2.95 0 
-4.4915 -6.146501 -6.968 -10.0345 -8.156 -5.629 -3.339 -4.6165 -8.591001 -7.1835 -5.799 -11.713 -10.966 -6.121 -6.1845 -7.467 -2.95 
-8.834001 -9.2185 -13.8655 -13.3624 -9.194 -6.806 -6.113 -9.237 -12.3746 -10.264 -15.1465 -12.5897 -9.123501 -10.7335 -10.228 -7.467 
-12.257 -16.1942 -17.1934 -14.4004 -10.7504 -9.0535 -11.1627 -13.1602 -15.4551 -19.6115 -15.975 -13.2762 -14.2114 -14.777 -10.228 
-19.2327 -19.5221 -18.2314 -15.9568 -12.9979 -14.5356 -15.0859 -16.2407 -24.8026 -20.44 -16.6615 -18.9539 -18.5477 -14.777 
-3.995 -1.934 -4.2605 -1.756 -3.7075 -1.7565 -4.2815 -1.7695 -3.784 -3.7075 -3.193 -8.232 -4.226 0 
-5.975 -7.114 -5.4775 -5.7245 -6.572001 -7.7005 -4.4915 -6.1295 -8.591001 -7.1835 -10.8125 -12.0235 -4.226 
-11.8436 -8.689501 -10.4142 -8.378 -13.2246 -8.303 -7.705501 -10.6735 -12.3746 -12.1465 -14.2201 -12.4341 
-13.4191 -13.7762 -13.0677 -15.3216 -13.8271 -11.6762 -12.4301 -14.4571 -17.3376 -17.8565 -14.8075 
-18.5058 -16.4297 -20.0113 -15.9241 -17.2003 -16.4008 -16.2137 -19.4201 -23.0476 -17.8565 
