-4.759 
n/a 
n/a 
n/a 
n/a 
-4.759 
n/a 
n/a 
n/a 
n/a 
-4.759 
n/a 
n/a 
n/a 
n/a 
-4.759 
n/a 
n/a 
n/a 
n/a 
-2.9805 -2.186 -2.871 -1.7565 -1.4985 -3.2825 -4.873 -1.756 -4.4605 
-4.1635 -4.247 -3.5385 -2.4195 -3.712 -8.7095 -6.2285 -6.5945 
-6.139501 -4.411 -3.7675 -4.687 -8.8985 -10.0375 -7.936501 
-6.217 -4.5655 -4.982 -9.989 -10.1895 -11.8789 
-6.3935 -5.5725 -10.426 -11.28 -12.1005 
-2.9805 -2.186 -1.8085 -3.4155 -4.873 -1.756 -4.4605 
-4.1635 -3.164 -4.0495 -7.6495 -6.2285 -6.5945 
-5.078001 -4.831 -7.9505 -8.517 -7.936501 
-6.724501 -9.2755 -8.709001 -10.6095 
-9.862501 -9.803501 -10.7595 
-2.9805 -2.186 -3.074 -1.8085 -5 -4.873 -1.756 -4.4605 0 
-4.1635 -4.156 -4.639 -6.014 -8.726501 -6.2285 -6.5945 -4.4605 
-5.566 -4.962 -7.7325 -9.047501 -9.559501 -7.936501 -6.5945 
-6.1045 -8.030001 -11.1822 -9.769 -11.3433 -7.936501 
-8.6885 -11.5269 -11.9037 -11.6006 -11.3433 
-2.9805 -2.186 -1.8085 -3.4155 -4.873 -1.756 -4.4605 -3.074 0 
-4.1635 -3.164 -4.0495 -7.6495 -6.2285 -6.5945 -7.901501 -3.074 
-5.078001 -4.831 -7.9505 -8.517 -7.936501 -9.6945 -7.901501 
-6.724501 -9.2755 -8.709001 -10.6095 -11.4185 -9.6945 
-9.862501 -9.803501 -10.7595 -14.0915 -11.4185 
