-4.759 
n/a 
n/a 
n/a 
n/a 
-4.759 
n/a 
n/a 
n/a 
n/a 
-4.759 
n/a 
n/a 
n/a 
n/a 
-4.759 
n/a 
n/a 
n/a 
n/a 
-2.847 -2.871 -4.4895 -2.3335 -2.915 -4.1485 -2.791 
-4.4675 -5.8675 -5.4665 -5.327001 -6.533501 -7.486 
-5.963 -7.2355 -8.7085 -8.611501 -10.575 
-7.723001 -10.168 -12.3682 -12.7664 
-10.208 -14.1067 -16.5231 
-2.264 -2.3335 -2.915 -2.9995 -2.871 -3.013 -5.651501 -3.3785 0 -4.302 -5.2285 0 
-4.6785 -5.327001 -6.417 -5.056 -6.316 -8.529501 -6.4335 -3.3785 -4.302 -9.47 -5.2285 
-7.1125 -8.4545 -9.006001 -8.472 -11.553 -11.0545 -8.148001 -8.539001 -9.47 -9.47 
-9.974501 -11.3285 -12.7284 -13.783 -12.6735 -8.877001 -13.5263 -13.9386 -9.47 
-13.0137 -15.0509 -18.0394 -14.9035 -12.6735 -14.3611 -19.0021 -13.9386 
-2.8965 -4.9225 -3.013 -5.651501 -3.3785 -2.3615 -2.915 0 
-6.242001 -8.138 -8.529501 -6.4335 -5.2775 -4.5725 -2.915 
-9.439501 -13.1915 -11.0545 -10.396 -7.466001 -4.5725 
-14.3186 -14.312 -11.14 -12.6315 -7.466001 
-15.4391 -16.6808 -13.4663 -12.6315 
-2.3335 -2.915 -2.186 -2.6165 -3.9205 -3.4945 -2.791 -3.3785 0 
-5.327001 -4.5385 -3.5105 -5.491 -7.692 -6.6355 -4.8545 -3.3785 
-6.314001 -5.622 -5.809 -9.23 -11.2064 -10.6875 -4.8545 
-7.4125 -8.047501 -9.448 -12.8058 -15.2584 -10.6875 
-9.682501 -12.1779 -13.0474 -16.8578 -15.2584 
