-4.759 
n/a 
n/a 
n/a 
n/a 
-4.759 
n/a 
n/a 
n/a 
n/a 
-4.759 
n/a 
n/a 
n/a 
n/a 
-4.759 
n/a 
n/a 
n/a 
n/a 
-2.3615 -4.4565 -4.558 -1.7695 -1.4985 -3.9785 -3.518 -4.4605 0 
-5.8865 -10.254 -6.561 -2.7955 -4.496 -6.481 -8.823 -4.4605 
-12.9818 -12.257 -7.8645 -5.9535 -7.359 -12.321 -8.823 
-14.9848 -13.5605 -11.3923 -8.567 -13.309 -12.321 
-16.2883 -17.0883 -14.0058 -14.6358 -13.309 
-2.4265 -3.43 -4.7905 -1.7695 -5.4125 -3.959 0 
-5.461 -9.294001 -5.9285 -8.376 -8.219001 -3.959 
-11.842 -10.5722 -13.438 -11.1233 -8.219001 
-13.1202 -18.0817 -16.1853 -11.1233 
-20.6297 -20.829 -16.1853 
-2.3615 -4.172 -1.7695 -4.7905 -2.0935 -3.9785 -4.475 -4.4605 -3.074 0 
-6.109 -4.8625 -6.740001 -6.6995 -5.895 -9.027 -9.872001 -7.7655 -3.074 
-6.2715 -10.155 -8.8935 -10.3105 -11.9607 -14.5886 -13.6874 -7.7655 
-11.844 -12.3085 -12.6127 -16.7534 -17.5223 -18.404 -13.6874 
-13.9975 -16.0277 -19.0556 -22.315 -21.3377 -18.404 
-2.4265 -3.9785 -4.335 
-7.912001 -9.243 
-13.3277 
n/a 
n/a 
