-4.759 
n/a 
n/a 
n/a 
n/a 
-4.759 
n/a 
n/a 
n/a 
n/a 
-4.759 
n/a 
n/a 
n/a 
n/a 
-4.759 
n/a 
n/a 
n/a 
n/a 
-3.6885 -4.224 -2.4945 -2.3615 -4.015 -3.845 -2.4945 -4.164 
-7.742001 -5.763 -5.9245 -5.286 -7.898001 -6.303 -6.213 
-9.050501 -9.33 -9.144 -8.264501 -10.504 -10.7175 
-12.8085 -12.6687 -12.1897 -10.9933 -14.9185 
-16.1472 -15.7144 -14.9185 -15.4078 
-1.4985 -3.2945 -3.0695 -4.5345 -4.278 -1.7695 -3.659 -2.7455 -3.135 -3.5825 0 -1.7695 -4.452 -3.135 -4.0505 -1.7565 -3.909 0 -2.186 -4.018 -1.934 -1.4985 -3.8685 -1.7565 -1.8085 -4.4965 -1.7695 -1.8085 -3.237 -5.925 
-4.303 -5.7065 -6.666 -9.5985 -7.119 -4.3495 -4.6215 -5.576 -7.3735 -3.5825 -1.7695 -5.0995 -7.7145 -7.569 -4.832 -5.4525 -3.909 -2.186 -5.651 -6.535501 -2.6125 -4.916 -4.9575 -3.2595 -5.85 -5.6515 -3.41 -4.709 -7.132501 
-6.247 -8.352 -9.810501 -9.8675 -8.784 -5.319 -7.1 -8.7725 -7.3735 -4.1435 -5.0995 -8.033 -9.867001 -8.1785 -5.8415 -5.4525 -5.475 -5.651 -8.250501 -7.034 -6.0365 -5.2745 -6.292 -7.379 -6.7735 -7.62 -6.1155 -7.5225 
-8.5815 -9.852501 -9.8725 -9.875501 -9.4545 -7.574501 -9.7995 -8.7725 -8.901501 -9.238 -8.033 -9.8715 -9.875 -9.1295 -5.8415 -7.4055 -8.7605 -8.250501 -8.6545 -9.432 -6.403 -6.564001 -9.6525 -8.462 -8.014 -9.6145 -8.881001 
-9.854 -9.873 -9.876 -9.879001 -9.864501 -9.822001 -9.7995 -9.812 -9.870501 -9.870501 -9.8715 -9.875001 -9.8785 -9.1295 -8.078 -9.834001 -9.856501 -8.6545 -9.7355 -9.4705 -7.5655 -9.677001 -9.7705 -9.0635 -9.741501 -9.7935 
-3.36 -3.3885 -4.946 0 
-6.2075 -7.069 -4.946 
-10.6652 -7.069 
-10.6652 
n/a 
-2.264 -4.3905 -1.4985 -4.789 -3.682 0 -4.426 -8.4145 -4.287 -1.934 -3.9785 0 
-6.6975 -5.7895 -6.382501 -8.918 -3.682 -4.426 -13.4541 -13.2505 -6.4275 -5.7575 -3.9785 
-7.757501 -10.1945 -11.4897 -8.918 -7.7225 -13.4541 -18.2901 -15.391 -10.494 -5.7575 
-12.4087 -15.7969 -11.4897 -13.5481 -17.8716 -18.2901 -20.4306 -19.4575 -10.494 
-18.0111 -15.7969 -16.1198 -23.6972 -22.7076 -20.4306 -24.4971 -19.4575 
