-4.759 
n/a 
n/a 
n/a 
n/a 
-4.759 
n/a 
n/a 
n/a 
n/a 
-4.759 
n/a 
n/a 
n/a 
n/a 
-4.759 
n/a 
n/a 
n/a 
n/a 
-1.934 -5.3885 0 -5.0295 -1.756 -4.2485 -2.4945 -3.299 -2.5685 -4.173 -1.4985 -3.158 
-6.4035 -5.3885 -5.0295 -6.3405 -5.8005 -6.9785 -5.663 -6.802001 -6.7155 -4.3745 -4.178 
-6.4035 -11.1415 -6.3405 -7.1785 -7.5705 -9.300501 -8.762501 -9.894001 -6.982501 -5.517 
-12.4833 -12.4525 -7.1785 -8.8035 -9.593 -12.5838 -12.0283 -10.3015 -8.0625 
-13.7943 -13.2905 -8.8035 -10.1035 -12.9381 -15.8496 -12.4358 -11.5601 
-3.7685 -1.756 -5.0295 -2.4945 -3.299 -1.934 -5.3885 -2.0935 -3.3365 -3.158 
-5.4255 -6.219 -7.527 -5.663 -5.4165 -6.4035 -7.875501 -5.0915 -5.538 
-9.591001 -7.795001 -8.874001 -6.5585 -10.5035 -8.342501 -11.1117 -7.1525 
-11.4174 -8.9895 -10.2755 -12.1383 -12.4425 -11.6353 -13.1727 
-12.6119 -10.2985 -16.0431 -14.0773 -15.7353 -13.6963 
-1.934 -5.3885 0 -4.747 -1.7565 -4.237 -1.756 -5.0295 -2.4945 -3.557 -4.173 -1.4985 -3.158 
-6.4035 -5.3885 -4.747 -5.1895 -5.66 -5.4575 -6.219 -7.527 -5.304 -6.4005 -4.3745 -4.178 
-6.4035 -11.1033 -5.1895 -8.790501 -6.598 -6.9735 -7.795001 -10.0375 -7.132 -6.5935 -5.517 
-12.4451 -11.5458 -8.790501 -9.771 -8.2045 -8.5605 -10.354 -12.0015 -7.2945 -8.6285 
-12.8876 -15.1468 -9.771 -11.6419 -10.0065 -11.2437 -12.5328 -12.164 -9.544001 
-5.3885 -3.695 -4.237 -1.756 -6.254 -4.173 -1.4985 -3.158 0 
-9.1925 -8.447001 -5.4575 -7.6085 -9.158501 -4.3745 -4.178 -3.158 
-14.4093 -9.814501 -9.4805 -9.284 -9.868 -5.517 -4.178 
-15.7768 -13.9607 -11.3172 -10.635 -11.0105 -5.517 
-19.923 -15.7974 -12.6682 -11.7775 -11.0105 
