-4.759 
n/a 
n/a 
n/a 
n/a 
-4.759 
n/a 
n/a 
n/a 
n/a 
-4.759 
n/a 
n/a 
n/a 
n/a 
-4.759 
n/a 
n/a 
n/a 
n/a 
-12.16972 0 -3.0365 -2.4945 -5.557 -12.16972 -1.8085 0 -4.2415 0 -2.3085 0 -3.741 0 -2.985 0 -4.9305 0 -2.7275 0 -4.448 0 -4.1415 0 -2.9965 0 -4.7795 0 -4.1095 0 
-12.16972 -3.0365 -3.688 -8.784 -18.04732 -13.97822 -1.8085 -4.2415 -4.2415 -2.3085 -2.3085 -3.741 -3.741 -2.985 -2.985 -4.9305 -4.9305 -2.7275 -2.7275 -4.448 -4.448 -4.1415 -4.1415 -2.9965 -2.9965 -4.7795 -4.7795 -4.1095 -4.1095 
-15.20622 -3.688 -10.1145 -21.50912 -19.85582 -13.97822 -5.1735 -4.2415 -5.9575 -2.3085 -5.3375 -3.741 -6.3175 -2.985 -6.383 -4.9305 -6.5725 -2.7275 -5.8455 -4.448 -7.727501 -4.1415 -6.447 -2.9965 -6.302001 -4.7795 -8.0825 -4.1095 
-15.85772 -10.1145 -23.05002 -23.31762 -19.85582 -17.34322 -5.1735 -5.9575 -5.9575 -5.3375 -5.3375 -6.3175 -6.3175 -6.383 -6.383 -6.5725 -6.5725 -5.8455 -5.8455 -7.727501 -7.727501 -6.447 -6.447 -6.302001 -6.302001 -8.0825 -8.0825 
-22.28422 -23.05002 -24.85852 -23.31762 -23.22082 -17.34322 -6.610001 -5.9575 -8.856001 -5.3375 -7.819 -6.3175 -9.0985 -6.383 -8.1245 -6.5725 -9.3535 -5.8455 -9.126 -7.727501 -9.434001 -6.447 -9.41 -6.302001 -9.396001 -8.0825 
-8.4925 -11.0555 0 -8.4925 -11.0555 -2.846 -2.925 -2.4945 -4.2415 0 -6.259501 0 -2.7275 0 -4.448 0 -5.7415 0 -6.586 0 -5.0075 0 -6.366 0 -2.3085 0 -3.9625 0 -6.7575 0 -5.91 
-19.7602 -11.0555 -8.4925 -19.7602 -13.9015 -6.906001 -3.7675 -7.901 -4.2415 -6.259501 -6.259501 -2.7275 -2.7275 -4.448 -4.448 -5.7415 -5.7415 -6.586 -6.586 -5.0075 -5.0075 -6.366 -6.366 -2.3085 -2.3085 -3.9625 -3.9625 -6.7575 -6.7575 -5.91 
-19.7602 -19.548 -19.7602 -22.6062 -17.9615 -7.774001 -9.236 -7.901 -7.959001 -6.259501 -8.2425 -2.7275 -5.8455 -4.448 -9.033001 -5.7415 -9.0035 -6.586 -12.3143 -5.0075 -9.3435 -6.366 -7.894 -2.3085 -6.618501 -3.9625 -8.4385 -6.7575 -13.3335 
-28.2527 -30.8157 -22.6062 -26.6662 -18.8295 -13.3943 -9.236 -11.8863 -7.959001 -8.2425 -8.2425 -5.8455 -5.8455 -9.033001 -9.033001 -9.0035 -9.0035 -12.3143 -12.3143 -9.3435 -9.3435 -7.894 -7.894 -6.618501 -6.618501 -8.4385 -8.4385 -13.3335 
-39.5204 -33.6617 -26.6662 -27.5342 -24.4498 -13.3943 -13.2903 -11.8863 -10.7025 -8.2425 -11.4933 -5.8455 -10.8163 -9.033001 -12.752 -9.0035 -14.99 -12.3143 -16.6503 -9.3435 -11.0509 -7.894 -12.5484 -6.618501 -11.5099 -8.4385 -15.4371 
-8.4925 -11.0555 0 -2.846 -3.0365 -2.4945 -4.2415 0 -4.8675 0 -4.448 0 -5.3595 0 -6.597 0 -7.949501 0 -3.365 0 -4.989 0 -3.741 0 -2.9965 0 -5.1695 0 -8.43 0 
-19.7602 -11.0555 -2.846 -6.6475 -3.688 -7.901 -4.2415 -4.8675 -4.8675 -4.448 -4.448 -5.3595 -5.3595 -6.597 -6.597 -7.949501 -7.949501 -3.365 -3.365 -4.989 -4.989 -3.741 -3.741 -2.9965 -2.9965 -5.1695 -5.1695 -8.43 -8.43 
-19.7602 -13.9015 -6.6475 -7.2365 -9.276501 -7.901 -6.5635 -4.8675 -8.546 -4.448 -7.432001 -5.3595 -10.8845 -6.597 -10.3615 -7.949501 -9.943501 -3.365 -6.611 -4.989 -8.050501 -3.741 -6.429 -2.9965 -7.071 -5.1695 -14.0351 -8.43 
-22.6062 -17.703 -7.2365 -12.9402 -9.276501 -9.572001 -6.5635 -8.546 -8.546 -7.432001 -7.432001 -10.8845 -10.8845 -10.3615 -10.3615 -9.943501 -9.943501 -6.611 -6.611 -8.050501 -8.050501 -6.429 -6.429 -7.071 -7.071 -14.0351 -14.0351 
-26.4077 -18.292 -12.9402 -12.9402 -11.1021 -9.572001 -9.238501 -8.546 -9.250001 -7.432001 -13.5252 -10.8845 -14.649 -10.3615 -12.3555 -9.943501 -13.1895 -6.611 -9.686001 -8.050501 -9.769001 -6.429 -10.553 -7.071 -16.6776 -14.0351 
-12.16972 -2.846 -4.859 -4.3895 -1.8085 0 -6.259501 0 -2.7275 0 -4.448 0 -2.985 0 -4.9305 0 -2.3085 0 -4.275 0 -2.9965 0 -3.9625 0 -7.337 
-15.01572 -8.434 -9.592501 -5.9805 -1.8085 -6.259501 -6.259501 -2.7275 -2.7275 -4.448 -4.448 -2.985 -2.985 -4.9305 -4.9305 -2.3085 -2.3085 -4.275 -4.275 -2.9965 -2.9965 -3.9625 -3.9625 -7.337 
-20.60372 -13.1955 -11.2955 -5.9805 -7.9525 -6.259501 -8.2425 -2.7275 -5.8455 -4.448 -6.353001 -2.985 -6.383 -4.9305 -6.584 -2.3085 -6.1395 -4.275 -6.448 -2.9965 -6.658501 -3.9625 -10.4265 
-25.36522 -14.8985 -11.2955 -12.7949 -7.9525 -8.2425 -8.2425 -5.8455 -5.8455 -6.353001 -6.353001 -6.383 -6.383 -6.584 -6.584 -6.1395 -6.1395 -6.448 -6.448 -6.658501 -6.658501 -10.4265 
-27.06822 -14.8985 -18.1099 -12.7949 -9.584001 -8.2425 -11.4933 -5.8455 -7.653 -6.353001 -9.558001 -6.383 -7.960501 -6.584 -9.3645 -6.1395 -7.854 -6.448 -10.218 -6.658501 -13.4641 
