-4.759 
n/a 
n/a 
n/a 
n/a 
-4.759 
n/a 
n/a 
n/a 
n/a 
-4.759 
n/a 
n/a 
n/a 
n/a 
-4.759 
n/a 
n/a 
n/a 
n/a 
-3.589 -3.748 -3.277 -4.253 0 -3.034 -1.4985 -4.5275 -4.1865 -5.213 -6.363 -3.7015 -1.4985 -4.317 -5.213 0 -1.4985 -5.8945 -4.147 -2.7415 -4.5485 0 
-6.1995 -5.8405 -5.981 -4.253 -3.034 -3.947 -5.948 -9.5915 -8.349001 -9.744 -9.067501 -4.3435 -5.569 -7.5465 -5.213 -1.4985 -6.577001 -7.8385 -7.036 -5.5565 -4.5485 
-8.421 -8.345501 -5.981 -6.672501 -3.947 -8.198001 -11.4754 -13.9176 -13.1636 -13.0639 -9.578501 -8.477 -7.637501 -7.5465 -6.641 -6.577001 -8.271001 -11.4703 -9.257001 -5.5565 
-10.2435 -8.345501 -7.449501 -7.5 -8.198001 -14.057 -15.8015 -18.7322 -16.4835 -13.5749 -13.712 -9.597 -7.637501 -8.764001 -12.0153 -8.271001 -12.383 -13.6913 -9.257001 
-10.2435 -10.253 -8.288 -11.9004 -14.057 -18.3831 -20.6161 -22.0521 -16.9945 -17.7084 -14.832 -9.597 -8.852 -14.1797 -13.7093 -12.383 -14.604 -13.6913 
-5.12 -5.335 -2.4285 -5.12 -6.066 -2.4945 -5.6645 -3.8755 -2.3345 -11.2375 -5.4535 -1.756 -5.173 0 -4.013 -3.0365 -2.4945 -3.849 -3.6065 -4.2645 -2.9705 -2.882 -4.0195 -3.2775 -3.8465 0 
-7.663001 -8.031 -7.1975 -9.757 -7.701001 -8.8815 -8.790501 -4.4955 -12.714 -14.1925 -6.2905 -6.724 -5.173 -4.013 -5.438 -3.688 -5.189 -5.558001 -6.781 -6.348001 -4.7675 -5.268001 -6.593 -6.5175 -3.8465 
-9.927501 -10.6345 -10.6215 -10.5665 -10.7025 -10.5865 -9.0345 -12.8265 -10.4375 -10.492 -7.165 -6.724 -8.449 -5.438 -5.926 -5.231 -6.6545 -8.505501 -8.7705 -7.903501 -6.4395 -7.678 -9.816 -6.5175 
-10.638 -10.724 -10.723 -10.723 -10.727 -10.617 -11.3155 -10.4485 -10.459 -10.4525 -7.165 -9.647 -9.72 -5.926 -7.403 -6.6645 -9.703501 -10.1035 -9.729 -9.8605 -9.192 -9.9305 -9.816 
-10.7275 -10.749 -10.748 -10.748 -10.752 -10.764 -10.4865 -10.454 -10.4575 -10.456 -10.0885 -10.349 -9.943001 -7.403 -8.7205 -9.719001 -10.331 -10.388 -10.421 -10.422 -10.186 -9.9305 
-3.882 0 -3.2615 -3.589 -3.748 -3.277 -3.436 0 -1.4985 -5.3905 -4.1865 -5.213 -5.404 -2.356 -1.4985 -4.317 -5.213 -1.756 -4.5485 -1.4985 -6.165 0 
-3.882 -3.2615 -6.954 -6.1995 -5.8405 -5.4395 -3.436 -1.4985 -6.9305 -10.2925 -8.349001 -10.9575 -7.2005 -3.1615 -5.569 -7.5465 -6.4325 -6.2885 -5.7605 -6.4265 -6.165 
-6.266 -6.954 -9.398001 -8.421 -7.797501 -5.4395 -4.213 -6.9305 -12.3243 -14.455 -14.3771 -12.754 -8.182 -7.247001 -7.637501 -8.559 -10.1995 -7.0055 -10.089 -6.4265 
-10.186 -9.398001 -12.1183 -10.195 -7.797501 -6.117001 -10.4585 -12.3243 -16.4868 -20.4831 -16.1736 -13.7355 -12.7153 -9.215501 -8.6385 -12.4476 -10.9729 -10.759 -10.089 
-12.8288 -12.1183 -13.8923 -10.195 -8.251 -12.6651 -15.8523 -16.4868 -22.5149 -22.2796 -17.1551 -18.2688 -14.6838 -10.5045 -12.5423 -13.221 -14.7264 -10.759 
-3.882 -1.4985 -4.794 -4.1865 -5.213 -3.952 -3.7015 -1.4985 -3.994 -5.213 -1.756 -3.433 -1.7565 -2.3335 -6.111 -3.787 -2.7415 -3.8755 0 
-5.3145 -6.842501 -9.901501 -8.349001 -9.259501 -6.943 -4.3435 -5.717 -8.1675 -6.4325 -5.2745 -4.1845 -4.314 -9.7215 -8.554 -6.6375 -5.065001 -3.8755 
-10.8405 -11.9308 -14.064 -12.6791 -12.6855 -7.622 -8.653001 -9.3765 -9.933001 -9.5495 -5.8975 -6.014 -12.1352 -12.2039 -11.4885 -8.971001 -5.065001 
-15.9288 -16.0933 -18.3941 -16.1051 -13.3645 -12.1301 -13.1245 -10.75 -13.05 -9.985001 -6.7725 -14.141 -14.6176 -15.1384 -13.822 -8.971001 
-20.0913 -20.4234 -21.8201 -16.7841 -17.8726 -16.6016 -14.498 -13.867 -13.4855 -10.8868 -15.3071 -16.6234 -17.5521 -17.4719 -13.822 
