-4.759 
n/a 
n/a 
n/a 
n/a 
-4.759 
n/a 
n/a 
n/a 
n/a 
-4.759 
n/a 
n/a 
n/a 
n/a 
-4.759 
n/a 
n/a 
n/a 
n/a 
-3.1495 -5.8555 -4.174 -1.4985 -4.273 -1.7565 -3.043 -1.7695 -3.511 -1.4985 -3.3435 0 -3.301 -3.527 0 -1.756 -1.8085 -5.3555 -2.0935 -1.4985 -3.1385 0 
-7.467 -10.304 -5.181 -5.1805 -6.0075 -4.6315 -3.528 -4.633 -5.473001 -4.6745 -3.3435 -3.301 -6.885 -3.527 -1.756 -3.584 -6.878 -7.338 -2.9725 -4.2575 -3.1385 
-12.0763 -11.311 -9.0425 -6.522 -8.504001 -5.396501 -6.088 -6.2985 -6.691 -4.6745 -6.4085 -6.885 -6.885 -5.285501 -3.584 -8.333 -8.449 -7.563 -5.5795 -4.2575 
-13.0833 -15.1725 -10.5755 -8.897501 -8.7225 -7.678 -7.6955 -7.120501 -6.691 -9.224501 -10.9463 -6.885 -8.5245 -6.974 -8.333 -10.034 -9.075001 -11.3272 -5.5795 
-16.9448 -16.7055 -12.951 -9.139501 -11.1948 -9.045001 -8.468 -7.120501 -10.647 -14.0565 -10.9463 -8.5245 -9.564 -12.1656 -10.034 -10.639 -12.0184 -11.3272 
-3.1495 -2.4945 -3.115 -1.4985 -3.3435 -2.229 -4.703 -2.0935 -1.4985 -4.9225 -3.0695 -2.911 -2.0935 -1.4985 -4.6335 -7.4335 -1.756 -3.074 -2.4265 -2.5045 -1.8085 -7.977 -2.9705 -3.9075 -1.934 -2.5685 -1.4985 -2.95 0 
-4.459 -5.505 -4.2305 -4.6745 -5.37 -6.6885 -6.4825 -2.9725 -6.040501 -6.854 -7.0305 -4.1005 -2.9725 -5.611501 -9.1005 -8.4635 -4.566 -5.653 -4.6185 -3.3625 -10.2839 -10.907 -6.7145 -5.679501 -4.244 -3.7015 -3.9285 -2.95 
-7.593 -6.576 -7.746 -7.477 -9.6895 -8.644001 -7.233 -7.446001 -7.757 -11.376 -7.565001 -5.508501 -7.0895 -10.361 -10.135 -11.5347 -6.903501 -9.561501 -5.1695 -12.8175 -13.2139 -14.651 -9.161 -7.9755 -5.3815 -4.979 -3.9285 
-8.393001 -10.1265 -10.142 -12.2603 -11.848 -9.639501 -11.9511 -8.9945 -12.4376 -11.9105 -8.593 -8.8225 -12.1366 -11.3955 -13.2062 -13.8722 -10.879 -10.1405 -14.8483 -15.7475 -16.9579 -17.0975 -11.6896 -9.425 -7.217501 -4.979 
-12.0081 -12.5519 -14.9253 -14.4188 -12.8435 -14.3976 -13.4996 -13.9033 -12.9721 -12.9385 -12.0886 -14.2682 -13.1711 -14.4667 -15.5437 -17.8477 -11.458 -19.9831 -17.7783 -19.4915 -19.4044 -19.6261 -13.1391 -11.35 -7.217501 
-2.3615 -4.2705 -3.874 -2.645 -8.2185 -2.0935 -3.0695 -6.3105 -1.756 -4.7625 -5.547 
-5.4205 -9.425501 -5.925 -11.046 -11.136 -6.0085 -9.223001 -7.763 -6.143 -10.443 
-10.6735 -11.7491 -14.8702 -13.9635 -15.051 -12.8346 -11.6093 -12.8074 -12.0303 
-12.9971 -20.6943 -17.7877 -17.8785 -21.8771 -15.2209 -16.6537 -18.6947 
-21.9423 -23.6118 -21.7027 -24.7046 -24.2634 -20.2653 -22.541 
-3.1495 -7.689 -2.742 -2.489 -4.2645 -1.7695 -2.5685 -3.45 -3.1385 -3.0695 -4.486 -3.8905 -2.229 -5.9645 -1.756 -4.928 -1.7695 -3.6835 -5.164 -2.5045 -2.5685 -4.033 -1.756 -3.685 -2.5045 -1.8085 -4.4185 0 
-9.750501 -10.543 -3.301 -5.8625 -4.981 -4.2305 -4.985 -5.45 -4.286 -6.018001 -6.972 -4.803 -7.4255 -7.354001 -6.3855 -5.780001 -5.4475 -5.399 -7.4485 -4.275 -5.286 -5.2755 -5.691 -5.0275 -3.3625 -6.6695 -4.4185 
-12.6117 -11.102 -6.8815 -6.238 -6.251 -5.9945 -6.5465 -6.0005 -7.211 -8.2805 -7.4215 -9.0515 -8.842001 -12.4781 -7.252 -8.330501 -6.968 -7.686501 -8.483 -5.5845 -6.53 -9.3205 -6.43 -5.5675 -7.656001 -6.6695 
-13.1707 -14.6825 -7.256 -7.265 -9.050501 -7.500501 -7.0425 -8.998 -9.646501 -9.029 -12.6746 -10.164 -13.9741 -13.3446 -9.7735 -9.368501 -8.796 -8.725 -9.899 -6.7675 -10.533 -9.5205 -6.891 -9.672501 -7.656001 
-16.7512 -15.057 -8.035501 -9.858001 -10.5037 -7.789001 -10.2585 -11.4821 -10.377 -14.3165 -13.7871 -15.2961 -14.8406 -15.8661 -10.7147 -11.2785 -10.238 -10.2035 -11.1208 -10.563 -10.775 -9.928 -11.2842 -9.672501 
