-4.759 
n/a 
n/a 
n/a 
n/a 
-4.759 
n/a 
n/a 
n/a 
n/a 
-4.759 
n/a 
n/a 
n/a 
n/a 
-4.759 
n/a 
n/a 
n/a 
n/a 
-2.3615 -4.4385 -2.186 -2.871 -1.7565 -1.4985 -3.672 -4.389 -9.919001 -3.586 -1.4985 -12.16972 -3.1335 -3.918 0 
-6.924 -6.318501 -4.247 -3.5385 -2.4195 -4.936 -9.7795 -15.4568 -13.6148 -5.649 -14.76202 -15.30322 -7.436 -3.918 
-7.895 -8.442 -4.411 -3.7675 -5.8365 -11.7363 -21.1777 -19.1526 -15.6778 -19.45632 -17.89552 -19.60572 -7.436 
-10.238 -8.6435 -4.5655 -7.6405 -12.8858 -23.1345 -24.8735 -21.2156 -29.48512 -22.58982 -22.19802 -19.60572 
-10.39 -8.863501 -9.047 -14.9946 -24.284 -26.8303 -26.9365 -35.02292 -32.61862 -26.89232 -22.19802 
-2.3615 -3.682 -3.074 -3.402 -2.264 -1.4985 -3.917 -4.1535 -3.8085 -12.16972 -3.1335 0 
-5.3875 -6.552 -6.5205 -3.793 -2.9195 -5.006001 -8.5845 -8.068001 -17.67602 -15.30322 -3.1335 
-7.440001 -9.7045 -6.6555 -4.34 -6.3985 -9.384001 -12.7322 -22.32892 -20.80952 -15.30322 
-10.8237 -9.764001 -7.1575 -7.336 -11.2657 -13.9347 -26.99312 -25.46242 -20.80952 
-10.8832 -10.238 -10.275 -12.4556 -15.8164 -28.19562 -30.12662 -25.46242 
-2.3615 -3.519 -2.186 -4.091 -5.147 -2.3345 -4.9175 -1.756 -4.4105 -4.254 -3.1335 -4.4905 0 
-4.7965 -5.3195 -4.969501 -9.509001 -7.736501 -6.7295 -6.1505 -5.823 -10.078 -7.507501 -8.167 -4.4905 
-5.9465 -8.2015 -10.543 -12.3775 -12.5367 -7.962 -11.4423 -11.8277 -13.7975 -13.39 -8.167 
-9.667001 -13.9138 -13.4115 -17.1777 -13.7692 -13.9356 -17.447 -15.5472 -19.68 -13.39 
-15.6209 -16.7823 -18.2117 -18.4102 -19.7428 -19.9403 -21.1665 -21.4297 -19.68 
-2.3615 -9.286 -1.7695 -4.374 0 -2.9705 -2.8645 -3.135 -4.273 -1.756 -4.645 
-12.9357 -9.619 -5.643 -4.374 -2.9705 -4.6335 -5.203 -7.898 -5.7445 -6.3775 
-13.2687 -13.6775 -5.643 -7.1055 -4.6335 -6.932 -10.3745 -9.512 -9.816001 
-17.3272 -13.6775 -8.289001 -8.7895 -6.932 -12.3005 -11.9885 -13.6479 
-17.3272 -16.3235 -10.2375 -11.2454 -12.3005 -13.9145 -16.1244 
