-4.759 
n/a 
n/a 
n/a 
n/a 
-4.759 
n/a 
n/a 
n/a 
n/a 
-4.759 
n/a 
n/a 
n/a 
n/a 
-4.759 
n/a 
n/a 
n/a 
n/a 
-3.535 -3.522 0 -4.628 -6.9645 -5.1785 -3.1335 
-5.913 -3.522 -4.628 -7.012 -12.9236 -8.634001 
-5.913 -8.1315 -7.012 -13.0287 -16.3791 
-9.5465 -10.4345 -13.0287 -16.4842 
-12.1981 -16.4512 -16.4842 
-3.0835 -4.584 0 -4.628 -6.739501 -3.307 -3.09 
-7.693501 -4.584 -4.628 -10.6215 -10.6925 -5.3275 
-7.693501 -9.9725 -10.6215 -14.5745 -12.713 
-13.4456 -15.5298 -14.5745 -16.595 
-19.0029 -19.4828 -16.595 
-3.0835 -3.522 0 -4.628 -4.743 -2.229 -3.307 -4.3025 
-6.3975 -3.522 -4.628 -4.7515 -6.5015 -5.7945 -8.329 
-6.3975 -8.1315 -4.7515 -6.5135 -10.7495 -10.757 
-11.7028 -8.279 -6.5135 -10.7595 -15.712 
-11.8503 -9.6665 -10.7595 -15.722 
-3.0835 -3.522 0 -4.628 -4.743 -2.229 -5.391 -3.1335 
-6.3975 -3.522 -4.628 -4.7515 -6.5015 -7.5905 -9.0205 
-6.3975 -8.1315 -4.7515 -6.5135 -12.7054 -11.5636 
-11.7028 -8.279 -6.5135 -12.7538 -16.6785 
-11.8503 -9.6665 -12.7538 -16.7269 
