-4.759 
n/a 
n/a 
n/a 
n/a 
-4.759 
n/a 
n/a 
n/a 
n/a 
-4.759 
n/a 
n/a 
n/a 
n/a 
-4.759 
n/a 
n/a 
n/a 
n/a 
-1.934 -4.4175 -4.7315 0 -3.8735 -8.052 -8.9575 -3.711 -4.0555 0 -3.135 -3.5905 -12.16972 -3.9535 
-6.2395 -8.33 -4.7315 -3.8735 -12.9175 -17.4495 -12.9993 -7.565001 -4.0555 -3.135 -5.9425 -16.54542 -16.12322 
-10.6646 -8.33 -9.376501 -12.9175 -22.315 -21.4913 -16.8533 -7.565001 -7.603 -5.9425 -19.40662 -20.49892 
-10.6646 -13.9272 -18.6339 -22.315 -26.3568 -25.3453 -16.8533 -11.5833 -10.5975 -19.40662 -23.36012 
-16.2618 -23.1846 -28.0314 -26.3568 -30.2108 -25.3453 -20.8716 -14.5778 -24.06162 -23.36012 
-2.4265 -2.186 -4.1205 -2.3335 -1.4985 -6.144 -5.2145 -2.7415 -4.2215 -2.3345 -3.757 -1.7565 -3.9025 -1.756 -4.729 -3.458 -1.4985 -6.9675 -2.5195 -1.4985 -3.5455 -4.02 -3.355 -1.756 -1.4985 -5.79 -3.1385 -1.934 -1.4985 -3.59 -3.5455 -1.4985 -3.8405 -1.7565 -4.7315 -5.804 
-3.292 -5.007 -5.9915 -3.3515 -7.007 -8.3755 -7.336 -4.7885 -6.7565 -5.1715 -4.742 -5.5375 -5.5695 -6.597 -7.315001 -4.063 -7.441 -8.7545 -3.1695 -4.554 -6.2945 -6.454 -5.5415 -3.0405 -6.660501 -9.219001 -4.522 -2.6125 -4.268 -6.657001 -3.91 -4.7545 -4.563 -6.4515 -8.718 
-6.0455 -6.851 -6.5335 -8.6715 -8.7995 -9.975 -8.979 -7.604 -9.599001 -5.1885 -7.707 -6.758 -8.780001 -9.126 -7.807 -9.639 -9.342 -9.276501 -5.8305 -6.8885 -7.778501 -8.619 -6.5595 -8.2165 -9.8695 -10.7827 -5.087501 -4.955501 -6.916 -6.932 -5.4455 -5.365 -9.0375 -9.802501 
-6.87 -7.2865 -12.0827 -10.5135 -10.4675 -11.618 -11.7713 -10.5425 -9.6055 -9.73 -8.469501 -10.442 -11.9078 -9.923 -13.6714 -12.2602 -9.9045 -10.02 -8.3935 -7.8585 -10.1225 -9.338 -12.0607 -11.5331 -11.7044 -11.3482 -7.044001 -7.538501 -7.1635 -8.368501 -5.984 -9.8475 -13.015 
-7.2925 -12.9575 -13.9247 -12.1815 -12.1105 -14.4103 -14.7098 -10.5595 -14.1826 -10.5195 -12.9563 -13.5698 -12.7048 -15.7874 -16.2926 -12.8227 -10.6145 -12.583 -9.598001 -10.3215 -10.8415 -14.9882 -15.3773 -13.368 -12.2699 -13.3047 -9.935 -7.777501 -8.659 -8.863501 -10.5325 -13.999 
-3.6215 -4.7315 -5.804 0 -3.433 -1.7565 -1.4985 -3.9025 -1.7565 -8.285001 -2.5045 -1.4985 -3.5455 -4.02 -3.892 -1.7565 -3.8735 -1.756 -2.985 -6.227 -2.356 -1.4985 -3.352 -5.3625 -3.9875 -1.7695 -1.4985 -6.144 -5.2145 0 
-7.244 -8.718 -4.165 -3.433 -4.1845 -2.4195 -5.1785 -5.6505 -9.2935 -10.802 -3.1915 -4.554 -6.2945 -6.1545 -5.131001 -5.112 -5.3865 -4.2025 -8.747 -7.7365 -3.1615 -4.43 -7.2165 -9.521501 -4.6185 -2.7955 -7.007 -8.3755 -5.2145 
-8.902 -7.749001 -8.258 -4.1845 -4.6515 -6.231501 -6.1085 -13.8221 -12.1013 -11.489 -6.082 -6.8885 -7.9455 -7.2335 -7.613501 -6.409 -7.923501 -9.572001 -9.6055 -8.39 -5.863501 -7.578001 -11.3877 -10.6755 -5.601 -8.209001 -8.7995 -8.3755 
-8.7145 -11.8814 -8.984501 -4.6515 -8.809 -7.3075 -14.5217 -16.6299 -12.7883 -14.3795 -8.325001 -8.304501 -8.508 -9.226501 -8.698501 -8.776001 -13.4682 -10.405 -9.9055 -11.2052 -8.805 -11.819 -12.5417 -11.658 -11.5873 -10.181 -8.7995 
-12.9591 -12.6079 -9.4315 -8.809 -9.123 -16.2615 -17.3295 -17.3169 -15.6788 -16.6225 -10.3394 -8.6095 -9.969501 -10.3895 -11.2699 -14.3925 -14.3012 -10.7475 -12.7839 -14.1467 -13.1594 -12.973 -13.5242 -17.6443 -13.5593 -10.181 
-1.4985 -7.466001 -4.9225 -2.4945 -5.3905 -1.934 -3.8735 -1.934 -6.217 -4.7315 0 -3.321 -1.4985 -3.9675 -2.4945 -4.09 -1.934 -3.8735 0 
-8.868 -12.9419 -6.9525 -7.002 -6.8995 -4.885 -5.938 -7.934 -10.051 -4.7315 -3.321 -4.481 -5.356501 -6.638 -5.816 -5.2875 -4.885 -3.8735 
-14.8253 -14.9719 -11.778 -8.130501 -10.6465 -6.568501 -11.719 -13.3916 -10.5706 -8.389 -4.481 -8.597 -8.2825 -9.865001 -6.794 -7.9935 -4.885 
-16.8553 -19.7974 -12.9065 -12.2461 -12.33 -12.1318 -17.3084 -13.5986 -14.5529 -9.394501 -8.597 -11.6158 -11.5653 -10.8616 -10.316 -7.9935 
-21.6808 -20.9259 -17.0221 -13.9296 -17.9141 -17.6942 -17.3084 -17.5809 -15.5584 -13.6725 -11.6158 -14.8986 -12.5619 -14.3836 -10.316 
