-4.759 
n/a 
n/a 
n/a 
n/a 
-4.759 
n/a 
n/a 
n/a 
n/a 
-4.759 
n/a 
n/a 
n/a 
n/a 
-4.759 
n/a 
n/a 
n/a 
n/a 
-1.4985 -4.007 -2.186 -4.4835 -2.356 -3.5025 -4.4315 -2.743 0 -4.4535 -1.756 -5.531 0 -2.5685 -8.072001 -4.826 -4.861 0 -4.861 0 
-5.2025 -5.616 -5.6615 -4.9135 -5.519 -4.732 -5.738501 -2.743 -4.4535 -5.844501 -7.7445 -5.531 -2.5685 -11.5961 -13.3954 -10.004 -4.861 -4.861 -4.861 
-6.3485 -8.335 -5.7075 -7.6035 -6.0125 -5.756 -5.738501 -6.529 -5.844501 -8.495501 -7.7445 -8.634501 -11.5961 -16.9195 -18.5734 -10.004 -7.7765 -4.861 
-9.157001 -8.393001 -8.558001 -7.639 -7.192 -5.756 -7.04 -8.5815 -8.495501 -8.495501 -9.6845 -18.1341 -16.9195 -22.0975 -18.5734 -13.2339 -7.7765 
-9.232 -11.4613 -8.611 -9.0105 -7.192 -7.0405 -9.080001 -12.1207 -8.495501 -10.4945 -19.4719 -23.4575 -22.0975 -22.0975 -21.8033 -13.2339 
-2.3615 -3.7745 -3.946 -3.5025 -4.4315 -2.743 0 -4.4535 -1.756 -5.531 
-6.7415 -8.466001 -8.417 -4.732 -5.738501 -2.743 -4.4535 -5.844501 -7.7445 
-11.875 -13.1458 -10.078 -5.756 -5.738501 -6.529 -5.844501 -8.495501 
-16.5548 -14.8068 -11.102 -5.756 -7.04 -8.5815 -8.495501 
-18.2158 -15.8308 -11.102 -7.0405 -9.080001 -12.1207 
-3.1495 -3.9785 -4.126 -3.5025 -4.4315 -2.743 0 -4.4535 -1.756 -6.845 0 
-7.594001 -7.689 -8.421 -4.732 -5.738501 -2.743 -4.4535 -5.844501 -9.416 -6.845 
-11.6243 -12.298 -10.2435 -5.756 -5.738501 -6.529 -5.844501 -14.9549 -9.416 
-16.2333 -14.1205 -11.4223 -5.756 -7.04 -8.5815 -14.9549 -14.9549 
-18.0558 -15.2993 -11.4223 -7.0405 -9.080001 -18.5801 -14.9549 
-3.1435 -4.007 -5.483 -2.356 -3.5025 -4.4315 -2.743 0 -8.035001 -1.756 -7.1925 0 -2.5685 -5.328 -4.861 0 -4.861 0 
-6.884501 -10.8845 -7.467 -5.519 -4.732 -5.738501 -2.743 -8.035001 -9.142501 -8.0275 -7.1925 -2.5685 -8.625 -8.0905 -4.861 -4.861 -4.861 
-14.4022 -12.8685 -10.9114 -6.0125 -5.756 -5.738501 -11.0145 -9.142501 -15.7884 -8.0275 -9.7885 -8.625 -9.679001 -8.0905 -7.7765 -4.861 
-16.3862 -16.3129 -11.4049 -7.192 -5.756 -15.382 -12.122 -15.7884 -15.7884 -9.887 -16.1676 -9.679001 -9.679001 -11.4256 -7.7765 
-19.8306 -16.8064 -12.5844 -7.192 -15.5469 -16.4895 -18.7679 -15.7884 -17.6479 -16.3625 -17.2216 -9.679001 -13.1223 -11.4256 
