-4.759 
n/a 
n/a 
n/a 
n/a 
-4.759 
n/a 
n/a 
n/a 
n/a 
-4.759 
n/a 
n/a 
n/a 
n/a 
-4.759 
n/a 
n/a 
n/a 
n/a 
-3.531 -2.743 0 -3.1475 -4.493 -1.934 -5.3965 -3.1715 -1.7565 -6.077 0 -2.5045 -4.644 -2.5195 -1.4985 -5.704 -7.021 -5.4175 -1.4985 -3.892 0 
-5.652 -2.743 -3.1475 -8.2895 -5.1865 -6.394 -7.005 -4.207 -7.093501 -6.077 -2.5045 -7.671 -6.399 -3.1695 -6.755501 -13.8414 -10.348 -6.896 -4.68 -3.892 
-5.652 -5.271 -8.2895 -8.724 -9.861 -9.72 -8.056 -7.944 -7.093501 -8.5865 -7.671 -9.46 -7.223 -8.233001 -15.2301 -17.1684 -11.8265 -9.467 -4.68 
-9.5325 -10.963 -8.724 -13.6105 -13.295 -10.3775 -8.8205 -7.944 -9.22 -13.9446 -9.46 -10.03 -12.6937 -16.9184 -18.5571 -18.6469 -14.3975 -9.467 
-15.4531 -11.3975 -13.6105 -17.0445 -13.9525 -11.142 -8.8205 -10.1105 -14.6555 -15.7336 -10.03 -15.5007 -21.3791 -20.2454 -20.0356 -21.2179 -14.3975 
-3.531 -2.743 0 -3.1475 -7.6125 -1.934 -6.623 -4.8115 -3.1715 -6.077 -2.0935 -4.0195 -1.7565 -12.16972 -3.9075 -6.371 0 
-5.652 -2.743 -3.1475 -11.2906 -9.4285 -8.7075 -10.703 -7.4905 -8.717501 -8.4825 -6.259501 -4.874001 -14.87542 -16.07722 -10.3745 -6.371 
-5.652 -5.271 -11.2906 -13.1066 -16.3552 -12.9479 -13.382 -13.6721 -11.2702 -12.8505 -7.4835 -18.96532 -18.78292 -22.54422 -10.3745 
-9.5325 -13.9641 -13.1066 -20.0333 -20.5956 -15.6269 -19.5636 -16.2248 -15.6382 -14.0745 -22.04402 -22.87282 -25.24992 -22.54422 
-18.4542 -15.7801 -20.0333 -24.2737 -23.2746 -21.8085 -22.1163 -20.5928 -16.8622 -28.63502 -25.95152 -29.33982 -25.24992 
-3.531 -2.743 -4.7225 -1.934 -1.4985 -3.9075 -7.021 -4.1705 -1.934 -1.7695 -1.4985 -3.5455 -3.75 -3.8145 -6.077 -1.756 -2.4265 -4.493 -3.1475 -3.1385 0 
-5.652 -7.9575 -6.6895 -2.6125 -4.9185 -8.3155 -8.880501 -5.7605 -4.0395 -2.7955 -4.554 -5.228001 -7.134 -8.8 -7.4445 -3.949 -6.97 -7.857 -6.6685 -3.1385 
-11.9719 -10.13 -7.460001 -6.1365 -8.895 -10.5122 -11.8689 -8.413501 -5.3685 -5.5335 -5.962 -7.873501 -12.4525 -10.4595 -10.01 -7.9275 -10.396 -8.3595 -6.6685 
-14.1444 -10.9005 -9.214001 -10.096 -11.2041 -13.5006 -14.5219 -8.931001 -8.71 -6.958 -8.638 -13.7572 -14.112 -13.025 -14.0119 -11.7643 -10.8985 -8.3595 
-14.9149 -12.6545 -13.2635 -12.4051 -14.1925 -16.1536 -15.0394 -12.3019 -10.146 -9.339001 -14.8383 -15.4167 -16.6775 -17.0269 -17.8487 -12.2668 -10.8985 
-3.531 -2.743 0 -3.1475 -3.1385 -3.152 -4.493 -1.934 -3.8735 -2.229 -3.5455 -3.75 -3.1715 -6.077 -3.851 -1.7695 -1.4985 -4.7225 -4.413 -2.3345 -7.021 -3.9075 0 
-5.652 -2.743 -3.1475 -6.6685 -5.219 -5.593 -5.1865 -4.885 -5.3655 -5.862 -5.228001 -6.9685 -8.717501 -9.794001 -4.0015 -2.7955 -5.713 -8.085501 -4.6955 -9.6005 -7.824 -3.9075 
-5.652 -5.271 -6.6685 -8.2815 -6.315001 -6.176001 -7.9845 -6.688001 -8.272 -7.5515 -8.7395 -13.6885 -12.5817 -9.8155 -4.5775 -7.1835 -8.732501 -8.486501 -13.0521 -10.9477 -7.824 
-9.5325 -10.096 -8.2815 -8.525001 -6.896501 -9.619 -9.5505 -8.554001 -8.533 -10.4035 -15.9273 -17.5527 -12.6032 -10.5005 -8.093 -10.7175 -9.244 -17.2031 -14.3993 -10.9477 
-14.5861 -11.709 -8.525001 -9.4405 -10.05 -10.3235 -11.6373 -8.774 -10.597 -17.8527 -19.7915 -17.5742 -13.2882 -14.016 -12.1232 -11.229 -18.1538 -18.5503 -14.3993 
