-4.759 
n/a 
n/a 
n/a 
n/a 
-4.759 
n/a 
n/a 
n/a 
n/a 
-4.759 
n/a 
n/a 
n/a 
n/a 
-4.759 
n/a 
n/a 
n/a 
n/a 
-7.823 -12.16972 0 -2.186 -1.8085 -3.7955 -2.9705 -3.43 -1.4985 -6.0695 -1.7565 -3.7955 -1.7695 -5.2275 0 
-20.72112 -12.16972 -2.186 -3.164 -5.1665 -6.6265 -5.781 -4.7635 -6.531501 -6.7495 -5.9645 -6.061501 -5.7185 -5.2275 
-20.72112 -14.35572 -3.164 -6.673501 -7.581501 -8.908001 -6.591001 -10.66 -6.8395 -11.6985 -8.436501 -10.0125 -5.7185 
-22.90712 -15.33372 -6.673501 -8.726001 -9.955501 -10.0505 -12.5455 -10.968 -11.9951 -14.1705 -12.6967 -10.0125 
-23.88512 -18.84322 -8.726001 -11.1224 -11.1128 -16.005 -12.8535 -16.1236 -14.4671 -18.4307 -12.6967 
-7.823 -4.0135 -1.7565 -3.1385 0 -5.657 -3.402 -3.853 -2.8645 -3.1125 -3.881 0 
-12.5649 -4.201 -4.388 -3.1385 -5.657 -9.9895 -7.925501 -7.394 -3.5345 -5.7445 -3.881 
-12.7524 -6.495501 -4.388 -10.3165 -9.9895 -15.2044 -10.7025 -8.081 -6.1475 -5.7445 
-15.0469 -6.495501 -12.1276 -14.9842 -15.2044 -17.9814 -11.3895 -10.228 -6.1475 
-15.0469 -14.7001 -16.7953 -20.1991 -17.9814 -18.6684 -13.5365 -10.228 
-8.771001 -12.16972 0 -2.7415 -5.7485 -1.4985 -4.6695 -3.941 -2.9705 -2.7415 -4.246 -4.5855 -2.3345 -3.595 0 
-21.69752 -12.16972 -2.7415 -8.5985 -6.2745 -5.959001 -9.489 -6.954 -4.512 -6.1525 -8.6485 -6.627 -5.597 -3.595 
-21.69752 -14.91122 -8.5985 -9.3325 -11.104 -10.411 -12.6976 -8.4595 -7.684501 -9.84 -10.209 -10.177 -5.597 
-24.43902 -20.76822 -9.3325 -14.1776 -15.556 -13.9996 -14.2031 -11.7168 -11.5684 -12.0291 -13.9 -10.177 
-30.29602 -21.50222 -14.1776 -18.6296 -19.1446 -15.5051 -17.4604 -15.6007 -13.7575 -15.7201 -13.9 
-5.759501 -2.7415 -3.7855 -2.5045 -2.3615 -4.5375 -2.186 -3.881 -2.7455 -1.4985 -7.466001 -4.1005 -4.0375 -2.264 -3.251 -1.7565 -1.4985 -3.979 
-9.4905 -5.209001 -5.567 -4.9645 -6.228 -6.2825 -5.3 -5.784 -3.637 -8.868 -12.1199 -8.647 -6.498 -5.769 -4.97 -2.4195 -4.871 
-12.0496 -7.0185 -8.720501 -8.812 -7.1205 -8.2665 -7.422501 -6.5035 -11.4049 -14.0033 -16.6664 -11.3851 -10.6224 -6.552001 -5.294 -5.5075 
-13.8591 -10.0505 -12.7224 -9.477 -9.0965 -10.3675 -8.2325 -14.497 -16.5402 -18.5498 -19.4045 -15.5095 -11.4054 -7.8345 -8.1355 
-16.8911 -14.1404 -13.3874 -11.556 -11.3069 -11.1775 -16.279 -19.6323 -21.0867 -21.2879 -23.5289 -16.2925 -12.6879 -10.264 
