-4.759 
n/a 
n/a 
n/a 
n/a 
-4.759 
n/a 
n/a 
n/a 
n/a 
-4.759 
n/a 
n/a 
n/a 
n/a 
-4.759 
n/a 
n/a 
n/a 
n/a 
-3.2825 -3.736 -4.7275 -4.1865 -3.4075 -3.9795 
-7.4735 -7.2285 -8.34 -6.714 -6.398001 
-9.504001 -10.2925 -11.8507 -9.6635 
-12.7576 -13.8032 -14.8002 
-16.2683 -16.7527 
-3.4075 -3.9795 -2.0935 -3.301 -3.736 -4.0915 -2.5195 -4.1865 -3.5435 0 
-6.398001 -5.1125 -5.14 -7.424 -8.031 -6.619 -6.6505 -6.517 -3.5435 
-7.051001 -8.396001 -9.161501 -12.1162 -10.2925 -10.2925 -8.906 -6.517 
-10.0925 -12.8875 -14.3299 -14.3777 -13.966 -13.1178 -8.906 
-14.716 -18.0559 -16.5914 -18.0512 -16.7913 -13.1178 
-3.4075 -3.9795 -2.0935 -3.2825 -3.736 -6.1925 
-6.398001 -5.1125 -5.143001 -7.4735 -8.8535 
-7.051001 -5.999001 -9.051001 -9.690001 
-8.350501 -9.477 -10.368 
-10.3955 -10.6355 
-1.4985 -3.2825 -3.736 -4.7275 -2.0935 -3.4075 -3.9795 
-3.712 -7.4735 -7.2285 -6.913001 -5.4425 -6.398001 
-7.85 -9.504001 -9.368 -10.159 -8.019001 
-9.716001 -11.8331 -12.7172 -12.8673 
-12.1971 -15.1823 -15.4255 
