-4.759 
n/a 
n/a 
n/a 
n/a 
-4.759 
n/a 
n/a 
n/a 
n/a 
-4.759 
n/a 
n/a 
n/a 
n/a 
-4.759 
n/a 
n/a 
n/a 
n/a 
-3.4865 -3.9755 -8.0555 -10.7155 -2.925 -1.7695 -4.2175 
-7.0115 -13.0804 -17.8653 -12.8855 -3.71 -7.462 
-16.8616 -22.8902 -22.059 -14.0427 -9.607501 
-26.6714 -27.0839 -22.916 -20.5206 
-30.8651 -27.9409 -29.3939 
-1.934 -2.7405 -3.5715 -2.1715 0 -1.934 -4.4655 -2.0935 -4.705 -1.8085 -3.5765 -3.4715 0 -1.4985 -7.297 -4.278 -4.4895 -2.664 -4.0645 -4.197 -3.7015 -2.9705 -1.4985 -3.6045 -1.7565 -3.602 -2.186 -5.37 
-4.858 -4.7935 -5.1815 -2.1715 -1.934 -5.551 -5.376 -5.6855 -5.64 -5.516 -5.405 -3.4715 -1.4985 -6.4355 -8.740001 -9.573 -6.6005 -5.4885 -7.272 -8.0105 -5.948501 -4.186 -4.621 -4.455 -5.373 -6.423 -6.5 
-8.410001 -6.851501 -5.1815 -4.673 -5.551 -5.72 -9.176001 -6.409 -8.687 -6.944 -5.405 -5.5975 -5.7225 -8.285501 -10.262 -10.083 -9.534 -9.065001 -10.047 -9.027 -6.62 -7.6975 -4.7795 -8.126 -7.535 -10.019 
-10.426 -6.851501 -7.606 -8.323501 -5.72 -9.357 -9.627501 -9.265501 -9.818501 -6.944 -7.4615 -9.118501 -7.600501 -10.1055 -10.0985 -10.0925 -10.0585 -10.0505 -10.0555 -9.521 -8.991 -7.882 -8.279501 -9.4945 -10.025 
-10.426 -10.389 -10.6465 -8.452001 -9.357 -9.6555 -10.095 -10.0895 -9.818501 -9.4095 -10.0765 -10.0925 -10.088 -10.094 -10.101 -10.0985 -10.064 -10.056 -10.0675 -10.0365 -9.065001 -10.031 -9.598001 -10.0355 
-2.3335 -3.4865 -4.278 -3.5715 -2.1715 -2.7405 -3.5725 -4.2175 0 
-5.845 -9.429501 -8.8675 -5.1815 -4.678 -7.123501 -6.9845 -4.2175 
-12.1774 -14.2172 -10.082 -6.2395 -9.026 -10.9119 -6.9845 
-16.9651 -15.4317 -11.744 -10.7565 -13.0166 -10.9119 
-18.1796 -17.0937 -16.261 -14.7471 -13.0166 
-2.3335 -2.7415 -3.961 -1.934 -1.8085 -3.2825 -3.3755 -3.0415 -2.3335 -2.4265 -2.742 -3.9915 -4.278 -4.732 -8.033 -4.912001 
-4.2725 -5.274 -5.894 -3.2685 -5.5105 -5.0085 -5.917 -4.132 -3.913 -4.095 -4.9855 -9.258 -9.876 -10.4345 -12.3485 
-6.7535 -6.8275 -6.7925 -7.1625 -7.7995 -8.374001 -6.699 -5.238 -5.1505 -6.3665 -10.218 -15.3256 -15.8029 -12.727 
-8.292001 -7.995501 -11.3895 -9.029501 -10.6335 -9.356001 -7.764 -6.4155 -7.539001 -11.7942 -16.3654 -21.2525 -18.0954 
-9.663 -12.6937 -13.2565 -11.5893 -11.6155 -10.4685 -9.040501 -8.8825 -12.9061 -17.9416 -22.2923 -23.545 
