-4.759 
n/a 
n/a 
n/a 
n/a 
-4.759 
n/a 
n/a 
n/a 
n/a 
-4.759 
n/a 
n/a 
n/a 
n/a 
-4.759 
n/a 
n/a 
n/a 
n/a 
-2.0935 -3.668 -2.664 -3.74 -3.43 -1.934 -3.7925 -4.2915 -3.5455 -3.488 -3.225 -4.4175 -2.3335 -3.0365 -5.4195 -4.277 -3.16 -3.64 -2.4945 -3.8825 -1.934 -3.5025 0 
-3.995 -5.6575 -5.3455 -7.5015 -4.639 -6.5445 -7.852501 -7.8735 -6.675 -5.143 -8.042001 -5.0185 -4.2925 -9.044001 -7.7335 -7.596001 -4.892 -5.508 -5.478001 -4.9695 -5.476501 -3.5025 
-5.7015 -8.291 -8.599001 -8.587 -9.589001 -8.240001 -12.3807 -11.28 -8.390501 -9.753501 -8.304501 -6.5645 -11.645 -11.992 -10.774 -7.848501 -6.5375 -8.5175 -5.959001 -9.1005 -5.476501 
-8.34 -11.6827 -9.755 -13.7014 -11.3277 -13.7214 -15.7872 -12.9955 -13.1168 -9.948001 -9.8675 -14.8304 -14.571 -14.6946 -10.313 -9.722501 -10.0374 -9.505 -10.19 -9.1005 
-11.7555 -12.8387 -14.8796 -15.4401 -16.8091 -17.1279 -17.5027 -17.7218 -13.3113 -11.6488 -18.274 -17.316 -17.182 -14.7161 -11.9028 -13.448 -11.0249 -14.2102 -10.19 
-4.0775 -2.0935 -2.664 -3.326 -1.934 -3.7925 -4.2915 -2.925 -3.8535 -2.664 -3.16 -2.911 0 -2.3345 -2.3335 -2.925 -3.197 -1.934 -3.488 -3.225 -3.498 -4.251 -5.4195 -4.277 -3.16 -3.64 -2.4945 -3.0365 0 
-6.528501 -4.189 -7.9325 -4.9165 -6.5445 -7.852501 -7.118 -6.845 -6.3075 -7.3935 -4.9445 -2.911 -2.3345 -5.2215 -4.0295 -5.6635 -5.382 -4.9205 -5.143 -7.067 -8.2015 -10.2965 -7.7335 -7.596001 -4.892 -5.508 -4.952001 -3.0365 
-8.320001 -9.731001 -9.8065 -10.4265 -8.240001 -11.6252 -11.4328 -9.332001 -11.739 -9.1505 -4.9445 -4.554 -5.2215 -7.824 -6.908501 -7.4015 -9.536501 -6.445 -8.884501 -12.7893 -14.4182 -12.5015 -10.774 -7.848501 -6.5375 -8.2635 -4.952001 
-14.1124 -11.6782 -15.3025 -12.122 -12.9659 -15.94 -13.9198 -14.7825 -13.496 -9.1505 -5.6385 -8.851001 -7.824 -10.9264 -8.228001 -11.912 -11.1456 -10.597 -14.8608 -19.006 -16.8122 -15.1125 -10.313 -9.722501 -9.4855 -8.2635 
-16.0596 -17.1742 -16.998 -16.8479 -17.2807 -18.427 -19.3703 -16.5395 -13.496 -10.4161 -12.3431 -11.7391 -10.9264 -12.2459 -12.9995 -13.5211 -15.2976 -16.9055 -21.0775 -21.4 -19.4232 -15.134 -11.9028 -12.8961 -9.4855 
-2.0935 -1.4985 -4.0435 -1.7565 -3.16 -3.609 -1.934 -3.7925 -4.2915 0 -1.8085 -4.46 -3.9595 -4.0775 0 -1.934 -1.4985 -3.158 -3.225 -3.488 -3.498 0 -5.4195 -3.748 -3.16 -3.609 -2.4945 -3.0365 -1.934 -3.3785 -3.473 0 
-2.9725 -5.091001 -5.224 -5.1555 -4.601 -5.203 -6.5445 -7.852501 -4.2915 -1.8085 -6.4165 -7.746 -7.671 -4.0775 -1.934 -2.6125 -4.178 -5.5645 -5.447001 -8.3465 -3.498 -4.9195 -7.222 -7.2695 -4.601 -5.377501 -4.952001 -5.238 -4.5895 -6.5385 -3.473 
-6.689001 -6.5915 -8.584001 -6.0635 -6.4735 -9.767 -8.240001 -7.852501 -6.7395 -6.4165 -8.5745 -11.9911 -7.671 -5.894001 -2.6125 -5.265 -6.5275 -8.404 -11.4923 -8.3465 -8.772 -6.885 -10.524 -7.939 -6.3825 -8.1505 -6.545001 -8.112 -8.684501 -6.5385 
-7.6545 -10.1505 -9.373001 -7.9865 -11.6359 -11.9145 -8.240001 -11.2467 -11.8039 -8.5745 -13.1194 -11.9911 -8.849501 -6.512001 -5.265 -7.2915 -9.554501 -14.4353 -11.4923 -13.8595 -10.8141 -10.3535 -10.8925 -9.854 -9.264001 -9.441501 -9.6315 -12.4772 -8.684501 
-11.3115 -10.756 -11.337 -13.2957 -13.7834 -11.9145 -12.5874 -16.3111 -13.9619 -13.1194 -13.1194 -13.1696 -9.651 -9.193001 -7.2915 -10.4505 -15.475 -14.4353 -17.0053 -15.9016 -14.2826 -11.1731 -13.3497 -12.8073 -10.587 -12.512 -14.0431 -12.4772 
-3.7925 -4.2915 -2.4945 -3.9595 -2.5045 -4.0435 -1.934 -5.487 -6.097 0 -4.8635 -5.4195 -4.277 -3.16 -2.9775 
-7.852501 -6.186 -5.425 -5.597 -7.0585 -6.1885 -7.8865 -12.603 -6.097 -4.8635 -11.6835 -7.7335 -7.596001 -4.6715 
-10.0925 -9.3785 -6.9825 -9.622 -9.388 -12.7484 -15.4919 -12.603 -10.9575 -11.8055 -14.1995 -10.774 -9.361501 
-13.4548 -10.3485 -10.66 -12.0555 -16.0975 -20.3538 -15.4919 -17.4635 -17.8995 -14.1995 -16.8105 -11.7325 
-14.4248 -14.345 -13.0935 -18.765 -23.7029 -20.3538 -20.3524 -24.4055 -20.2935 -16.8105 -19.6969 
