-4.759 
n/a 
n/a 
n/a 
n/a 
-4.759 
n/a 
n/a 
n/a 
n/a 
-4.759 
n/a 
n/a 
n/a 
n/a 
-4.759 
n/a 
n/a 
n/a 
n/a 
-2.925 -3.429 -4.98 -4.5865 -1.7565 -3.401 -3.8805 -2.7835 -1.4985 -3.6765 -2.186 -1.8085 -4.1455 -2.4285 -1.7565 -3.687 -3.8805 -2.7835 -1.4985 -3.6765 -2.186 -1.8085 -4.1285 0 
-5.533 -9.6595 -8.219 -6.312 -5.7035 -5.1885 -5.8595 -3.7575 -4.501 -5.1445 -3.164 -5.4825 -6.164001 -5.186 -6.0655 -5.3135 -5.8595 -3.7575 -4.501 -5.1445 -3.164 -5.5155 -4.1285 
-12.0533 -10.35 -9.4645 -10.6735 -7.496 -8.122001 -6.5905 -5.819 -5.778 -6.277 -6.263 -7.143001 -9.5185 -9.748501 -7.674 -8.222 -6.5905 -5.819 -5.778 -6.277 -6.8155 -5.5155 
-12.7438 -10.687 -13.8956 -12.466 -10.6133 -9.177 -8.854 -6.523 -6.773 -9.051001 -8.3205 -10.396 -14.1676 -10.72 -10.316 -9.208 -8.854 -6.523 -6.773 -8.885 -6.8155 
-13.0808 -15.1181 -15.6881 -15.5833 -11.6683 -10.622 -9.637 -7.356501 -9.5185 -9.4645 -11.6703 -15.3973 -15.1391 -14.4012 -11.6886 -11.5405 -9.637 -7.356501 -9.2665 -8.885 
-2.7835 -3.1435 -1.8085 -3.6385 -2.925 -3.047 -3.401 -4.98 -4.825 -3.5765 0 -2.7835 -2.4265 -2.186 -1.8085 -4.1105 -2.925 -3.047 -3.687 -4.98 -4.825 
-5.5185 -5.211 -4.581 -6.375 -5.4715 -6.435 -7.1715 -8.118 -6.948 -3.5765 -2.7835 -4.1745 -3.292 -3.164 -4.795 -6.9655 -5.4715 -6.934 -7.277 -8.118 
-6.661 -8.363001 -7.1995 -8.85 -8.7665 -11.1185 -10.3815 -10.361 -6.948 -6.731 -4.1745 -4.7885 -4.4005 -6.3195 -7.5765 -9.174001 -10.2755 -11.2656 -10.4185 
-9.4895 -11.2465 -9.7445 -12.3772 -14.1048 -14.3285 -12.6245 -10.361 -9.691501 -8.282001 -4.7885 -5.867 -7.848001 -8.995001 -10.103 -14.031 -14.6071 -14.4071 
-12.571 -13.7915 -13.5241 -17.7155 -17.3148 -16.5715 -12.6245 -13.1045 -11.4455 -8.904 -5.867 -8.921 -10.5635 -11.7195 -14.96 -18.3626 -17.7486 
-2.7835 -2.3335 -2.7415 -4.1455 -2.925 -2.4945 -3.8255 -3.401 -3.8805 -4.825 -3.4155 -4.9895 -2.229 -3.5765 0 -2.7835 -2.3335 -2.7415 -1.8085 -4.1285 -2.925 -2.4945 -3.8255 -3.687 -3.8805 -3.4155 -4.9895 -2.229 -3.5765 
-4.873 -4.2725 -7.4055 -7.494 -3.7675 -5.2 -7.262 -5.1885 -7.432 -9.137001 -7.2615 -7.3245 -6.033 -3.5765 -2.7835 -4.873 -4.2725 -3.891 -5.5155 -7.4475 -3.7675 -5.2 -7.709001 -5.3135 -7.875 -7.2615 -7.3245 -6.033 
-6.235001 -9.3585 -9.8545 -8.342001 -6.236001 -8.4475 -9.7271 -8.667001 -12.299 -13.1562 -10.281 -11.5325 -6.033 -6.731 -4.873 -6.235001 -5.469501 -7.3145 -8.437 -8.2205 -6.236001 -8.629001 -10.092 -9.915501 -11.9894 -10.281 -11.5325 
-12.1052 -11.7773 -10.7749 -10.9519 -9.2025 -11.0732 -13.2056 -13.8132 -16.3182 -16.1757 -14.489 -11.5325 -9.609 -9.0795 -6.235001 -7.331501 -9.3435 -9.8085 -9.119 -10.8176 -9.755 -11.5318 -15.383 -14.0299 -15.0089 -14.489 
-14.524 -12.6977 -13.3848 -13.9184 -12.0308 -14.5517 -18.3518 -17.8324 -19.3377 -20.3837 -14.489 -15.1085 -11.9497 -10.7179 -7.331501 -10.5525 -11.9837 -10.6643 -11.9665 -14.3366 -12.8388 -16.8228 -19.4974 -17.0494 -19.2169 
-2.925 -3.0465 -1.4985 -4.98 -4.5865 -1.7565 -1.4985 -3.401 -3.8805 -2.0935 -1.4985 -3.711 -1.756 -2.0935 -3.5485 -2.925 -3.0465 -1.4985 -4.98 -4.5865 -1.7565 -1.4985 -3.687 -3.8805 0 
-5.1415 -4.046 -6.212501 -8.219 -6.312 -2.4195 -3.9525 -5.1885 -5.988 -2.9725 -5.0515 -4.841 -4.3175 -4.787 -6.4715 -5.1415 -4.046 -6.212501 -8.219 -6.312 -2.4195 -4.548 -5.3135 -3.8805 
-6.2895 -9.030001 -9.298 -9.4645 -7.1145 -5.5395 -5.567 -7.72 -6.682 -6.419 -6.061501 -7.471 -7.072001 -7.73 -8.823 -6.2895 -9.030001 -9.298 -9.4645 -7.1145 -5.888 -5.6745 -5.3135 
-11.4837 -12.2005 -9.840501 -10.116 -10.2585 -6.902 -8.3365 -8.482 -10.134 -7.212501 -8.9125 -8.012501 -9.588 -10.3415 -10.304 -11.4837 -12.2005 -9.840501 -10.116 -10.264 -6.9875 -5.6745 
-14.6542 -12.743 -10.463 -13.26 -11.9008 -9.204 -8.98 -12.2418 -10.9275 -9.439501 -9.969601 -10.3735 -12.2271 -11.8225 -15.4982 -14.6542 -12.743 -10.463 -13.2655 -11.6225 -6.9875 
