-4.759 
n/a 
n/a 
n/a 
n/a 
-4.759 
n/a 
n/a 
n/a 
n/a 
-4.759 
n/a 
n/a 
n/a 
n/a 
-4.759 
n/a 
n/a 
n/a 
n/a 
-4.2525 0 -6.6585 -2.229 -10.1015 0 -9.124001 0 -3.6085 0 -4.2525 0 -1.8085 -3.647 -4.2265 0 
-4.2525 -6.6585 -9.037001 -12.9255 -10.1015 -9.124001 -9.124001 -3.6085 -3.6085 -4.2525 -4.2525 -1.8085 -5.626 -8.081 -4.2265 
-10.784 -9.037001 -19.9749 -12.9255 -19.3581 -9.124001 -13.0465 -3.6085 -8.316001 -4.2525 -6.9265 -5.626 -8.7515 -8.081 
-13.1625 -19.9749 -19.9749 -22.1821 -19.3581 -13.0465 -13.0465 -8.316001 -8.316001 -6.9265 -9.061 -8.7515 -8.7515 
-24.1004 -19.9749 -29.2315 -22.1821 -23.2806 -13.0465 -17.754 -8.316001 -11.5206 -9.061 -12.8665 -8.7515 
-4.2525 0 -4.628 -5.939 0 -12.16972 0 -2.186 -3.647 -2.229 -3.4605 0 
-4.2525 -4.628 -5.9615 -5.939 -12.16972 -12.16972 -2.186 -6.1405 -5.129 -5.0395 -3.4605 
-9.404 -5.9615 -5.9615 -19.25332 -12.16972 -14.35572 -6.1405 -7.045001 -8.0985 -5.0395 
-10.6225 -5.9615 -19.33682 -19.25332 -14.35572 -18.31022 -7.045001 -9.986001 -8.0985 
-10.6225 -19.33682 -19.33682 -21.43932 -18.31022 -19.21472 -9.986001 -9.986001 
-2.3585 -4.514 -2.186 -1.4985 -3.1065 -3.1335 -2.5195 -3.647 0 
-5.731 -6.343501 -3.339 -4.783 -5.663 -5.502 -5.697001 -3.647 
-7.9495 -7.806001 -6.1665 -6.962501 -8.073501 -8.0445 -5.697001 
-9.101501 -10.9009 -8.2735 -9.0305 -10.5745 -8.0445 
-12.4068 -13.0079 -10.0535 -11.8269 -10.5745 
-4.2525 0 -6.899 -5.1735 0 -12.16972 0 -3.6085 0 -4.2525 0 -2.4265 -2.186 -3.4605 -3.672 -2.3345 -3.647 -3.3255 -3.5025 0 
-4.2525 -6.899 -13.0829 -5.1735 -12.16972 -12.16972 -3.6085 -3.6085 -4.2525 -4.2525 -2.4265 -3.292 -7.1145 -6.9775 -4.219 -4.874001 -7.6545 -6.589001 -3.5025 
-9.682 -13.0829 -13.0829 -18.36862 -12.16972 -15.77822 -3.6085 -8.316001 -4.2525 -6.947001 -3.292 -8.910501 -11.3513 -7.146 -6.8925 -8.5915 -11.6178 -6.589001 
-17.2809 -13.0829 -26.27802 -18.36862 -15.77822 -15.77822 -8.316001 -8.316001 -6.947001 -7.954 -8.910501 -13.2949 -11.5198 -10.2035 -9.9775 -13.3184 -11.6178 
-17.2809 -26.27802 -26.27802 -21.97712 -15.77822 -20.48572 -8.316001 -11.5411 -7.954 -13.8305 -13.2949 -13.4634 -14.5773 -13.4267 -15.0294 -13.3184 
