-4.759 
n/a 
n/a 
n/a 
n/a 
-4.759 
n/a 
n/a 
n/a 
n/a 
-4.759 
n/a 
n/a 
n/a 
n/a 
-4.759 
n/a 
n/a 
n/a 
n/a 
-3.0365 -2.4945 -4.1755 -1.7565 -8.575001 -4.154 -1.4985 -5.934 -3.288 -4.399 0 
-3.688 -8.060501 -5.8255 -10.862 -13.1964 -4.6685 -6.943501 -9.586 -8.269501 -4.399 
-8.616001 -9.449501 -15.6028 -15.4834 -13.7109 -9.986 -9.8985 -14.6291 -8.269501 
-9.718 -19.3738 -20.2242 -15.9979 -19.0284 -13.4196 -14.9822 -14.6291 
-19.8119 -23.9952 -20.7387 -21.3154 -22.462 -18.5033 -14.9822 
-3.948 -4.414 -2.4945 -5.2025 -3.4635 -1.7695 -1.4985 -4.399 -1.7565 -12.16972 -4.2655 -3.1385 -3.8245 -3.147 0 
-7.886001 -6.1615 -8.871 -9.132 -4.2045 -2.7955 -5.3005 -4.831 -14.87542 -16.43522 -7.602 -5.577001 -6.1295 -3.147 
-10.292 -13.2246 -12.8915 -9.366501 -4.7965 -6.565001 -5.514501 -19.06472 -19.14092 -19.77172 -10.361 -7.68 -6.1295 
-17.3551 -17.2451 -13.126 -9.6365 -8.349501 -6.8405 -19.54602 -23.33022 -22.47742 -22.53072 -12.9296 -7.68 
-21.3756 -17.4796 -13.396 -13.6625 -8.51 -21.23542 -23.81152 -26.66672 -25.23642 -25.09932 -12.9296 
-3.0365 -2.4945 -3.6065 -3.992 -5.4395 -4.154 -1.4985 -3.1385 -3.8245 -4.275 -6.9985 
-3.688 -5.343 -6.887 -9.241 -10.1035 -4.6685 -4.2575 -5.577001 -9.116 -10.7495 
-6.0505 -10.0415 -12.9672 -14.3138 -10.417 -8.185 -6.7355 -12.7589 -15.6723 
-10.111 -16.5245 -18.04 -14.6273 -13.9335 -10.5745 -14.3934 -19.3152 
-16.727 -21.5973 -18.3535 -18.1438 -16.323 -18.2324 -20.9497 
-3.0365 -2.4945 -3.6065 -5.0375 -4.154 -1.4985 -4.399 -1.7565 -1.4985 -6.9985 -3.1385 0 
-3.688 -5.343 -7.302 -7.365001 -4.6685 -5.3005 -4.831 -2.4195 -7.8605 -8.954 -3.1385 
-6.0505 -9.241501 -9.545 -8.066501 -7.519001 -5.514501 -5.598 -8.442 -9.554001 -8.954 
-9.3205 -11.4613 -10.039 -11.1706 -7.706501 -5.949501 -10.647 -10.0005 -9.554001 
-11.6035 -11.9553 -13.1431 -11.3581 -8.223001 -10.7595 -12.2055 -10.0005 
