-4.759 
n/a 
n/a 
n/a 
n/a 
-4.759 
n/a 
n/a 
n/a 
n/a 
-4.759 
n/a 
n/a 
n/a 
n/a 
-4.759 
n/a 
n/a 
n/a 
n/a 
-5.7865 0 -6.4805 0 0 0 -9.727 0 -6.227 0 0 0 -11.0235 0 -5.868501 0 0 0 -5.943501 0 -6.302001 0 0 -3.1495 -12.16972 -2.4945 -7.735 
-5.7865 -5.938 -5.938 0 0 -9.727 -9.727 -5.6375 -5.6375 0 0 -11.0235 -11.0235 -5.2915 -5.2915 0 0 -5.943501 -5.943501 -5.395 -5.395 0 -3.1495 -16.61442 -14.66422 -9.692 
-12.6464 -5.938 -5.938 0 -9.727 -9.727 -15.5657 -5.6375 -5.6375 0 -11.0235 -11.0235 -16.315 -5.2915 -5.2915 0 -5.943501 -5.943501 -12.6756 -5.395 -5.395 -3.1495 -16.61442 -19.10892 -21.86172 
-12.6464 -5.938 -5.938 -9.727 -9.727 -15.5657 -15.5657 -5.6375 -5.6375 -11.0235 -11.0235 -16.315 -16.315 -5.2915 -5.2915 -5.943501 -5.943501 -12.6756 -12.6756 -5.395 -9.4895 -16.61442 -19.10892 -26.30642 
-12.6464 -5.938 -16.4476 -9.727 -15.5657 -15.5657 -15.5657 -5.6375 -17.4572 -11.0235 -16.315 -16.315 -16.315 -5.2915 -12.6748 -5.943501 -12.6756 -12.6756 -12.6756 -9.4895 -23.37342 -19.10892 -26.30642 
-5.7865 -2.186 -6.4805 0 -6.0115 -6.227 0 0 -5.648 -5.868501 0 -5.943501 -6.302001 0 -3.0415 -4.2915 -4.3285 0 
-8.654501 -8.93 -5.938 -6.0115 -11.722 -5.6375 0 -5.648 -10.978 -5.2915 -5.943501 -11.918 -5.395 -3.0415 -8.554001 -8.665001 -4.3285 
-15.645 -8.939501 -13.1807 -12.4154 -12.4154 -5.6375 -5.648 -11.5994 -11.5994 -12.6748 -12.6756 -12.6756 -9.2685 -8.554001 -13.2881 -8.665001 
-15.645 -16.3844 -19.5846 -12.4154 -12.4154 -12.1088 -11.5994 -11.5994 -18.9827 -19.4069 -12.6756 -16.5491 -15.3158 -13.2881 -13.2881 
-23.0899 -22.7883 -19.5846 -12.4154 -18.8867 -18.186 -11.5994 -18.9827 -25.7148 -19.4069 -16.5491 -22.5964 -20.0499 -13.2881 
-5.7865 0 -6.4805 0 0 0 -6.0115 0 -6.227 0 0 0 -5.648 0 -5.868501 0 0 0 -5.943501 0 -6.302001 0 0 -2.4945 -4.9325 0 
-5.7865 -5.938 -5.938 0 0 -6.0115 -6.0115 -5.6375 -5.6375 0 0 -5.648 -5.648 -5.2915 -5.2915 0 0 -5.943501 -5.943501 -5.395 -5.395 0 -2.4945 -6.765 -4.9325 
-12.6464 -5.938 -5.938 0 -6.0115 -6.0115 -12.4154 -5.6375 -5.6375 0 -5.648 -5.648 -11.5994 -5.2915 -5.2915 0 -5.943501 -5.943501 -12.6756 -5.395 -5.395 -2.4945 -6.765 -6.765 
-12.6464 -5.938 -5.938 -6.0115 -6.0115 -12.4154 -12.4154 -5.6375 -5.6375 -5.648 -5.648 -11.5994 -11.5994 -5.2915 -5.2915 -5.943501 -5.943501 -12.6756 -12.6756 -5.395 -9.222 -6.765 -6.765 
-12.6464 -5.938 -13.1807 -6.0115 -12.4154 -12.4154 -12.4154 -5.6375 -12.1088 -5.648 -11.5994 -11.5994 -11.5994 -5.2915 -12.6748 -5.943501 -12.6756 -12.6756 -12.6756 -9.222 -14.4691 -6.765 
-4.2915 -3.115 -5.7865 0 -6.4805 0 0 0 -6.0115 0 -6.227 0 0 0 -10.5785 0 -5.868501 0 0 0 -9.9095 0 -6.302001 0 -2.4945 -3.074 -4.9325 
-6.6435 -9.179501 -5.7865 -5.938 -5.938 0 0 -6.0115 -6.0115 -5.6375 -5.6375 0 0 -10.5785 -10.5785 -5.2915 -5.2915 0 0 -9.9095 -9.9095 -5.395 -5.395 -2.4945 -4.4205 -7.177501 
-9.5375 -9.179501 -12.6464 -5.938 -5.938 0 -6.0115 -6.0115 -12.4154 -5.6375 -5.6375 0 -10.5785 -10.5785 -15.87 -5.2915 -5.2915 0 -9.9095 -9.9095 -15.4727 -5.395 -9.222 -4.4205 -8.035501 
-9.5375 -16.404 -12.6464 -5.938 -5.938 -6.0115 -6.0115 -12.4154 -12.4154 -5.6375 -5.6375 -10.5785 -10.5785 -15.87 -15.87 -5.2915 -5.2915 -9.9095 -9.9095 -15.4727 -15.4727 -9.222 -11.875 -8.035501 
-17.006 -16.404 -12.6464 -5.938 -13.1807 -6.0115 -12.4154 -12.4154 -12.4154 -5.6375 -17.0122 -10.5785 -15.87 -15.87 -15.87 -5.2915 -16.1324 -9.9095 -15.4727 -15.4727 -19.2997 -11.875 -15.6008 
