-4.759 
n/a 
n/a 
n/a 
n/a 
-4.759 
n/a 
n/a 
n/a 
n/a 
-4.759 
n/a 
n/a 
n/a 
n/a 
-4.759 
n/a 
n/a 
n/a 
n/a 
-8.007 -2.4945 -4.1885 -4.5095 -2.0935 -3.664 -4.5095 -5.5555 0 -2.9325 -2.3585 -3.047 -2.186 -2.9325 -2.3585 -3.0465 0 
-10.061 -5.975 -7.125 -6.6365 -5.23 -8.054001 -8.1245 -5.5555 -2.9325 -4.072 -4.553 -5.67 -4.589 -4.072 -4.3895 -3.0465 
-14.3387 -9.417001 -10.105 -9.487 -9.205 -12.25 -8.1245 -7.3125 -4.072 -5.7155 -6.118 -6.578001 -5.608 -5.881001 -4.3895 
-17.7807 -12.4152 -12.9555 -13.9122 -14.1196 -12.25 -10.9775 -7.318 -5.7155 -6.4935 -6.623 -6.633501 -6.443501 -5.881001 
-20.7789 -15.2657 -17.3807 -18.8268 -14.1196 -15.103 -10.983 -7.3225 -6.4935 -6.6305 -6.6425 -6.726501 -6.443501 
-3.6595 -2.3335 -1.4985 -9.947001 -1.7565 -2.664 -3.5785 -2.186 -4.388 -4.384 0 -5.5555 -4.5085 -1.7695 -2.9995 -3.8235 -4.4825 -2.3335 -3.423 -5.075 -3.335 -3.42 -4.68 -2.264 -1.4985 -3.779 -3.979 -3.882 -8.618501 -3.251 -1.7695 -2.489 -3.8115 -1.7695 -3.335 -3.6065 -3.896 -4.532 0 -3.4765 -2.7835 -1.4985 -3.979 -3.779 -2.7415 -3.845 -1.7695 -2.871 -5.9555 -3.1015 0 -1.8085 -3.8235 -4.4825 -3.3875 -2.489 -3.8115 -1.7695 -3.779 -4.1125 -1.756 -3.3715 -3.6065 -6.317 -1.7695 -2.489 -4.1205 -5.5555 0 
-4.406 -3.3515 -10.298 -10.329 -3.9595 -4.824 -5.258 -6.344501 -9.7745 -4.384 -5.5555 -10.335 -4.58 -4.358 -5.741 -5.891 -6.5295 -4.6695 -7.547 -7.9715 -6.9735 -6.101 -6.791 -2.9195 -5.078 -6.068501 -8.196 -10.3545 -10.3545 -4.3285 -3.1405 -4.1055 -3.8325 -4.5005 -6.838 -7.086 -6.5965 -4.532 -3.4765 -4.429 -3.7575 -4.871 -6.1915 -6.8805 -6.038 -4.549 -4.5615 -8.389501 -9.3325 -3.1015 -1.8085 -4.9905 -5.891 -7.416 -3.7975 -4.1055 -3.8325 -4.6635 -7.023001 -5.3285 -4.6545 -5.106 -8.182 -8.220501 -3.1405 -4.6245 -10.143 -5.5555 
-5.081 -10.3475 -10.357 -10.3585 -5.9145 -6.3615 -9.9615 -10.316 -9.7745 -10.3475 -10.335 -10.3455 -7.8035 -8.2345 -7.6575 -7.732 -8.6745 -8.539001 -10.085 -10.322 -9.564501 -8.2995 -7.5505 -6.0005 -6.679 -10.2535 -10.354 -10.3655 -10.3655 -5.192 -4.774 -4.11 -6.291 -7.578001 -10.1765 -7.9815 -6.5965 -7.8725 -4.429 -5.248 -7.2285 -7.387501 -9.125 -9.676001 -6.314 -6.321001 -10.041 -10.348 -9.3325 -5.0505 -4.9905 -6.6215 -9.3435 -8.0785 -5.5705 -4.11 -6.2795 -8.1055 -8.3415 -8.369 -7.0745 -9.4235 -9.532001 -9.410001 -5.334 -10.2925 -10.143 
-10.3475 -10.3585 -10.368 -10.376 -7.6705 -10.298 -10.3585 -10.316 -10.3575 -10.365 -10.3455 -10.3755 -10.1805 -9.278 -9.186501 -9.739 -10.354 -10.316 -10.36 -10.3515 -10.3115 -9.383 -10.2865 -6.9965 -10.2865 -10.363 -10.365 -10.3765 -10.3765 -7.4475 -4.779 -6.596 -9.2875 -10.2535 -10.2995 -7.9815 -9.646 -8.831 -5.248 -8.598001 -9.554001 -9.656501 -10.348 -9.790501 -7.9845 -10.328 -10.3595 -10.348 -10.3485 -6.7795 -6.6215 -9.613001 -9.4995 -8.9205 -5.5765 -6.9655 -9.3855 -8.9455 -10.316 -10.034 -10.354 -10.271 -10.3555 -10.3555 -10.341 -10.2925 
-10.3585 -10.3695 -10.3855 -10.387 -10.354 -10.364 -10.3585 -10.3645 -10.3685 -10.376 -10.3755 -10.3865 -10.361 -10.2925 -10.3045 -10.357 -10.365 -10.3645 -10.371 -10.3755 -10.3275 -10.349 -10.3505 -10.354 -10.3635 -10.374 -10.376 -10.3875 -10.3875 -7.453001 -7.146501 -9.523 -10.3545 -10.307 -10.2995 -10.2695 -10.174 -9.457001 -8.598001 -10.2805 -10.323 -10.356 -10.3655 -10.3335 -10.3405 -10.3645 -10.3595 -10.3655 -10.366 -10.1855 -9.613001 -9.721001 -10.034 -8.9275 -8.158501 -9.718 -10.2495 -10.354 -10.3645 -10.359 -10.365 -10.3645 -10.3665 -10.3665 -10.341 
-2.9325 -2.3585 -3.047 -2.186 -2.9325 -2.3585 -3.0465 -2.3615 -2.186 -1.8085 -4.5095 -4.613 -3.2955 -2.3345 -1.4985 -4.1145 0 -1.4985 -4.5095 -2.3345 -3.757 -1.7565 -1.4985 -3.44 -1.756 -3.83 -4.1785 -2.7765 -2.489 -3.8535 -1.4985 0 -4.4685 0 -1.756 0 -5.849 0 -2.4945 -3.8535 -1.7695 -4.433 -1.4985 -3.699 -3.9355 -1.934 -1.4985 -7.4875 0 
-4.072 -4.553 -5.67 -4.589 -4.072 -4.3895 -5.028501 -3.5005 -3.164 -7.906501 -8.217501 -6.497001 -4.534 -3.233 -5.3525 -4.1145 -1.4985 -6.1025 -6.128 -5.1715 -4.742 -2.4195 -5.3795 -5.5375 -5.856 -6.259501 -6.610001 -3.495 -4.6325 -5.394 -1.4985 -4.4685 -4.4685 -1.756 -1.756 -5.849 -5.849 -2.4945 -5.5465 -5.1985 -5.0885 -5.2235 -5.264 -7.0575 -5.415 -2.6125 -8.682501 -7.4875 
-5.7155 -6.118 -6.578001 -5.608 -5.881001 -6.335 -7.3275 -4.179 -9.774 -11.9397 -10.089 -7.306001 -5.117 -8.022 -5.3525 -6.137 -6.1025 -8.6405 -9.567 -5.1885 -5.9175 -6.538001 -7.0705 -8.037001 -7.833001 -9.061501 -7.0435 -5.238501 -6.4405 -5.394 -5.851501 -4.4685 -5.7315 -1.756 -7.3345 -5.849 -7.092 -5.5465 -7.12 -8.663 -5.818 -8.757501 -8.036 -7.931 -5.9935 -10.5535 -8.682501 
-6.4935 -6.623 -6.633501 -6.443501 -8.0655 -8.2005 -8.200001 -10.6595 -13.8072 -13.8112 -11.1028 -8.091001 -9.2355 -8.022 -7.5 -10.5975 -8.6405 -12.3919 -9.575 -6.028 -9.869 -8.2925 -9.394501 -8.794001 -10.218 -9.651501 -9.126 -7.2215 -6.4405 -10.1035 -5.851501 -5.7315 -5.7315 -7.3345 -7.3345 -7.092 -10.1345 -7.12 -10.7575 -9.303 -9.6415 -11.8957 -8.888 -8.362 -14.5421 -10.5535 
-6.6305 -6.6425 -6.726501 -8.446 -8.548 -8.9585 -14.8073 -14.6927 -15.6787 -14.825 -11.8878 -12.3261 -9.2355 -10.034 -12.4669 -13.1355 -12.3919 -12.3999 -9.776 -9.8885 -11.7719 -10.5325 -10.3685 -11.2938 -10.668 -11.8108 -11.677 -7.2215 -11.2472 -10.1035 -6.274 -5.7315 -7.693501 -7.3345 -8.655001 -10.1345 -12.211 -10.7575 -11.3975 -13.2435 -12.6931 -12.7477 -9.269 -17.2186 -14.5421 
-1.4985 -8.726501 -2.4945 -4.1885 -1.4985 -4.5095 -1.7565 0 -5.5555 0 0 -2.9325 -2.3585 -3.047 -2.186 -2.9325 -2.3585 -3.0465 0 -2.9705 -2.186 -4.0955 -3.8535 -3.3255 -4.0595 -2.4285 -3.44 -4.0705 -2.4285 -2.664 -5.4875 -3.4985 -2.9705 -3.1425 -4.824 -1.4985 -3.866 -4.617 -3.2775 -2.5045 0 -4.4685 0 -1.756 0 -5.849 0 -2.9705 -2.186 -3.4635 -1.7695 -4.1145 -3.9075 0 
-10.0855 -10.4855 -5.975 -5.351501 -6.1025 -6.087 -1.7565 -5.5555 -5.5555 0 -2.9325 -4.072 -4.553 -5.67 -4.589 -4.072 -4.3895 -3.0465 -2.9705 -3.89 -4.968 -6.4425 -6.072001 -7.5795 -5.617001 -6.2825 -8.502501 -7.299001 -4.6775 -6.8575 -6.2335 -6.218 -4.9075 -6.922501 -6.069 -5.151 -7.411 -6.8655 -3.678 -2.5045 -4.4685 -4.4685 -1.756 -1.756 -5.849 -5.849 -2.9705 -3.89 -5.495 -4.2045 -6.501 -6.878 -3.9075 
-12.0003 -13.966 -7.002 -10.061 -7.0965 -6.087 -7.224 -5.5555 -5.5555 -2.9325 -4.072 -5.7155 -6.118 -6.578001 -5.608 -5.881001 -4.3895 -7.2685 -3.89 -6.28 -6.582 -8.138 -9.331 -9.279501 -8.5985 -12.2348 -12.1572 -10.4505 -8.97 -7.143 -8.156 -8.1635 -7.989501 -8.245001 -9.5535 -9.52 -10.403 -6.887 -3.678 -6.8065 -4.4685 -5.7315 -1.756 -7.3345 -5.849 -8.558001 -3.89 -6.8535 -5.549 -8.684001 -9.929501 -6.878 
-15.4808 -14.993 -12.1351 -11.3156 -7.0965 -12.4399 -7.224 -5.5555 -7.3125 -4.072 -5.7155 -6.4935 -6.623 -6.633501 -6.443501 -5.881001 -8.321 -7.918 -6.28 -8.218 -8.245501 -11.541 -11.2104 -12.395 -14.8242 -15.8895 -15.3087 -14.743 -9.205501 -8.6355 -10.674 -11.4027 -9.573001 -11.9085 -14.3307 -12.713 -10.4155 -6.887 -7.585001 -6.8065 -5.7315 -5.7315 -7.3345 -7.3345 -8.558001 -9.495501 -6.8535 -6.897 -10.609 -12.8501 -9.929501 
-16.5078 -20.1261 -13.3897 -11.3156 -13.9544 -12.4399 -7.224 -7.3125 -7.318 -5.7155 -6.4935 -6.6305 -6.6425 -6.726501 -6.443501 -8.851 -8.932 -9.8085 -8.218 -9.8395 -11.6727 -13.4204 -14.3259 -18.6207 -18.4789 -19.041 -19.6012 -14.9785 -10.734 -11.2361 -13.9132 -12.9862 -13.2655 -16.6857 -17.5237 -12.7255 -10.4155 -9.68 -7.585001 -7.757 -5.7315 -7.693501 -7.3345 -9.834001 -9.495501 -12.4856 -6.897 -12.1416 -14.7751 -12.8501 
