-4.759 
n/a 
n/a 
n/a 
n/a 
-4.759 
n/a 
n/a 
n/a 
n/a 
-4.759 
n/a 
n/a 
n/a 
n/a 
-4.759 
n/a 
n/a 
n/a 
n/a 
-4.138 0 -4.176 -3.2345 -2.985 -4.758 -4.821 -2.674 -4.099 -3.1575 -1.4985 -4.809 -4.257 0 
-4.138 -4.176 -8.5075 -5.2675 -7.5775 -9.029501 -7.2465 -6.2065 -4.7895 -4.1355 -5.13 -9.380501 -4.257 
-8.903 -8.5075 -10.6487 -10.543 -10.66 -11.5484 -11.2394 -7.8295 -5.547 -7.736001 -9.602501 -9.380501 
-13.2925 -10.6487 -15.9242 -13.6255 -13.1789 -15.5413 -12.8624 -9.6715 -9.848001 -12.1407 -9.602501 
-15.4337 -15.9242 -19.0067 -16.1444 -17.1718 -17.1643 -14.7044 -14.0361 -14.2955 -12.1407 
-3.0415 -3.982 -2.229 -4.348 -2.186 -3.5185 -3.3235 -4.0745 -4.8005 -2.229 -4.348 0 
-8.39 -5.746 -6.0765 -6.6995 -6.658501 -7.55 -8.036 -10.089 -6.202001 -6.0765 -4.348 
-9.396501 -9.413 -8.39 -11.4576 -11.046 -12.7819 -14.4525 -11.6191 -8.27 -6.0765 
-13.1353 -11.9307 -13.2929 -15.8451 -16.2779 -19.1984 -15.9826 -13.6871 -8.27 
-15.653 -16.8336 -17.6804 -21.077 -22.6944 -20.7285 -18.0506 -13.6871 
-3.851 -1.7695 -2.3615 0 -3.9345 -1.7695 -1.4985 -3.913 -4.176 -2.229 -5.627 -3.152 -3.301 -3.1575 -5.0665 -2.871 0 
-4.0015 -3.736 -2.3615 -3.9345 -3.94 -2.7955 -5.145 -8.5555 -6.807 -7.733 -8.715 -6.03 -6.9515 -8.111501 -7.8535 -2.871 
-6.14 -3.736 -6.7935 -3.94 -4.4455 -6.087 -11.3029 -11.7049 -12.9114 -11.257 -11.6472 -10.223 -12.5125 -11.1763 -7.8535 
-6.14 -8.415501 -6.806 -4.4455 -8.942 -12.9221 -14.4523 -17.8093 -16.4354 -14.1892 -15.8402 -15.784 -15.5773 -11.1763 
-10.31 -8.4195 -7.3185 -8.942 -15.0621 -16.0715 -20.5567 -21.3333 -19.3676 -18.3822 -21.4012 -18.8488 -15.5773 
-3.0415 -3.72 -4.509 -1.7695 -2.489 -4.6225 
-8.0625 -7.390501 -6.4175 -3.1405 -6.101 
-12.1536 -9.222 -7.937 -6.837 
-13.9851 -11.0267 -10.5225 
-15.7898 -13.6122 
