-4.759 
n/a 
n/a 
n/a 
n/a 
-4.759 
n/a 
n/a 
n/a 
n/a 
-4.759 
n/a 
n/a 
n/a 
n/a 
-4.759 
n/a 
n/a 
n/a 
n/a 
-3.882 -2.264 -6.144 -3.985 -4.18 -2.0935 -2.3335 -4.688 -1.756 -3.985 -3.277 -1.7695 -5.081 -3.0365 0 
-5.436 -8.295501 -9.8655 -8.546 -5.227 -4.488501 -6.820001 -6.153501 -5.3985 -6.0575 -4.261 -5.4075 -7.569 -3.0365 
-11.9055 -12.1744 -14.5203 -9.656501 -6.917 -8.3255 -8.0495 -8.954 -6.646 -6.3735 -7.576 -7.779 -7.569 
-15.7844 -16.8292 -15.6308 -11.3843 -10.553 -9.361 -11.1072 -10.3165 -6.8945 -10.0675 -9.374001 -7.779 
-20.4392 -17.9397 -17.3586 -15.0203 -11.5885 -12.5939 -12.4697 -10.4215 -10.597 -11.9941 -9.374001 
-3.882 -6.144 -3.985 -2.664 -5.4325 -1.7695 -5.897501 -3.115 -2.3335 -1.756 -2.925 -5.392 -3.45 -5.1255 -3.251 -1.7695 -2.985 -4.088 0 
-10.3105 -9.8655 -7.0295 -6.0325 -6.4655 -9.72 -7.1885 -4.7415 -5.031 -4.2585 -7.6685 -8.328 -7.752501 -8.377001 -3.664 -4.281 -6.527 -4.088 
-14.032 -13.0038 -10.281 -7.086 -15.1408 -10.3185 -8.578001 -6.171 -6.795001 -9.227501 -10.019 -12.7701 -10.223 -8.910001 -5.986 -7.534501 -6.527 
-17.1703 -16.2553 -11.4781 -15.9929 -15.7393 -10.489 -9.896001 -7.717 -12.0192 -11.6166 -14.4611 -15.2406 -10.9464 -9.699 -8.618501 -7.534501 
-20.4218 -17.4524 -20.385 -16.5914 -15.9098 -13.2694 -11.442 -13.0368 -14.4083 -16.0587 -16.9316 -15.964 -11.7354 -12.5715 -8.618501 
-5.3745 -4.891 -1.7565 -5.1845 -6.844 -3.882 -2.264 -6.6775 -1.7695 -5.1255 -1.756 -4.673 -3.277 -1.7695 -5.3975 -1.934 -6.4705 0 
-7.061501 -6.8725 -6.580501 -6.9655 -11.6646 -5.436 -10.7025 -7.256001 -6.7415 -6.206 -6.2085 -6.927501 -4.261 -6.2825 -5.7505 -6.8875 -6.4705 
-7.1715 -7.181 -7.1625 -11.9555 -13.2186 -14.3125 -11.281 -9.743501 -7.8415 -10.7175 -7.517 -7.111501 -8.484 -6.6515 -11.3536 -6.8875 
-7.185 -7.202001 -12.3603 -13.5095 -22.0951 -14.891 -13.7685 -11.3885 -12.4656 -12.026 -7.603001 -11.9235 -8.854 -12.4712 -11.3536 
-7.2055 -12.5094 -13.9143 -22.386 -22.6736 -17.3785 -15.4135 -16.0126 -13.7741 -12.112 -12.4882 -12.2935 -14.7395 -12.4712 
-1.4985 -3.9375 -4.0855 -4.18 -1.7695 -5.1255 0 -3.321 -2.925 -2.4945 -1.7695 -6.885 0 
-7.464001 -8.371 -9.785 -5.511001 -6.7415 -5.1255 -3.321 -5.154 -3.7675 -4.6835 -9.0795 -6.885 
-12.3807 -14.4939 -11.3654 -10.2695 -6.7415 -8.040501 -5.154 -6.267 -5.818 -13.0265 -9.0795 
-18.5036 -16.0743 -16.1239 -10.2695 -9.5705 -9.213501 -6.267 -8.208 -14.1774 -13.0265 
-20.084 -20.8328 -16.1239 -13.0985 -10.8605 -10.173 -8.208 -16.7682 -14.1774 
