-4.759 
n/a 
n/a 
n/a 
n/a 
-4.759 
n/a 
n/a 
n/a 
n/a 
-4.759 
n/a 
n/a 
n/a 
n/a 
-4.759 
n/a 
n/a 
n/a 
n/a 
-1.4985 -4.121 -1.7565 -8.3365 -3.9725 -1.756 -1.4985 -4.284 -1.7565 -7.946001 -10.017 0 -10.049 -10.8075 -2.674 -8.008 -2.356 -1.4985 -4.0745 -2.5195 -12.16972 -5.5605 0 
-5.189 -5.211 -9.0765 -13.0664 -5.5515 -3.0405 -5.6495 -5.501501 -10.119 -18.3492 -10.017 -10.049 -21.0895 -13.4815 -12.2238 -10.543 -3.1615 -5.021 -5.541 -15.36282 -17.73022 -5.5605 
-5.738501 -13.6556 -14.0424 -14.6454 -6.612 -6.8925 -6.081 -14.6798 -20.5222 -18.3492 -20.066 -21.0895 -23.7635 -23.0313 -14.7588 -11.3485 -6.843 -6.805 -19.17732 -20.92332 -17.73022 
-14.3109 -18.6215 -15.6214 -15.7059 -10.172 -7.4465 -15.6063 -25.083 -20.5222 -28.3982 -31.1065 -23.7635 -33.3133 -25.5663 -15.5643 -15.03 -8.290501 -20.68432 -24.73782 -20.92332 
-19.2768 -20.2005 -16.6819 -19.2659 -10.4925 -17.099 -26.0095 -25.083 -30.5712 -39.4387 -33.7805 -33.3133 -35.8483 -26.3718 -19.2458 -16.4775 -22.35882 -26.24482 -24.73782 
-1.4985 -4.121 -1.7565 -8.3365 -6.864 -1.756 -4.284 -1.7565 -8.726501 -8.164001 0 -10.049 -12.16972 -3.074 -4.424 -2.356 -3.091 -4.522 0 -6.7255 0 -2.3615 -2.7415 -4.4155 -1.934 -1.4985 -3.5765 -1.7565 -10.707 
-5.189 -5.211 -9.0765 -8.847 -8.699 -5.681 -5.501501 -10.209 -17.2005 -8.164001 -10.049 -22.45172 -15.24372 -6.9425 -6.72 -4.513 -7.6645 -4.522 -6.7255 -6.7255 -2.3615 -4.455 -6.0585 -5.054 -2.6125 -5.252 -6.218 -13.4127 
-5.738501 -13.6556 -9.5325 -10.143 -12.925 -7.148 -14.7698 -18.683 -17.2005 -18.7366 -22.45172 -25.52572 -19.11222 -9.103001 -7.99 -8.5105 -7.6645 -10.389 -6.7255 -9.521501 -4.455 -7.5955 -6.7085 -5.585 -6.321 -7.519001 -18.4244 
-14.3109 -14.1116 -10.611 -14.8066 -14.392 -16.4005 -23.2438 -18.683 -27.7731 -31.13932 -25.52572 -29.39422 -21.27272 -10.6225 -12.4485 -8.5105 -13.7247 -10.389 -9.521501 -11.7548 -7.5955 -8.146501 -7.0855 -9.622001 -8.918 -20.1208 
-14.7669 -15.1901 -15.328 -16.2736 -23.6445 -24.8745 -23.2438 -29.2556 -40.17582 -34.21332 -29.39422 -31.55472 -22.79222 -15.081 -12.4485 -14.7777 -13.7247 -13.185 -11.7548 -14.8953 -8.146501 -8.482 -11.3077 -12.3366 -21.747 
-7.3005 -4.4155 -1.934 -10.9655 -4.8745 -5.715 -3.644 -2.3335 -4.121 -1.7565 -3.4155 -3.9725 -8.035001 -1.756 -4.284 -1.7565 -10.8475 -4.281 -10.049 -12.16972 -4.79 -2.264 -4.784 0 
-12.1084 -5.054 -13.9059 -15.84 -9.259501 -8.541 -4.989501 -6.825001 -5.211 -5.0175 -6.882501 -10.958 -8.255001 -5.681 -5.501501 -13.5532 -15.1285 -14.6466 -22.45172 -16.95972 -6.536 -7.617001 -4.784 
-12.7469 -17.1791 -18.7804 -20.225 -12.1631 -9.498 -9.517501 -8.4095 -9.082001 -9.1475 -14.345 -11.178 -14.0128 -7.148 -18.114 -17.8342 -25.4941 -27.04932 -27.24172 -18.70572 -12.5994 -7.617001 
-24.872 -22.0536 -23.1654 -23.1286 -13.1201 -14.1658 -11.0952 -12.4919 -13.4528 -16.5712 -14.565 -16.9358 -15.4798 -19.7447 -22.395 -28.1998 -37.89682 -31.83932 -28.98772 -24.76912 -12.5994 
-29.7465 -26.4386 -26.069 -24.0856 -17.7879 -15.7435 -15.1776 -16.8627 -20.8765 -16.7912 -20.3228 -18.4028 -28.0765 -24.0257 -32.7606 -40.60252 -42.68682 -33.58532 -35.05112 -24.76912 
-8.3365 -4.6805 -2.229 -4.121 -1.756 -7.359 -12.16972 -2.229 -4.284 -3.074 -3.5745 -12.16972 
-13.7744 -7.9815 -5.532001 -5.331 -9.398001 -20.15752 -14.39872 -5.422 -7.172501 -6.043 -17.01362 
-17.0754 -11.7167 -6.74 -14.1562 -22.22092 -22.38652 -17.59172 -8.135 -9.505001 -19.73172 
-20.8106 -12.9247 -15.5744 -26.97912 -24.44992 -25.57952 -20.30472 -10.4505 -23.20092 
-22.0186 -21.7591 -28.39732 -29.20812 -27.64292 -28.29252 -22.62022 -24.14642 
