-4.759 
n/a 
n/a 
n/a 
n/a 
-4.759 
n/a 
n/a 
n/a 
n/a 
-4.759 
n/a 
n/a 
n/a 
n/a 
-4.759 
n/a 
n/a 
n/a 
n/a 
-1.4985 -4.144 -4.2485 -4.35 -4.958 -1.4985 -3.7075 -2.186 -3.7825 -4.323 -3.7515 -2.5195 -1.4985 -3.7805 -3.892 
-4.8975 -6.4025 -8.782001 -9.824501 -6.7085 -4.6235 -5.825 -6.1735 -6.825001 -7.3385 -6.522 -3.1695 -4.8195 -8.1285 
-7.5385 -11.8492 -14.4725 -11.6254 -9.981 -5.975501 -10.4765 -8.937 -9.342001 -11.0302 -7.146 -6.6235 -9.2925 
-13.7074 -17.5397 -16.2734 -14.8979 -11.333 -10.553 -13.5542 -11.7794 -13.3859 -11.6542 -10.5745 -11.4105 
-19.3979 -19.3406 -19.5459 -16.2499 -15.9105 -13.7105 -16.3966 -15.8233 -14.0099 -15.0827 -15.3615 
-1.4985 -4.2875 -3.355 -1.7565 -3.7075 -2.186 -4.3725 -1.934 -3.7825 -6.142 -2.5045 -3.7805 -4.6985 0 
-5.225 -7.971001 -3.725 -5.7275 -5.825 -5.3785 -5.022501 -6.593 -9.1555 -7.6515 -6.7475 -8.3135 -4.6985 
-8.207001 -8.421501 -7.752001 -8.22 -9.2085 -5.9985 -9.000001 -11.7675 -12.7315 -13.146 -12.0325 -8.3135 
-8.752501 -12.8431 -10.4855 -11.7823 -9.54 -10.3756 -15.5873 -16.0576 -17.7767 -18.6578 -12.0325 
-13.4759 -15.5766 -14.0478 -12.1138 -13.8877 -16.9629 -19.1162 -20.9134 -23.0617 -18.6578 
-3.7075 -3.644 -4.2485 -4.138 -3.7825 -6.116 -4.653 -3.7515 0 
-7.819 -5.843 -7.449501 -7.0885 -8.874001 -8.762 -7.792001 -3.7515 
-10.286 -9.942501 -11.0146 -13.1902 -11.702 -12.0606 -7.792001 
-14.5567 -13.5076 -17.1163 -16.0182 -15.0006 -12.0606 
-18.1218 -19.6093 -19.9443 -19.3168 -15.0006 
-1.4985 -5.4445 -4.35 -1.7565 -1.4985 -3.7075 -2.186 -1.8085 -4.2485 -4.144 -3.892 -2.7455 -3.7825 -4.323 -3.7515 -1.4985 -7.0805 
-5.6835 -9.703001 -5.3865 -2.4195 -4.6235 -5.825 -3.164 -5.7985 -7.5435 -8.6955 -6.788 -6.0655 -6.825001 -7.3385 -4.6795 -7.398001 
-10.0375 -10.37 -6.2025 -5.468501 -5.975501 -7.0575 -7.5985 -9.377001 -9.4805 -10.443 -9.490001 -8.2665 -9.342001 -7.579501 -8.4905 
-10.4235 -10.4325 -8.6265 -7.247001 -7.307001 -10.485 -10.1505 -10.4515 -10.469 -10.4905 -10.1955 -10.0475 -9.453501 -9.535501 
-10.477 -10.4775 -9.742001 -8.274501 -10.485 -10.5 -10.492 -10.5 -10.501 -10.5055 -10.494 -10.087 -10.3845 
