-4.759 
n/a 
n/a 
n/a 
n/a 
-4.759 
n/a 
n/a 
n/a 
n/a 
-4.759 
n/a 
n/a 
n/a 
n/a 
-4.759 
n/a 
n/a 
n/a 
n/a 
-4.0105 -4.928 0 -5.1845 0 -5.1845 -4.245 
-10.111 -4.928 -5.1845 -5.1845 -5.1845 -7.991 
-10.111 -10.4345 -5.1845 -7.64 -7.991 
-15.6175 -10.4345 -7.64 -10.5325 
-15.6175 -13.47 -10.5325 
-3.699 -4.928 0 -5.1845 0 -5.1845 -4.245 
-8.231 -4.928 -5.1845 -5.1845 -5.1845 -7.991 
-8.231 -10.4345 -5.1845 -7.64 -7.991 
-14.2083 -10.4345 -7.64 -10.5325 
-14.2083 -13.47 -10.5325 
-3.535 -5.4005 0 -5.1845 0 -5.1845 -4.245 
-8.495501 -5.4005 -5.1845 -5.1845 -5.1845 -7.991 
-8.495501 -11.4988 -5.1845 -7.64 -7.991 
-15.0784 -11.4988 -7.64 -10.5325 
-15.0784 -13.9543 -10.5325 
-3.0835 -5.322 0 -5.1845 0 -5.1845 -4.245 
-8.425501 -5.322 -5.1845 -5.1845 -5.1845 -7.991 
-8.425501 -11.4241 -5.1845 -7.64 -7.991 
-14.8078 -11.4241 -7.64 -10.5325 
-14.8078 -13.8796 -10.5325 
