-4.759 
n/a 
n/a 
n/a 
n/a 
-4.759 
n/a 
n/a 
n/a 
n/a 
-4.759 
n/a 
n/a 
n/a 
n/a 
-4.759 
n/a 
n/a 
n/a 
n/a 
-2.264 -4.3485 -3.518 -3.9555 -1.7565 -3.691 -2.186 -5.1035 -3.301 0 
-7.139 -8.371 -7.581 -5.097 -4.930501 -5.832 -6.552501 -8.988501 -3.301 
-11.9251 -12.6348 -8.679501 -8.067 -6.787001 -10.8015 -10.5325 -8.988501 
-16.1889 -13.7333 -11.8953 -10.426 -12.2261 -14.7815 -10.5325 
-17.2874 -16.9491 -14.2543 -15.8651 -16.2061 -14.7815 
-4.2815 -1.7695 -3.691 -2.229 -4.1375 -3.6215 -3.937 0 
-4.4915 -5.5435 -5.0855 -6.8835 -8.047001 -8.043501 -3.937 
-8.384001 -6.648 -10.8284 -10.2285 -12.5196 -8.043501 
-9.073501 -12.8595 -14.1734 -14.7011 -12.5196 
-15.3274 -16.2045 -18.646 -14.7011 
-1.934 -4.3485 0 -3.691 -2.229 -3.9235 -3.6215 -4.1335 -5.0405 0 
-5.4065 -4.3485 -3.691 -5.0855 -6.3215 -7.069 -7.802 -8.057 -5.0405 
-5.4065 -8.2985 -5.0855 -9.751501 -9.225 -10.4855 -11.9415 -8.057 
-9.509501 -9.218 -9.751501 -13.0054 -12.4951 -14.9862 -11.9415 
-9.9905 -13.9954 -13.0054 -16.2755 -16.9958 -14.9862 
-1.934 -4.3485 0 -12.16972 -3.9555 -2.186 -3.301 -1.934 -3.307 
-5.4065 -4.3485 -12.16972 -16.12522 -5.8205 -4.8405 -5.499001 -5.6555 
-5.4065 -17.55722 -16.12522 -17.99022 -9.1875 -6.604 -9.861 
-19.38762 -21.51272 -17.99022 -21.35722 -11.2156 -11.265 
-23.34312 -23.37772 -21.35722 -23.38532 -15.8766 
