-4.759 
n/a 
n/a 
n/a 
n/a 
-4.759 
n/a 
n/a 
n/a 
n/a 
-4.759 
n/a 
n/a 
n/a 
n/a 
-4.759 
n/a 
n/a 
n/a 
n/a 
-1.934 -3.9185 -2.4265 -2.8645 -3.1125 -3.9535 -2.5045 -2.664 -3.5025 -3.1725 -3.1335 0 
-5.22 -6.5705 -4.1435 -3.5345 -6.375 -5.9285 -4.074 -5.2245 -6.4085 -5.944 -3.1335 
-7.072001 -7.650001 -4.755 -6.69 -8.2565 -6.9645 -6.7635 -8.132501 -8.4825 -5.944 
-8.130501 -8.066 -7.9705 -8.6615 -9.186001 -8.9805 -9.969501 -10.0535 -8.4825 
-8.8655 -11.5491 -10 -9.792001 -11.6566 -12.5287 -11.8457 -10.0535 
-7.555501 -2.186 -2.664 -3.5025 -3.1335 -2.9705 -2.7415 -3.9535 -1.934 -3.9185 0 
-10.2335 -3.8555 -5.2245 -5.3935 -5.705 -4.512 -5.83 -5.3325 -5.22 -3.9185 
-11.903 -6.078 -6.7235 -7.6075 -7.3405 -7.229001 -6.376501 -7.4275 -5.22 
-14.1255 -7.8015 -9.153501 -8.8715 -9.6685 -7.656001 -8.2065 -7.4275 
-15.849 -9.652 -10.2429 -11.9611 -10.0835 -9.439001 -8.2065 
-7.555501 0 -1.8085 -3.4155 -3.1335 -2.7415 -3.9535 -1.934 -1.4985 -3.158 -3.9185 0 
-7.555501 -1.8085 -5.721 -5.9445 -5.679 -5.83 -5.3325 -2.6125 -4.178 -6.0895 -3.9185 
-9.717001 -5.721 -7.9775 -8.321501 -8.037001 -6.376501 -6.08 -5.265 -7.361 -6.0895 
-13.7119 -7.9775 -10.6335 -10.322 -8.7025 -7.353001 -7.920501 -8 -7.361 
-15.9684 -10.6335 -12.634 -10.7595 -9.691501 -8.423 -9.8435 -8 
-3.1435 -2.664 -3.1725 -3.1335 -2.5195 -3.9185 0 
-6.204 -4.6845 -5.944 -5.502 -5.9165 -3.9185 
-8.934 -7.5835 -8.3415 -9.2655 -5.9165 
-12.201 -9.983001 -12.3884 -9.2655 
-14.6005 -14.0155 -12.3884 
