-4.759 
n/a 
n/a 
n/a 
n/a 
-4.759 
n/a 
n/a 
n/a 
n/a 
-4.759 
n/a 
n/a 
n/a 
n/a 
-4.759 
n/a 
n/a 
n/a 
n/a 
-3.524 -3.0605 -4.0795 -4.889 -4.8115 -3.131 
-5.4645 -8.0115 -8.245501 -6.759501 -8.657001 
-11.5781 -12.3493 -10.368 -9.857 
-15.9159 -14.4718 -13.4655 
-18.0384 -17.5693 
-3.524 -3.0605 0 -12.16972 -4.0795 -4.889 -4.8525 -3.131 
-5.4645 -3.0605 -12.16972 -16.24922 -8.245501 -10.0645 -9.625 
-5.4645 -15.77882 -16.24922 -20.41522 -13.7304 -14.837 
-19.34542 -19.85832 -20.41522 -25.90012 -18.5029 
-23.42492 -24.02432 -25.90012 -30.67262 
-3.524 -4.767 0 -5.677 -4.889 -4.299 -3.131 
-6.345 -4.767 -5.677 -9.6975 -6.702001 -8.3015 
-6.345 -11.7462 -9.6975 -11.7895 -11.4649 
-14.1148 -15.7667 -11.7895 -16.5524 
-18.1353 -17.8587 -16.5524 
-3.524 -3.0605 0 -5.751 -4.0795 -4.299 -3.131 
-5.4645 -3.0605 -5.751 -10.784 -9.009001 -8.3015 
-5.4645 -9.5625 -10.784 -15.7135 -13.0845 
-13.1291 -14.7085 -15.7135 -19.789 
-18.2751 -19.638 -19.789 
