-4.759 
n/a 
n/a 
n/a 
n/a 
-4.759 
n/a 
n/a 
n/a 
n/a 
-4.759 
n/a 
n/a 
n/a 
n/a 
-4.759 
n/a 
n/a 
n/a 
n/a 
-1.934 -5.6225 -5.866 -3.9535 -1.934 -15.646 -3.873 0 -3.1015 -5.354 0 -2.872 -1.934 -5.506 -2.4265 -3.7905 -4.2775 -6.3175 -3.1715 0 
-6.9665 -12.0807 -9.382 -5.3325 -16.833 -19.2385 -3.873 -3.1015 -8.9385 -5.354 -2.872 -4.659 -6.928 -8.297 -6.357 -7.893 -11.6684 -10.9572 -3.1715 
-13.9603 -15.5967 -9.841001 -21.5948 -22.8856 -19.9261 -7.0535 -8.9385 -8.9385 -8.117001 -4.659 -9.571 -8.5825 -12.6871 -10.494 -15.8079 -16.3081 -10.9572 
-17.4763 -16.0557 -28.2683 -28.1694 -24.4892 -24.8036 -9.308001 -8.9385 -11.9767 -9.8015 -9.571 -10.5765 -13.045 -16.8241 -18.4089 -20.4476 -16.3081 
-17.9353 -34.483 -32.8661 -28.1694 -28.0757 -27.0581 -9.308001 -11.9767 -13.6612 -14.6517 -10.5765 -15.3476 -17.182 -24.739 -23.0486 -20.4476 
-1.934 -5.6225 -1.934 -1.4985 -4.088 -8.666 -2.229 -3.873 0 -5.235 -5.354 0 -2.925 -3.9535 -1.4985 -3.8245 -1.756 -3.882 -2.4265 -4.3195 -1.4985 -4.015 -3.59 -1.934 -5.506 0 
-6.9665 -7.4735 -2.6125 -5.856501 -13.6842 -10.7665 -5.8795 -3.873 -5.235 -11.5412 -5.354 -2.925 -5.863 -5.435 -5.1915 -5.4125 -5.1785 -5.945001 -5.45 -5.1515 -5.1595 -7.071501 -5.272 -6.928 -5.506 
-8.3645 -8.5965 -6.7235 -16.1161 -15.7847 -14.417 -5.8795 -8.4545 -11.5412 -11.5412 -8.495 -5.863 -7.1305 -9.4305 -6.6655 -9.469501 -7.5485 -7.5845 -6.508 -8.4035 -8.628 -8.158001 -9.8105 -6.928 
-9.1035 -12.8655 -17.2363 -18.2166 -19.4352 -14.417 -10.8034 -15.1823 -11.5412 -14.6822 -11.6406 -7.1305 -10.281 -10.9779 -11.3425 -11.9087 -8.9115 -8.3195 -9.553 -9.832 -10.5975 -13.0201 -9.8105 
-13.4857 -23.3783 -19.3368 -21.8671 -19.4352 -19.3409 -17.5312 -15.1823 -14.6822 -17.8278 -12.9081 -10.281 -12.3324 -15.6549 -13.7817 -13.2717 -9.5235 -11.4477 -11.0103 -12.4281 -15.4596 -13.0201 
-4.088 -12.16972 -3.873 -2.186 -5.6225 -5.3285 -4.4665 -2.5045 -5.506 -3.59 
-17.18792 -16.04272 -5.709 -9.2165 -11.1415 -10.784 -5.565001 -8.3325 -9.3205 
-21.06092 -17.87872 -13.3177 -14.9141 -16.597 -11.8825 -12.1578 -12.4734 
-22.89692 -25.48742 -19.0153 -20.3696 -17.6955 -18.4753 -16.2987 
-30.50562 -31.18502 -24.4708 -21.4681 -24.2883 -22.6162 
-5.098 -12.16972 -3.873 -5.42 -12.16972 -5.6225 -1.934 -4.969 -1.7565 -3.584 -5.506 -3.776 -4.969 -3.959 0 
-18.08952 -16.04272 -9.193001 -18.31832 -17.79222 -7.4735 -7.267 -6.809 -6.086501 -10.131 -11.117 -9.213 -8.276501 -3.959 
-21.96252 -21.36272 -22.19252 -23.94082 -19.64322 -12.9489 -9.527 -12.0026 -13.5527 -15.742 -16.554 -12.6521 -8.276501 
-27.28252 -34.36224 -27.81502 -25.79182 -25.11862 -15.2089 -14.8588 -19.4688 -19.1637 -21.179 -19.9931 -12.6521 
-40.28204 -39.98474 -29.66602 -31.26722 -27.37862 -20.5407 -22.325 -25.0798 -24.6007 -24.6181 -19.9931 
