-4.759 
n/a 
n/a 
n/a 
n/a 
-4.759 
n/a 
n/a 
n/a 
n/a 
-4.759 
n/a 
n/a 
n/a 
n/a 
-4.759 
n/a 
n/a 
n/a 
n/a 
-2.7295 -3.098 -4.603 -1.4985 -3.699 -5.2125 -1.934 -1.4985 -4.8925 
-5.394 -7.014 -5.4685 -5.264 -9.062 -6.5755 -2.6125 -5.535501 
-8.356001 -7.9025 -8.656501 -10.2085 -9.731001 -7.1285 -7.670001 
-9.1005 -10.243 -13.7498 -10.8775 -9.9405 -12.6888 
-10.575 -15.5607 -14.4188 -11.087 -16.1108 
-1.4985 -4.3435 -1.7565 -3.8405 -4.0395 -2.742 -2.489 -3.922 0 -3.098 -2.7835 -1.4985 -3.991 -2.742 -2.489 -3.7855 -1.7695 -1.4985 -3.699 -4.4995 0 
-5.6925 -5.325 -5.905 -8.6025 -6.4615 -3.301 -7.828501 -3.922 -3.098 -4.8875 -3.7575 -5.0305 -6.468 -3.301 -4.789001 -4.793 -2.7955 -5.264 -8.252001 -4.4995 
-5.9175 -10.634 -10.476 -11.0871 -6.8985 -8.477 -7.828501 -7.4605 -4.8875 -5.54 -6.664001 -7.134501 -6.9385 -5.34 -5.3715 -5.356501 -6.832 -10.356 -8.252001 
-11.4551 -15.205 -12.9606 -11.5241 -12.4573 -8.477 -10.7175 -8.756001 -5.54 -8.656 -9.2565 -7.4525 -9.264001 -5.9595 -5.9095 -8.989 -11.9842 -10.356 
-16.0261 -17.6896 -13.3976 -17.0829 -12.4573 -11.417 -12.013 -9.273001 -8.656 -11.4099 -9.460501 -10.5745 -10.4425 -6.603 -9.5325 -14.3118 -11.9842 
-3.6845 -1.4985 -2.95 -3.8405 -1.934 -5.1845 -4.278 0 
-4.8155 -3.9285 -5.133 -5.3015 -6.564 -9.206501 -4.278 
-7.744 -5.974 -6.2255 -10.2435 -10.609 -9.206501 
-9.513 -7.279 -11.9513 -14.4275 -10.609 
-10.7605 -13.1794 -16.1353 -14.4275 
-1.4985 -2.911 -3.4515 -2.742 -2.489 -3.644 -2.7835 -3.699 -3.645 -2.4945 -3.098 -4.4905 
-4.6515 -4.487 -5.668 -3.301 -5.0815 -5.735001 -7.626 -7.309 -5.2295 -4.907001 -7.7785 
-5.97 -6.518001 -5.917 -6.016 -6.43 -11.0581 -10.7495 -8.934501 -7.675 -8.934501 
-7.426001 -6.7815 -8.540501 -7.597 -11.7837 -14.1816 -12.375 -11.4746 -12.2735 
-8.161 -10.532 -9.4925 -13.1527 -14.9072 -15.8071 -14.9151 -16.0731 
