-4.759 
n/a 
n/a 
n/a 
n/a 
-4.759 
n/a 
n/a 
n/a 
n/a 
-4.759 
n/a 
n/a 
n/a 
n/a 
-4.759 
n/a 
n/a 
n/a 
n/a 
-4.7475 -3.0365 -2.186 -1.8085 -4.656 -2.3335 -3.1495 -2.7765 -2.489 -4.164 -1.934 -3.739 0 
-6.502501 -3.66 -3.164 -5.6985 -5.4985 -4.8015 -5.6525 -3.495 -5.190001 -5.572 -5.3175 -3.739 
-6.781001 -4.218 -6.206 -6.4145 -7.4255 -7.290501 -5.8615 -5.8585 -6.448501 -8.054501 -5.3175 
-7.291501 -6.366 -6.659 -8.4465 -10.1385 -7.461 -8.1195 -6.956 -8.255501 -8.054501 
-9.110001 -6.686 -8.717501 -11.2753 -10.433 -9.8255 -9.250501 -9.457001 -8.255501 
-3.1495 -1.934 -3.739 -2.7765 -3.4625 0 
-5.8215 -5.3175 -6.8245 -5.1675 -3.4625 
-8.39 -8.490001 -9.227501 -5.1675 
-11.7731 -10.9928 -9.227501 
-14.2759 -10.9928 
-1.934 -3.739 -3.1435 -2.8645 -3.1125 -4.164 0 
-5.3175 -7.424 -7.2895 -3.5345 -5.73 -4.164 
-8.851001 -11.859 -8.050501 -6.0125 -5.73 
-13.3906 -12.62 -10.6095 -6.0125 
-14.1516 -15.179 -10.6095 
-2.4265 -2.7765 -3.4625 -1.934 -3.739 
-4.346 -5.1675 -4.565 -5.3175 
-6.941501 -7.0305 -7.0825 
-8.735001 -9.454 
-11.3507 
