-4.759 
n/a 
n/a 
n/a 
n/a 
-4.759 
n/a 
n/a 
n/a 
n/a 
-4.759 
n/a 
n/a 
n/a 
n/a 
-4.759 
n/a 
n/a 
n/a 
n/a 
-4.1865 -3.4425 -4.3285 -3.6885 -1.7695 -2.489 -2.998 -3.277 -3.251 -4.3215 -2.5045 -4.7475 
-7.9285 -8.4545 -5.7225 -5.663 -3.1405 -6.506001 -5.0325 -5.885 -8.7775 -6.036 -8.371 
-13.2223 -9.6705 -9.836 -6.7345 -7.152 -7.8095 -8.3015 -10.4265 -10.7495 -12.7237 
-14.4383 -14.035 -10.9075 -11.5582 -8.4575 -11.7779 -13.0096 -12.3985 -17.4372 
-18.8028 -15.1065 -15.7312 -12.8637 -12.3745 -16.486 -14.9816 -19.0862 
-3.8735 -2.229 -3.4425 0 -3.915 -7.815001 -2.998 -2.8645 -3.1125 -4.3215 -2.264 -4.7475 0 
-5.3655 -4.72 -3.4425 -3.915 -10.016 -11.2716 -6.9665 -3.5345 -6.045 -5.8425 -8.170501 -4.7475 
-8.998 -4.72 -7.43 -10.016 -13.9952 -15.2401 -7.606 -6.5055 -7.9465 -12.9152 -8.170501 
-8.998 -8.271 -14.0242 -13.9952 -17.9637 -15.8796 -9.865001 -8.4235 -14.9946 -12.9152 
-13.073 -15.3572 -18.0034 -17.9637 -18.6032 -18.1386 -12.2792 -15.529 -14.9946 
-3.2615 -2.998 -3.277 0 -2.4265 -2.7415 -4.8165 -2.5045 -3.8735 -2.229 -3.915 -3.6885 -1.934 -4.7475 0 
-6.295 -5.0325 -3.277 -2.4265 -3.681 -6.131001 -6.2845 -6.573 -5.3655 -5.349 -6.26 -5.5135 -5.938 -4.7475 
-6.8265 -5.0325 -5.4405 -3.681 -7.157 -7.598001 -10.1345 -7.3895 -8.4575 -7.8175 -7.501 -9.910501 -5.938 
-6.8265 -7.296 -6.389 -7.157 -8.301001 -11.8608 -10.1965 -9.393001 -9.8105 -9.353001 -10.7575 -9.910501 
-8.8225 -8.2945 -9.9125 -8.301001 -13.0222 -11.9228 -12.4354 -10.599 -11.357 -12.6703 -10.7575 
-3.2615 -2.998 -3.277 -1.934 -4.7475 -4.3215 -2.5045 -3.8735 -2.229 -3.4075 -3.6885 
-6.295 -5.0325 -4.8125 -5.938 -9.918001 -6.389 -6.573 -5.3655 -5.1175 -6.5955 
-6.8265 -6.4985 -8.675 -10.575 -12.0117 -10.2185 -7.3895 -6.588 -8.3935 
-7.893001 -10.564 -13.4446 -12.6687 -15.8412 -10.5725 -9.3135 -9.314 
-12.1923 -15.3336 -15.5383 -16.4982 -16.1952 -12.4965 -10.282 
