-4.759 
n/a 
n/a 
n/a 
n/a 
-4.759 
n/a 
n/a 
n/a 
n/a 
-4.759 
n/a 
n/a 
n/a 
n/a 
-4.759 
n/a 
n/a 
n/a 
n/a 
-2.9805 -4.021 -4.09 -1.8085 -4.1865 -3.998 -2.3335 -1.4985 -4.867 -6.4735 -3.2645 -2.489 -5.608 -2.5195 -1.4985 -5.855 -1.7565 -6.0335 -6.5175 -4.021 
-6.375501 -7.456501 -5.1625 -5.4065 -8.700001 -5.1075 -3.3515 -6.042001 -9.665001 -8.504001 -3.7195 -6.4635 -6.9635 -3.1695 -6.852 -6.805501 -7.296501 -13.5226 -10.382 
-8.488001 -8.0325 -8.807501 -10.3475 -9.742001 -5.9775 -7.8475 -9.920001 -11.8191 -9.4595 -7.845 -7.4545 -7.5435 -7.193 -6.897 -12.8261 -15.1512 -17.3871 
-8.8255 -10.66 -14.0211 -11.3895 -10.4615 -10.1675 -11.9823 -12.1219 -12.7746 -13.6494 -8.68 -8.041 -10.5325 -7.1965 -13.0216 -20.6808 -19.0157 
-10.7175 -16.4848 -15.0631 -12.109 -14.6515 -14.5165 -14.1842 -13.0774 -16.9645 -14.4844 -9.062 -11.1208 -10.5595 -13.4165 -20.8763 -24.5453 
-2.9805 -3.251 -4.5375 -2.3335 -4.578 -1.4985 -3.1385 -3.325 -6.899 -2.229 -5.0525 0 
-4.429 -8.4615 -6.6 -7.5035 -6.2275 -4.2575 -6.1955 -10.9075 -8.988 -6.992 -5.0525 
-9.466001 -10.01 -12.1406 -9.172 -8.4775 -7.365 -14.6848 -12.9965 -13.9264 -6.992 
-11.0361 -15.5506 -13.8091 -11.5296 -11.8418 -16.2647 -16.7738 -17.9349 -13.9264 
-16.5767 -17.2191 -16.1667 -14.8939 -20.7415 -18.3537 -21.7122 -17.9349 
-8.2395 -1.8085 -3.998 -2.3335 -2.9805 -7.276 -1.7695 -4.578 -1.4985 -8.27 -3.0695 -2.4945 -2.356 -1.4985 -12.16972 
-9.523 -5.708 -5.1075 -4.1515 -9.4785 -8.286501 -5.836501 -6.2275 -9.271501 -9.8105 -4.2085 -5.6245 -3.1615 -14.76202 
-13.4539 -7.2 -6.6595 -10.634 -9.971001 -12.5517 -6.6165 -14.4447 -10.635 -10.462 -7.393001 -6.3925 -16.59562 
-14.9459 -9.085 -13.7168 -11.1265 -14.3262 -13.3317 -15.1347 -15.8082 -11.2865 -13.6465 -8.460501 -20.06002 
-16.8309 -15.9989 -14.2093 -15.4817 -15.1062 -21.8499 -16.4982 -16.4597 -14.471 -14.714 -22.28002 
-9.7805 0 -2.6165 -3.332 -3.399 -3.098 0 -2.186 -1.4985 -4.121 -1.7565 -1.8085 -2.871 -6.7485 -4.238 0 -7.252501 0 -3.0695 -2.7415 -4.8085 -2.5195 -1.4985 -6.4705 -4.1445 -4.04 -1.7695 -1.4985 -4.385 -6.1195 -5.1475 0 -4.04 -1.934 -5.7465 -2.0935 -3.6485 -4.1885 -2.925 -3.152 -5.686 -2.264 -1.8085 -3.4865 -4.624 -4.503 -3.1335 -3.672 -2.3345 -1.4985 -6.0545 -3.914 -1.7565 -1.4985 -4.063 -2.5195 -6.4705 -12.16972 -2.5685 -6.4735 -12.16972 -4.443 -4.624 -1.7695 -3.6845 -2.985 -3.399 -3.9915 -2.4285 -2.674 -2.985 -3.562 -3.9595 0 
-9.7805 -2.6165 -6.2875 -6.494 -5.2825 -3.098 -2.186 -3.339 -5.189 -5.211 -3.2595 -4.756001 -5.953 -6.5915 -4.238 -7.252501 -7.252501 -3.0695 -4.6395 -6.0645 -5.8645 -3.1695 -7.549001 -8.804001 -6.4205 -6.0655 -2.7955 -5.489 -9.0845 -12.0906 -5.1475 -4.04 -5.4965 -6.777 -8.099001 -5.22 -6.276 -6.887501 -4.203 -7.0315 -7.110001 -3.5925 -4.572001 -8.276001 -8.655001 -6.7845 -5.791 -4.219 -3.233 -6.469001 -10.348 -4.767 -2.4195 -5.570001 -6.219501 -8.192 -19.62602 -14.73822 -8.539001 -19.61162 -16.61272 -6.764501 -6.121 -4.2695 -5.857 -6.0185 -6.6185 -5.9215 -5.0115 -5.042 -6.893001 -5.582 -3.9595 
-12.6658 -6.2875 -7.4785 -7.0375 -5.2825 -4.7005 -3.339 -6.504 -5.738501 -6.482501 -6.2815 -7.3935 -7.875 -5.900001 -11.08 -7.252501 -9.938001 -4.6395 -8.179001 -6.976 -6.32 -8.941501 -9.198001 -8.813001 -8.51 -7.38 -6.928 -9.5045 -16.0594 -12.0906 -6.5325 -5.4965 -8.994 -8.6245 -10.348 -8.2145 -9.1365 -8.314001 -8.248 -8.455 -8.02 -6.448 -8.667001 -12.7012 -9.7655 -9.404 -6.093 -4.9135 -7.7555 -11.4643 -11.201 -5.1415 -6.0595 -7.9335 -12.492 -21.62412 -22.19452 -20.70872 -21.90412 -24.05462 -18.93422 -8.450001 -9.027 -6.2135 -8.665501 -7.195001 -8.284 -8.750501 -7.175 -7.9265 -7.8335 -5.582 
-16.3368 -7.4785 -7.523001 -7.0375 -6.689 -5.8235 -6.504 -6.6175 -6.768001 -8.9215 -8.744 -9.208501 -8.361 -13.7608 -11.08 -9.938001 -11.5962 -8.179001 -8.834001 -7.3295 -12.473 -10.7251 -9.198501 -10.5865 -9.688001 -11.8617 -10.5035 -16.829 -16.0594 -13.4756 -8.035501 -8.994 -10.4595 -11.0465 -13.7693 -10.533 -10.5135 -12.5104 -9.9895 -9.524501 -10.634 -9.646001 -13.2906 -13.8117 -12.6072 -9.793 -6.671 -9.2135 -13.095 -12.3173 -11.5755 -7.433001 -8.467 -14.4608 -25.92412 -24.19262 -28.16502 -34.07384 -26.34712 -26.37612 -20.61972 -10.66 -10.451 -8.998 -9.071501 -8.713501 -10.553 -10.3225 -10.159 -8.0775 -7.8335 
-17.5278 -7.523001 -7.523001 -7.803501 -8.685 -9.731001 -6.6175 -7.971 -9.3 -9.998 -9.689 -8.5965 -16.3946 -13.7608 -13.7655 -11.5962 -15.1357 -8.834001 -9.432 -13.6643 -14.2566 -10.7256 -10.9796 -11.7645 -14.3439 -15.4372 -17.695 -16.829 -17.4444 -14.9786 -12.0658 -10.4595 -12.8815 -14.4678 -16.0878 -11.91 -14.7099 -14.2519 -10.5585 -12.1777 -13.832 -14.3442 -14.4011 -16.6534 -12.9962 -10.5904 -11.4186 -14.6466 -13.948 -12.6918 -13.867 -9.915001 -15.1351 -27.89292 -28.49262 -30.16312 -41.53014 -38.51684 -28.66862 -28.06162 -22.82972 -12.084 -13.2355 -9.365001 -10.468 -10.7595 -12.125 -13.3065 -10.1925 -8.0775 
