-4.759 
n/a 
n/a 
n/a 
n/a 
-4.759 
n/a 
n/a 
n/a 
n/a 
-4.759 
n/a 
n/a 
n/a 
n/a 
-4.759 
n/a 
n/a 
n/a 
n/a 
-9.224501 -4.4725 -2.5685 -3.1495 -2.5045 -3.091 -4.4905 -1.934 0 -10.105 0 -2.5045 -2.3615 -2.186 -3.535 -3.89 0 -2.3615 -4.4905 -2.186 -3.5725 -4.448 0 -3.757 0 
-13.9294 -6.976501 -4.8995 -6.063 -5.2025 -6.964 -6.654 -1.934 -10.105 -10.105 -2.5045 -4.9645 -3.5005 -6.8505 -6.2535 -3.89 -2.3615 -6.6715 -5.534 -4.471 -7.1355 -4.448 -3.757 -3.757 
-16.4334 -8.175501 -8.0985 -8.905001 -9.139501 -8.358 -6.654 -13.0454 -10.105 -12.8905 -4.9645 -5.811 -8.211 -9.293 -6.2535 -6.2095 -6.6715 -7.805501 -8.562501 -7.602 -7.1355 -9.456001 -3.757 
-17.6324 -12.1573 -10.7575 -12.9376 -10.565 -8.358 -18.3362 -13.0454 -12.8905 -15.3505 -5.811 -10.647 -10.134 -9.293 -8.6835 -10.8783 -7.805501 -9.989 -12.1493 -7.602 -12.7973 -9.456001 
-21.6142 -14.8163 -14.7901 -14.3631 -10.565 -20.2736 -18.3362 -15.8309 -15.3505 -16.197 -10.647 -12.57 -10.134 -12.0134 -13.3891 -12.0123 -9.989 -13.7228 -12.1493 -13.3218 -12.7973 
-8.408 0 -4.4045 -4.1585 -2.5045 -4.2125 -1.7565 -1.4985 0 -8.392 0 -3.688 0 -4.732 -4.448 -1.7695 -4.4075 -2.3335 -4.2125 0 -2.3335 -2.229 -2.5685 0 
-8.408 -4.4045 -9.5425 -7.0505 -7.411 -4.924 -2.4195 -1.4985 -8.392 -8.392 -3.688 -3.688 -4.732 -10.4425 -5.3655 -4.624 -6.2225 -6.067 -4.2125 -2.3335 -3.8485 -4.7365 -2.5685 
-13.4727 -9.5425 -12.5997 -12.4846 -8.977501 -5.563 -2.4195 -10.543 -8.392 -10.7175 -3.688 -8.371 -10.4425 -11.36 -8.4665 -6.39 -6.9205 -6.067 -6.2345 -3.8485 -5.422 -4.7365 
-18.6107 -12.5997 -18.0338 -14.0511 -9.576 -5.563 -11.6548 -10.543 -10.7175 -10.7175 -8.371 -14.3263 -11.36 -14.461 -10.3513 -7.0985 -6.9205 -8.215501 -7.703 -5.422 -5.422 
-21.6679 -18.0338 -19.6003 -14.6496 -9.576 -15.2219 -11.6548 -12.8685 -10.7175 -15.4005 -14.3263 -15.2438 -14.461 -16.3458 -11.0598 -7.0985 -9.116 -8.930501 -9.405001 -5.422 
-8.408 -4.0385 -2.985 -5.62 -2.882 -3.956 -2.5045 -2.3615 -2.95 -3.074 0 
-13.1067 -7.123 -7.1785 -8.465501 -5.7435 -6.458 -4.3105 -4.4645 -6.227 -3.074 
-16.1912 -11.8493 -9.910501 -11.6456 -8.2915 -7.7705 -4.89 -7.259501 -6.227 
-20.9175 -14.5813 -13.1772 -14.1936 -9.776 -8.882501 -7.605 -7.259501 
-23.6495 -17.848 -15.7252 -15.6781 -10.338 -11.7555 -7.605 
-2.9705 -2.4945 -2.5685 -4.744 -2.5045 -1.4985 -4.764 -1.7565 0 -8.392 0 -2.9705 -2.186 -3.354 -2.3345 -12.149 -2.3335 -2.7415 -8.6125 -4.3895 0 -4.859 -2.4265 
-4.302 -4.6335 -7.7095 -7.0895 -3.583 -6.0035 -5.9445 -1.7565 -8.392 -8.392 -2.9705 -3.89 -4.7475 -5.2415 -12.4715 -13.9512 -4.2725 -11.117 -13.308 -4.3895 -4.859 -6.4495 
-6.4975 -10.0345 -10.276 -8.271001 -8.540501 -6.22 -5.9445 -10.4035 -8.392 -11.8935 -3.89 -6.411 -6.324 -15.9486 -15.7548 -15.8902 -12.9578 -15.8125 -13.308 -10.228 -6.4495 
-12.1761 -12.7836 -11.4575 -13.3351 -8.834001 -6.22 -15.3185 -10.4035 -11.8935 -12.813 -6.411 -7.410501 -18.3542 -19.1029 -17.6938 -24.5755 -17.6533 -15.8125 -19.1465 -11.8185 
-14.9252 -13.9651 -16.5216 -13.6286 -8.834001 -15.7242 -15.3185 -13.905 -12.813 -15.334 -7.410501 -19.8863 -21.3479 -21.0419 -26.3791 -29.271 -17.6533 -21.651 -20.737 
