-4.759 
n/a 
n/a 
n/a 
n/a 
-4.759 
n/a 
n/a 
n/a 
n/a 
-4.759 
n/a 
n/a 
n/a 
n/a 
-4.759 
n/a 
n/a 
n/a 
n/a 
-2.3615 -2.95 -1.4985 -4.278 -2.8645 -3.9615 -6.329 -1.7565 -3.897 -3.1335 -2.186 -1.4985 -3.918 -1.756 -2.7275 -3.354 -3.142 -3.0755 -2.186 -1.4985 -3.535 -3.4295 -3.7075 -3.433 -2.8645 -3.9535 -1.934 -3.508 -2.8845 -1.934 -3.934 -4.0375 -1.756 -4.8455 -3.281 -4.184 
-4.4645 -4.514 -6.1565 -6.751 -6.1625 -11.5325 -6.896501 -5.719501 -7.9755 -4.6915 -3.339 -4.8715 -5.377 -4.8595 -6.8135 -6.8025 -5.2365 -5.4515 -3.339 -4.8385 -6.825 -7.3075 -7.659 -5.76 -5.669 -5.3325 -5.049 -4.7045 -5.2765 -5.185 -8.723001 -6.184501 -6.898 -8.27 -6.2335 
-5.6065 -9.416 -8.6745 -10.6215 -14.1597 -12.1 -11.7589 -10.1385 -9.838 -6.2945 -6.5325 -6.4055 -8.6885 -8.585 -9.348001 -8.248 -7.107 -6.297501 -6.806 -7.9195 -11.4682 -12.0226 -10.403 -8.7775 -7.281 -7.536 -6.3735 -7.2615 -8.267 -10.0475 -11.0648 -11.9859 -9.805 -11.6631 
-10.6097 -11.9824 -12.5546 -18.6187 -14.7272 -16.9624 -16.1779 -12.1258 -11.7328 -9.544001 -8.3925 -10.047 -12.707 -11.8189 -10.9643 -9.797501 -7.988501 -10.0925 -9.998 -12.8503 -16.1833 -14.7666 -13.4205 -10.341 -9.537001 -8.758 -7.9175 -10.7025 -13.7965 -12.4809 -16.8662 -14.8929 -13.9849 
-13.1761 -15.8625 -20.5518 -19.1862 -19.5896 -21.3814 -18.1652 -14.0206 -14.9823 -11.8492 -12.38 -14.0655 -15.9409 -13.4352 -12.5138 -10.6726 -11.9763 -13.4877 -14.9152 -17.5654 -18.9273 -17.7841 -14.984 -12.7828 -10.444 -10.361 -11.6203 -16.232 -16.2299 -18.2823 -19.7732 -19.0728 
-3.1015 -4.278 -2.186 -3.7445 -3.3255 -3.897 -3.1335 0 -4.3235 -10.526 0 -2.9705 -4.4275 -2.5045 -4.3325 -6.329 0 
-8.4105 -5.364 -5.5855 -5.833 -7.7545 -7.9755 -3.1335 -4.3235 -15.9983 -10.526 -2.9705 -6.444 -5.386 -7.3885 -11.0145 -6.329 
-9.2245 -9.309001 -7.367001 -10.586 -12.469 -7.9755 -7.568 -15.9983 -15.9983 -13.6249 -6.444 -6.6685 -10.3745 -14.2553 -11.0145 
-12.2093 -11.4253 -12.4556 -15.3005 -12.469 -12.9212 -19.7154 -15.9983 -19.0972 -17.0984 -6.6685 -12.1902 -17.2413 -14.2553 
-14.3256 -16.5139 -17.1701 -15.3005 -17.4147 -25.0686 -19.7154 -19.0972 -22.5707 -17.3229 -12.1902 -19.057 -17.2413 
-1.4985 -4.278 -5.42 -6.4625 -5.227 -2.356 -3.897 -3.09 0 -5.0835 -4.6505 0 -2.4945 -3.958 -2.0935 -5.695 -2.356 -3.535 -4.4795 -4.365 -3.7855 0 -8.283 -3.508 -2.8845 -1.934 -3.934 -4.0375 -1.756 -4.8455 -3.281 0 
-6.1565 -10.0815 -12.6111 -12.8119 -6.1385 -5.9775 -7.6335 -3.09 -5.0835 -10.1685 -4.6505 -2.4945 -5.478001 -5.537 -7.6095 -8.2845 -5.592 -9.4455 -9.868 -7.500501 -3.7855 -8.283 -12.3028 -4.7045 -5.2765 -5.185 -8.723001 -6.184501 -6.898 -8.27 -3.281 
-12.7322 -17.2726 -18.9605 -13.7234 -10.733 -10.1075 -7.6335 -8.745001 -10.1685 -10.1685 -7.859 -5.478001 -7.0705 -12.0784 -9.300501 -12.1767 -11.7751 -14.8192 -13.0035 -7.500501 -13.1541 -12.3028 -13.4993 -7.2615 -8.267 -10.0475 -11.0648 -11.9859 -9.805 -8.27 
-19.9233 -23.622 -19.872 -18.3179 -14.863 -10.1075 -13.9083 -14.097 -10.1685 -13.377 -10.361 -7.0705 -13.9403 -13.7694 -14.4165 -18.3598 -17.1488 -17.9547 -13.0035 -17.3015 -17.1739 -13.4993 -16.0563 -10.7025 -13.7965 -12.4809 -16.8662 -14.8929 -9.805 
-26.2727 -24.5335 -24.4665 -22.4479 -14.863 -16.3823 -19.2603 -14.097 -13.377 -15.879 -12.2061 -13.9403 -15.6313 -18.8854 -20.5996 -23.7335 -20.2843 -17.9547 -22.8045 -21.3213 -18.3704 -16.0563 -19.4973 -16.232 -16.2299 -18.2823 -19.7732 -14.8929 
-10.6925 -4.426 -2.356 -4.39 -1.7565 -8.164001 -3.1335 -5.695 -2.8645 -12.16972 -4.028 0 -5.7865 -8.033501 -2.8845 -10.0455 -1.934 -3.934 0 -12.16972 -8.7615 
-15.3471 -6.3455 -7.138 -4.681 -9.401 -12.1881 -9.51 -8.3855 -16.63722 -16.19772 -4.028 -5.7865 -14.8038 -8.403001 -13.6644 -11.9795 -5.185 -3.934 -12.16972 -20.93122 
-17.2666 -11.6013 -7.6805 -12.7587 -14.0773 -18.5646 -12.6497 -22.56962 -20.66522 -16.19772 -9.3575 -14.8038 -15.1733 -20.6185 -15.5984 -15.2305 -5.185 -17.19212 -20.93122 
-22.5224 -12.1438 -15.94 -17.435 -20.4538 -21.7043 -26.83382 -26.59762 -20.66522 -21.52722 -18.6078 -15.1733 -27.3888 -22.5525 -18.8494 -15.2305 -18.94112 -25.95362 
-23.0649 -20.4033 -20.6163 -23.8115 -23.5935 -35.88842 -30.86182 -26.59762 -25.99472 -30.77752 -18.9773 -27.3888 -29.3228 -25.8035 -18.8494 -28.98662 -27.70262 
