-4.759 
n/a 
n/a 
n/a 
n/a 
-4.759 
n/a 
n/a 
n/a 
n/a 
-4.759 
n/a 
n/a 
n/a 
n/a 
-4.759 
n/a 
n/a 
n/a 
n/a 
-4.4515 -1.756 -3.2615 -2.3335 
-5.855 -4.788 -5.0495 
-9.136001 -6.2605 
-10.143 
n/a 
-3.818 -3.326 -1.7695 -4.237 -1.7565 -4.224 0 
-5.927 -5.483 -5.834001 -5.8415 -6.023 -4.224 
-7.4265 -10.5027 -8.6225 -11.1328 -6.023 
-13.0746 -13.2912 -13.8498 -11.1328 
-15.8631 -18.5185 -13.8498 
-2.8965 -3.74 -3.837 -2.3335 -3.0365 -2.186 -2.847 -3.991 -3.458 -4.3925 -4.983 -1.756 -1.4985 -4.2485 -1.7565 -4.4515 0 
-7.3505 -6.431001 -4.933 -4.2925 -3.66 -4.1045 -6.144 -5.4535 -7.8695 -9.6225 -6.256001 -3.0405 -5.307 -5.5065 -6.639 -4.4515 
-10.064 -6.650001 -6.468 -4.7505 -4.256001 -7.1375 -7.117001 -9.675501 -13.5621 -11.1129 -7.4545 -6.6445 -5.982501 -10.757 -6.639 
-10.214 -8.130501 -6.8015 -5.361001 -7.145 -7.4805 -11.6162 -15.4693 -15.0525 -12.3114 -10.66 -7.4 -11.8208 -10.757 
-11.6885 -8.443001 -7.524 -7.9185 -7.484001 -12.0779 -17.41 -16.9597 -16.251 -15.5169 -11.4155 -13.4521 -11.8208 
-2.8965 -5.9155 -3.335 -2.3335 -3.0365 -2.186 -2.847 -4.53 -2.0935 -1.4985 -3.7345 -4.983 -1.756 -1.4985 -3.6605 -4.7425 0 
-8.2055 -8.284 -4.79 -4.2925 -3.66 -4.1045 -6.409 -6.8885 -2.9725 -4.9965 -9.052501 -6.256001 -3.0405 -4.6365 -4.8735 -4.7425 
-10.3475 -8.3715 -6.373 -4.7505 -4.256001 -7.5675 -8.828501 -7.504 -6.5275 -10.2695 -10.375 -7.4545 -6.0475 -6.350501 -4.8735 
-10.505 -9.935 -6.7205 -5.361001 -7.719501 -9.346001 -9.7845 -11.2254 -12.0439 -11.592 -11.5735 -10.7641 -8.0385 -6.350501 
-12.0685 -10.4075 -7.37 -8.441001 -9.3485 -10.219 -13.6351 -16.7418 -13.3664 -12.7905 -14.8831 -12.7551 -8.0385 
