-4.759 
n/a 
n/a 
n/a 
n/a 
-4.759 
n/a 
n/a 
n/a 
n/a 
-4.759 
n/a 
n/a 
n/a 
n/a 
-4.759 
n/a 
n/a 
n/a 
n/a 
-12.16972 -2.871 -3.3755 -1.7565 -3.809 -3.3035 -12.16972 -10.6015 0 
-15.04072 -4.946 -4.5295 -5.553 -7.7545 -16.38082 -22.77122 -10.6015 
-17.11572 -6.255 -8.9475 -9.709001 -21.18062 -26.98232 -22.77122 
-18.42472 -11.5148 -13.3191 -23.17972 -31.78212 -26.98232 
-23.68452 -15.8864 -26.78982 -33.78122 -31.78212 
-5.3155 -2.871 -3.3755 -1.7565 -3.809 -3.7495 -9.018001 -3.7155 -4.673 -2.4265 0 
-8.6105 -4.946 -4.5295 -5.553 -8.601501 -13.8557 -12.9347 -9.449 -7.232501 -2.4265 
-11.2309 -6.255 -8.9475 -10.6465 -19.1589 -17.7724 -18.6682 -12.5439 -7.232501 
-12.5399 -11.5148 -14.2566 -21.2039 -23.0756 -23.5059 -21.7631 -12.5439 
-17.7997 -16.8239 -24.814 -25.1206 -28.8091 -26.6008 -21.7631 
-8.6365 -2.871 -3.319 -1.7565 -3.809 -3.4425 -12.16972 -3.9795 0 
-13.126 -5.859 -4.165 -5.553 -8.581 -16.68782 -16.14922 -3.9795 
-17.4802 -6.0035 -8.265 -10.5975 -22.09852 -20.66732 -16.14922 
-17.6192 -10.041 -13.8471 -24.11502 -26.07802 -20.66732 
-21.6567 -15.6231 -27.36462 -28.09452 -26.07802 
-1.934 -3.571 -3.3755 -9.2865 -2.7415 -5.057 -2.3345 -1.4985 -3.809 -4.5675 0 
-4.9705 -5.429 -13.6988 -12.1386 -6.0795 -5.7695 -3.233 -4.9205 -9.915501 -4.5675 
-6.6715 -16.3379 -16.5509 -15.4766 -6.6335 -6.1155 -7.04 -10.3955 -9.915501 
-17.3926 -19.19 -19.8889 -16.0306 -6.909 -9.267 -12.8736 -10.3955 
-20.2447 -22.528 -20.4429 -16.3061 -10.1699 -16.045 -12.8736 
