-4.759 
n/a 
n/a 
n/a 
n/a 
-4.759 
n/a 
n/a 
n/a 
n/a 
-4.759 
n/a 
n/a 
n/a 
n/a 
-4.759 
n/a 
n/a 
n/a 
n/a 
-3.506 -2.743 0 -2.645 -3.1575 -4.122 -5.1845 -4.574 -1.756 -3.5385 -4.4685 -3.152 -4.9045 -1.934 -5.6315 -3.43 -1.7695 -6.0485 -2.3345 -4.628 -5.939 -4.348 0 -1.934 -10.5565 0 -5.7465 0 
-5.503 -2.743 -2.645 -3.72 -5.8765 -9.8015 -9.6115 -5.7795 -4.993 -7.261 -6.179 -6.7755 -5.681 -8.015 -9.193501 -4.647 -6.276501 -8.327 -6.797 -5.9615 -8.2285 -4.348 -1.934 -13.4969 -10.5565 -5.7465 -5.7465 
-5.503 -5.8675 -3.72 -5.9805 -12.2214 -14.1757 -10.8838 -7.380001 -8.542001 -9.572001 -9.724501 -7.4095 -9.507 -10.5225 -10.7301 -8.6195 -8.483001 -13.1309 -7.905 -8.2465 -8.2285 -5.622 -13.4969 -13.4969 -11.08 -5.7465 
-8.830501 -7.28 -5.9805 -12.5774 -16.5956 -15.448 -12.4843 -11.6794 -10.9298 -13.2351 -10.216 -11.3689 -12.1027 -12.4225 -14.7026 -11.0918 -13.3409 -14.2389 -9.429501 -8.2465 -9.533501 -17.9253 -13.4969 -14.0204 -11.08 
-9.793501 -9.619 -12.5774 -16.9516 -17.8679 -17.0485 -16.7837 -14.0672 -14.5929 -13.7266 -14.4794 -13.9646 -14.0027 -16.395 -17.1749 -15.9497 -14.4489 -15.7634 -9.429501 -9.552 -21.8962 -17.9253 -14.0204 -14.0204 
-3.506 -2.743 0 -4.628 -5.939 -4.0085 -5.563 -1.7695 -4.543 -2.645 -3.1575 -4.122 -5.1845 -3.1385 -2.5195 -12.16972 -1.934 -5.7465 0 
-5.503 -2.743 -4.628 -5.9615 -8.3485 -9.736 -5.7235 -5.49 -8.0115 -3.72 -5.8765 -9.8015 -7.4095 -5.074 -15.36282 -14.10372 -6.777 -5.7465 
-5.503 -7.4535 -5.9615 -8.352 -14.2926 -10.246 -8.781 -8.484 -8.666 -5.9805 -12.2214 -11.9737 -8.947001 -18.63532 -17.29682 -18.94672 -6.777 
-11.2679 -9.3985 -8.352 -14.2973 -14.8026 -13.5677 -12.1284 -9.165501 -10.634 -12.5774 -14.3936 -13.5112 -23.05672 -20.56932 -22.13982 -18.94672 
-13.2129 -11.8876 -14.2973 -14.8073 -18.1243 -16.9151 -12.8099 -10.688 -18.0233 -14.7496 -15.9311 -27.62092 -24.99072 -25.41232 -22.13982 
-2.264 -3.506 -4.655 0 -4.122 -1.756 -3.7515 -8.27 -3.5005 -3.5485 -1.756 -3.5385 -3.0695 -5.015 -1.934 -1.4985 -12.16972 -5.263 -4.834 -1.7565 -6.6585 -3.152 -6.228 -6.238 -2.3345 -7.975 0 
-4.855 -6.469501 -4.655 -4.122 -6.0995 -5.2505 -12.8945 -12.1973 -6.698 -4.869 -4.993 -5.306 -6.4585 -5.7995 -2.6125 -14.76202 -17.43272 -6.466001 -6.878 -8.343 -10.2755 -8.158 -8.7895 -7.633501 -7.833 -5.933 
-7.3005 -6.469501 -9.145 -6.0995 -6.6665 -14.7909 -16.8218 -15.3948 -7.246 -5.64 -6.6285 -8.769501 -7.3155 -6.368001 -16.27022 -20.02502 -18.63572 -8.051001 -13.9207 -12.2708 -15.2815 -9.374001 -9.811 -11.818 -8.262501 
-7.3005 -11.6425 -11.4425 -6.6665 -17.5079 -18.7182 -20.0193 -15.9428 -7.45 -7.0465 -10.028 -9.335 -7.889 -20.42872 -21.53322 -21.22802 -20.22072 -15.5247 -17.8485 -17.2768 -16.4975 -10.323 -14.2841 -11.9654 
-12.7171 -13.94 -12.0095 -17.5079 -21.4352 -21.9157 -20.5673 -16.1468 -8.951501 -10.3345 -10.4395 -9.731501 -22.11952 -25.69172 -22.73622 -22.81302 -27.69442 -19.4525 -22.8545 -18.4928 -17.4465 -14.8929 -14.2841 
-3.506 -2.743 -4.628 -5.939 -4.0085 -2.8645 -4.024 -4.122 -6.4735 -3.5005 -4.983 -1.756 -3.5385 -3.0695 -3.152 -5.015 -12.16972 -1.934 -6.711 0 
-5.503 -7.4535 -5.9615 -8.3485 -6.911 -5.994 -8.6915 -10.0255 -9.104 -8.5465 -6.26 -4.993 -5.306 -4.8015 -8.0655 -18.81712 -14.10372 -8.617001 -6.711 
-11.2679 -9.3985 -8.352 -10.19 -9.3475 -10.0065 -14.8506 -12.656 -14.358 -9.3195 -8.515 -6.6285 -6.487 -10.6215 -22.22662 -20.75112 -20.78672 -8.617001 
-13.2129 -11.8876 -10.1895 -12.6265 -13.669 -16.1656 -17.4811 -17.91 -15.131 -10.635 -10.1465 -7.794001 -12.8004 -24.78262 -24.16062 -27.43412 -20.78672 
-15.702 -13.7251 -12.626 -16.948 -19.8281 -18.7961 -22.7351 -18.683 -16.4465 -12.2665 -10.7645 -14.258 -26.96152 -26.71662 -30.84362 -27.43412 
