-4.759 
n/a 
n/a 
n/a 
n/a 
-4.759 
n/a 
n/a 
n/a 
n/a 
-4.759 
n/a 
n/a 
n/a 
n/a 
-4.759 
n/a 
n/a 
n/a 
n/a 
-3.699 -3.655 -4.415 -3.5795 -12.16972 0 -5.2315 0 -4.5235 -3.3035 0 -4.263 -3.3035 0 -3.5505 0 -5.7775 0 -4.8945 0 -3.6485 -3.319 0 -4.1805 -4.045 -1.756 -5.8615 
-6.832 -8.5345 -7.647 -16.49842 -12.16972 -5.2315 -5.2315 -4.5235 -7.997001 -3.3035 -4.263 -8.311501 -3.3035 -3.5505 -3.5505 -5.7775 -5.7775 -4.8945 -4.8945 -3.6485 -8.209001 -3.319 -4.1805 -6.8775 -5.4175 -7.674 
-12.5143 -12.0681 -20.89652 -16.49842 -17.40122 -5.2315 -9.4795 -7.997001 -7.997001 -8.199501 -8.311501 -8.311501 -6.3955 -3.5505 -9.05 -5.7775 -9.4795 -4.8945 -8.9475 -8.209001 -8.209001 -7.3085 -6.8775 -8.168 -12.1251 
-16.0479 -25.31762 -20.89652 -21.72992 -17.40122 -9.4795 -14.4204 -7.997001 -13.3514 -9.199501 -8.311501 -11.8083 -6.3955 -9.05 -9.05 -9.4795 -9.4795 -8.9475 -14.043 -8.209001 -12.4035 -10.159 -8.168 -15.1378 
-29.29742 -25.31762 -26.12802 -21.72992 -21.64922 -14.4204 -14.4204 -13.3514 -14.3514 -9.199501 -11.8083 -11.8083 -13.0034 -9.05 -13.1164 -9.4795 -14.0863 -14.043 -14.043 -12.4035 -15.254 -12.0487 -15.1378 
-3.699 -4.3035 -2.4945 -4.1805 0 -5.143 0 -4.678 0 -4.022 -3.3035 0 -4.389 0 -5.079 -1.756 -4.7385 
-7.54 -6.275 -7.729001 -4.1805 -5.143 -5.143 -4.678 -4.678 -4.022 -5.4255 -3.3035 -4.389 -4.389 -5.079 -6.159 -6.6625 
-8.966001 -10.7335 -7.729001 -9.0675 -5.143 -7.8275 -4.678 -7.392501 -5.4255 -5.4255 -7.836 -4.389 -9.863001 -6.159 -11.9287 
-13.6247 -10.7335 -13.0398 -9.0675 -7.8275 -7.8275 -7.392501 -7.968 -5.4255 -10.4345 -7.836 -9.863001 -10.2625 -11.9287 
-13.6247 -16.0443 -13.0398 -11.9864 -7.8275 -9.603001 -7.968 -7.968 -10.4345 -10.4345 -13.9 -10.2625 -16.0322 
-2.0935 -3.699 -3.0435 -4.415 -3.766 -5.1315 0 -5.143 0 -4.3 -3.3035 0 -4.022 -3.992 -3.3035 0 -3.5505 -4.1335 0 -4.389 0 -4.758 -3.8125 0 -5.304 0 -5.079 0 -5.383 0 -6.918 -3.8975 0 -4.7385 -2.4945 -3.9285 0 
-6.1775 -6.5745 -7.2685 -8.933001 -6.463 -5.1315 -5.143 -5.143 -4.3 -6.337 -3.3035 -4.022 -6.6265 -5.669 -3.3035 -3.5505 -7.500501 -4.1335 -4.389 -4.389 -4.758 -8.202001 -3.8125 -5.304 -5.304 -5.079 -5.079 -5.383 -5.383 -6.918 -10.784 -3.8975 -4.7385 -6.83 -5.071 -3.9285 
-8.484 -11.5937 -12.5953 -11.9116 -6.463 -11.3879 -5.143 -7.93 -6.337 -6.337 -6.4705 -6.6265 -7.471001 -5.669 -6.3955 -7.500501 -7.500501 -8.676001 -4.389 -8.376 -8.202001 -8.202001 -9.9645 -5.304 -10.66 -5.079 -11.6194 -5.383 -13.4628 -10.784 -10.784 -9.7995 -6.83 -10.5225 -5.071 
-13.874 -16.9205 -15.5739 -11.9116 -13.2366 -11.3879 -7.93 -10.2275 -6.337 -9.046 -9.301001 -7.471001 -7.471001 -9.0005 -11.4539 -7.500501 -12.6294 -8.676001 -8.376 -12.9914 -8.202001 -14.463 -9.9645 -10.66 -10.66 -11.6194 -11.6194 -13.4628 -17.3288 -10.784 -16.686 -11.947 -10.5225 -10.5225 
-19.2008 -19.8991 -15.5739 -18.6852 -13.2366 -14.1749 -10.2275 -10.2275 -9.046 -12.9179 -9.833 -7.471001 -11.3499 -14.9215 -11.4539 -12.6294 -12.6294 -13.0846 -12.9914 -12.9914 -14.463 -14.463 -15.3201 -10.66 -17.2004 -11.6194 -19.6992 -17.3288 -17.3288 -16.686 -18.8335 -15.6395 -10.5225 
-3.383 -3.699 -9.731501 -2.4945 -3.8935 0 -7.333 0 -4.678 0 -4.6805 0 -7.898 0 -5.2395 0 -10.0905 0 -6.4075 
-5.014 -14.7739 -12.4044 -7.466001 -3.8935 -7.333 -7.333 -4.678 -4.678 -4.6805 -4.6805 -7.898 -7.898 -5.2395 -5.2395 -10.0905 -10.0905 -6.4075 
-16.5535 -17.4468 -17.3759 -7.466001 -11.136 -7.333 -12.7024 -4.678 -8.133 -4.6805 -10.784 -7.898 -13.6267 -5.2395 -16.4116 -10.0905 -16.5652 
-19.2264 -22.4183 -17.3759 -15.0787 -11.136 -12.7024 -12.7024 -8.133 -8.133 -10.784 -10.784 -13.6267 -13.6267 -16.4116 -16.4116 -16.5652 
-24.1979 -22.4183 -24.9886 -15.0787 -16.5054 -12.7024 -16.1574 -8.133 -15.0587 -10.784 -16.5127 -13.6267 -24.7988 -16.4116 -22.8863 
