-4.759 
n/a 
n/a 
n/a 
n/a 
-4.759 
n/a 
n/a 
n/a 
n/a 
-4.759 
n/a 
n/a 
n/a 
n/a 
-4.759 
n/a 
n/a 
n/a 
n/a 
-1.4985 -4.257 -2.8645 -4.263 -4.7035 -3.695 -1.934 -4.688 -6.574 0 -3.851 -1.7695 -3.8735 -2.229 -4.688 -4.7615 0 -1.756 -3.074 -2.8645 -1.8085 -4.9635 -3.5125 -1.7565 -4.3915 -1.934 -3.4225 -4.39 -5.857 -3.9795 -4.819 0 -1.4985 -4.257 -2.229 -3.535 -4.5535 -2.7415 -1.7695 -4.9835 -1.4985 -4.1265 -2.229 -5.473 
-5.0245 -6.44 -7.2855 -9.3 -7.272 -4.7635 -6.3115 -9.042 -6.574 -3.851 -4.0015 -5.578001 -5.3655 -6.4745 -8.17 -4.7615 -1.756 -4.566 -4.9765 -3.9785 -6.048 -7.3655 -4.312 -6.071001 -5.868 -5.4655 -4.7525 -7.225 -6.644001 -8.503 -4.819 -1.4985 -5.0245 -5.842 -5.2675 -6.1705 -6.285 -4.604 -5.273 -5.749 -4.572001 -4.834 -7.56 
-6.763 -10.6215 -10.586 -10.1735 -8.309 -8.171 -10.0475 -9.042 -9.859 -4.0015 -8.6355 -6.952001 -8.7495 -9.0085 -8.17 -5.654 -4.566 -6.5085 -5.499 -7.5185 -7.9725 -7.8115 -7.723001 -7.5115 -9.3755 -7.3675 -7.2275 -7.865 -11.6933 -8.503 -6.1615 -5.0245 -6.0845 -8.484 -7.392 -7.4545 -6.439 -7.8525 -6.0655 -7.838 -4.963 -9.589001 
-10.6335 -10.6545 -10.6285 -10.4765 -10.733 -10.7175 -10.0475 -12.5248 -9.9095 -8.6355 -8.8245 -10.334 -11.6535 -9.0085 -8.791 -9.054501 -6.5085 -7.046 -9.038 -8.212501 -8.374001 -9.337 -9.611 -10.6875 -9.5505 -8.349501 -7.864501 -13.0609 -11.6933 -9.300501 -9.158001 -6.0845 -8.778001 -10.543 -8.381001 -7.5205 -9.7775 -8.285001 -7.994 -8.668 -9.718 
-10.6545 -10.6755 -10.6605 -10.7565 -10.7595 -10.7175 -13.5303 -12.5753 -14.6095 -8.8245 -12.2801 -13.238 -11.6535 -9.571501 -12.4525 -11.099 -7.046 -10.6335 -10.1725 -8.606501 -9.823501 -10.6885 -10.7595 -10.773 -9.752501 -8.658 -13.0606 -13.0609 -12.4908 -12.3468 -10.404 -8.778001 -10.8714 -11.532 -8.4535 -10.388 -10.0405 -10.396 -8.779501 -13.842 
-3.4975 -4.257 -2.742 -3.354 -2.985 -3.918 -1.934 -2.9995 -3.5015 -3.5065 -2.4265 -2.186 -3.7875 -2.645 -3.264 -1.7565 -4.1805 -5.4195 0 -5.4195 -2.9705 -2.7765 -4.334 -2.985 -4.1845 -4.525 -1.934 -3.7345 0 -2.855 -3.6135 -4.4605 -2.9705 -4.132 -3.3715 -5.159 -1.756 -4.1115 -3.5285 -3.711 -4.475 -1.934 -4.4935 -1.756 -4.1385 -4.418 0 
-6.978001 -6.855 -5.7335 -6.0885 -6.4835 -5.666 -4.2175 -5.9615 -6.46 -4.9345 -3.292 -5.4905 -6.073 -6.818001 -3.6125 -5.547 -8.0035 -5.4195 -5.4195 -7.924001 -4.677 -6.150001 -6.572001 -7.014 -5.843 -6.4445 -5.3795 -3.7345 -2.855 -6.9565 -7.594501 -7.061 -6.7985 -7.245 -8.847501 -6.666 -5.7375 -7.216001 -7.375 -8.380501 -5.5575 -6.17 -6.1145 -5.779 -7.317 -4.418 
-9.341001 -9.883 -8.0585 -9.504001 -7.585 -8.415501 -6.872 -9.5765 -7.867001 -5.587501 -7.068501 -7.8 -9.266001 -6.996001 -7.769001 -8.940001 -8.0035 -8.192 -7.924001 -9.381001 -8.404501 -8.120001 -9.683001 -8.936001 -7.9635 -9.887501 -5.3795 -7.245 -6.9565 -11.5407 -9.7605 -10.419 -9.336 -13.0358 -10.533 -10.6215 -8.093 -11.7127 -12.7017 -9.4055 -10.7413 -8.3525 -7.0485 -7.960501 -7.317 
-12.585 -12.5046 -11.646 -10.534 -10.4565 -11.2348 -10.3345 -10.6485 -8.4805 -9.7565 -9.411501 -11.2538 -9.3195 -11.6693 -11.8388 -8.940001 -11.2404 -11.3153 -9.381001 -13.4121 -10.3035 -11.4374 -10.7355 -11.3513 -11.7629 -9.887501 -8.4525 -11.5583 -11.5407 -13.7067 -13.1871 -12.9565 -15.2806 -14.7213 -14.4885 -12.977 -13.0377 -17.0394 -13.7267 -14.6441 -12.9238 -8.907001 -9.015 -7.960501 
-15.2066 -16.0921 -12.676 -13.4055 -13.2758 -14.6973 -11.4065 -11.262 -12.8551 -12.2041 -12.9419 -11.3073 -14.2002 -15.7391 -11.8388 -12.6715 -14.3637 -12.7723 -13.4121 -15.3111 -14.0129 -12.4899 -13.1508 -15.1507 -11.7629 -12.9605 -13.0696 -16.1425 -13.7067 -17.1333 -15.7246 -18.9011 -16.9661 -18.6768 -16.844 -17.9217 -18.3644 -18.0644 -18.9653 -16.8266 -13.4783 -11.2103 -9.015 

n/a 
n/a 
n/a 
n/a 
-5.631 -4.0265 -3.383 -4.174 -1.934 -5.6855 -1.7695 -5.159 0 -6.371 -1.934 -5.45 -5.159 0 -6.371 -1.7695 -4.4935 0 -4.1385 -4.1115 0 -3.355 -1.7565 -1.4985 -3.54 -4.3665 -4.0415 -1.934 -2.3615 -3.5015 0 
-10.048 -8.275001 -9.654 -6.14 -8.168 -7.44 -7.561501 -5.159 -6.371 -8.1555 -7.2205 -11.4638 -5.159 -6.371 -8.1225 -6.763 -4.4935 -4.1385 -7.5325 -4.1115 -3.355 -3.725 -2.4195 -4.529 -7.2305 -8.409 -6.2985 -3.539 -5.2225 -3.5015 
-14.7601 -14.8464 -11.6498 -12.8154 -9.6525 -13.6032 -7.561501 -8.5165 -8.1555 -13.7612 -13.6409 -11.4638 -8.5165 -8.1225 -13.4524 -6.763 -7.0105 -7.5325 -7.5325 -7.488501 -3.725 -4.0515 -5.1905 -8.254001 -11.7748 -11.1704 -8.191501 -6.392 -5.2225 
-21.3315 -16.8422 -18.3252 -14.2999 -15.8871 -13.6032 -11.3558 -11.5344 -13.7612 -20.1816 -13.6409 -14.8213 -11.5014 -13.4524 -13.4524 -9.422001 -10.27 -7.5325 -11.7433 -8.3675 -4.0515 -7.495 -9.102 -13.0149 -14.5362 -13.0634 -11.4011 -6.392 
-23.3273 -23.5176 -19.8097 -20.5345 -15.8871 -17.3975 -14.3737 -17.1401 -20.1816 -20.1816 -16.9984 -17.8062 -16.8313 -13.4524 -16.1114 -12.6771 -10.27 -11.7433 -12.6223 -8.5885 -7.495 -11.9383 -13.9571 -15.7763 -16.4292 -16.273 -11.4011 
