-4.759 
n/a 
n/a 
n/a 
n/a 
-4.759 
n/a 
n/a 
n/a 
n/a 
-4.759 
n/a 
n/a 
n/a 
n/a 
-4.759 
n/a 
n/a 
n/a 
n/a 
-3.2615 -2.871 -3.158 -4.7075 -3.074 -3.918 0 
-5.7415 -4.729 -8.6715 -8.3345 -6.644 -3.918 
-6.433 -10.8123 -12.6941 -10.361 -6.644 
-12.8789 -14.8349 -14.7206 -10.361 
-16.9015 -16.8614 -14.7206 
-3.2615 -2.871 -3.158 0 -4.7075 -3.074 -3.918 0 
-5.7415 -4.729 -3.158 -4.7075 -8.3345 -6.644 -3.918 
-6.433 -4.729 -8.6715 -8.3345 -10.361 -6.644 
-6.433 -10.8123 -12.6941 -10.361 -10.361 
-12.8789 -14.8349 -14.7206 -10.361 
-3.2615 -2.871 -3.158 -4.7075 -3.074 -3.918 -1.934 -2.3615 -4.2645 
-5.7415 -4.729 -8.6715 -8.3345 -6.644 -6.013 -3.539 -6.905001 
-6.433 -10.8123 -12.6941 -10.361 -7.701 -7.554 -8.222501 
-12.8789 -14.8349 -14.7206 -11.5842 -9.1765 -12.5449 
-16.9015 -16.8614 -15.9438 -13.0597 -14.2398 
-3.2615 -2.664 -3.158 -4.7075 -2.674 -3.918 
-5.252 -7.346 -8.6715 -8.095501 -5.873 
-8.9525 -13.4115 -12.4551 -10.019 
-15.2292 -17.1951 -14.3786 
-19.0128 -19.1186 
