-4.759 
n/a 
n/a 
n/a 
n/a 
-4.759 
n/a 
n/a 
n/a 
n/a 
-4.759 
n/a 
n/a 
n/a 
n/a 
-4.759 
n/a 
n/a 
n/a 
n/a 
-3.4985 -3.86 0 -4.841 -3.86 0 -5.1415 0 -3.9005 -5.305 -4.0865 0 -7.1215 -4.6785 -4.256 -2.356 -3.1495 -2.4945 -5.245 -3.849 -2.5045 -3.7745 -4.042 -3.86 0 
-5.719501 -3.86 -4.841 -9.285 -3.86 -5.1415 -5.1415 -3.9005 -9.2285 -8.3125 -4.0865 -7.1215 -12.5274 -6.674 -5.265 -4.8085 -4.459 -6.6905 -7.153501 -6.305 -6.5275 -6.255 -5.938001 -3.86 
-5.719501 -9.2675 -9.285 -9.285 -8.4655 -5.1415 -9.322001 -7.9735 -10.2685 -6.8075 -12.2722 -12.5274 -14.5229 -7.0825 -7.7255 -7.4775 -8.4375 -7.76 -9.290001 -10.404 -8.9505 -6.3935 -5.938001 
-11.7752 -13.9767 -9.285 -13.9657 -8.4655 -9.322001 -13.615 -10.0775 -10.0775 -15.6662 -17.6781 -14.5229 -14.9314 -9.3765 -9.972 -10.3285 -9.304001 -9.675501 -13.342 -12.827 -9.3985 -6.3935 
-16.4844 -13.9767 -13.9657 -13.9657 -12.8856 -13.615 -15.719 -10.0775 -19.034 -21.0721 -19.6736 -14.9314 -17.2254 -11.6584 -12.8516 -11.9534 -11.3127 -13.7383 -15.765 -13.275 -9.3985 
-3.4985 -3.86 0 -4.121 -3.4815 0 -5.1415 0 -4.0095 -1.756 -4.0555 -3.7795 -1.756 -2.8965 -3.686 0 -2.9705 -2.4945 -5.655 -4.6785 0 -2.5685 -3.8055 -3.894 -2.186 -5.6625 -3.7745 -4.042 -3.86 0 
-5.719501 -3.86 -4.121 -6.87 -3.4815 -5.1415 -5.1415 -4.0095 -5.43 -5.561 -7.6485 -5.5165 -3.751 -5.389 -3.686 -2.9705 -4.302 -6.7425 -10.4765 -4.6785 -2.5685 -6.7675 -5.2615 -6.205 -6.481 -9.242001 -6.255 -5.938001 -3.86 
-5.719501 -8.860001 -6.87 -6.87 -8.6705 -5.1415 -8.864 -5.43 -5.8825 -10.031 -10.6095 -7.161 -6.059 -5.389 -6.187 -4.302 -7.940001 -12.425 -10.4765 -7.877 -6.7675 -7.522501 -7.759501 -9.852501 -10.044 -11.8455 -6.3935 -5.938001 
-11.3677 -10.477 -6.87 -12.6096 -8.6705 -8.864 -10.1385 -5.8825 -10.0605 -12.992 -12.254 -8.223001 -6.059 -7.544001 -6.7665 -7.940001 -14.0335 -12.425 -13.675 -12.5248 -7.522501 -9.5465 -11.5314 -13.6055 -12.6475 -11.984 -6.3935 
-12.9847 -10.477 -12.6096 -12.6096 -12.5704 -10.1385 -10.22 -10.0605 -13.0215 -14.6365 -13.316 -8.223001 -8.039001 -8.1615 -10.8779 -14.0335 -14.0335 -15.6235 -18.3228 -13.2798 -9.5465 -13.2978 -15.2844 -16.209 -12.786 -11.984 
-1.4985 -3.7745 -4.042 -3.86 0 -4.5175 0 -2.186 -1.4985 -4.3755 -1.7565 -1.8085 -3.5965 -3.2 -2.3335 -5.0445 -2.9905 -1.4985 -4.2255 -1.7565 -1.8085 -3.5965 -3.324 0 -1.756 -2.186 -1.4985 -4.0105 -4.146 -4.6745 -2.9905 -1.4985 -3.5965 -2.229 -4.1335 -1.4985 -3.7745 -4.042 -3.86 -5.0445 -2.9905 -3.345 -4.4715 -1.7565 -1.4985 -3.324 -1.934 -4.2985 0 -1.7695 -4.305 -1.4985 -3.9005 -6.789001 0 -4.8125 0 -1.756 -8.065001 -3.9795 -1.7565 -1.4985 -3.2 
-4.753 -6.255 -5.938001 -3.86 -4.5175 -4.5175 -2.186 -3.339 -5.6425 -4.5345 -3.2595 -4.795 -5.266 -4.957 -6.195001 -6.075 -4.143 -5.178 -6.2665 -3.2595 -4.795 -5.598001 -3.324 -1.756 -3.986 -3.339 -4.7015 -7.605 -8.567 -5.341 -4.143 -4.746 -5.643001 -6.396 -5.8185 -4.753 -6.255 -5.938001 -8.094 -6.075 -6.3605 -7.113 -6.337 -2.4195 -4.304501 -4.971 -6.105 -4.2985 -1.7695 -4.667 -5.2135 -4.797 -8.765 -6.789001 -4.8125 -4.8125 -1.756 -7.565 -8.921 -5.4545 -2.4195 -4.259 
-6.932 -6.3935 -5.938001 -7.0335 -4.5175 -6.482501 -3.339 -7.0375 -5.746 -5.8525 -5.9905 -5.943 -6.948501 -8.2155 -7.4125 -6.8215 -7.581 -6.5925 -7.49 -5.9905 -6.089 -5.598001 -4.829 -3.986 -5.37 -5.8355 -7.945001 -10.3285 -9.915501 -5.983 -7.843 -6.4505 -9.14 -7.856501 -8.875501 -6.932 -6.3935 -9.362 -8.412001 -8.988001 -9.8275 -8.6335 -6.8605 -5.0965 -5.940001 -9.452001 -6.105 -6.249 -4.667 -5.52 -7.811 -9.377001 -8.765 -8.950001 -4.8125 -6.173 -7.2365 -9.3985 -9.431001 -5.8285 -5.159 
-7.0595 -6.3935 -7.1105 -7.0335 -6.482501 -7.833501 -7.0375 -7.1025 -7.1185 -8.021501 -6.8915 -7.413 -10.168 -9.102 -7.938001 -8.474501 -8.190001 -7.7865 -8.4545 -7.165501 -6.089 -7.2915 -6.7255 -5.37 -7.463 -8.679501 -10.334 -10.358 -10.048 -9.765 -9.339001 -9.3655 -10.6475 -11.1813 -10.5755 -7.0595 -10.6215 -9.3655 -11.4804 -12.8876 -11.4346 -8.897 -8.602 -6.6405 -10.0005 -9.452001 -7.4145 -8.791 -5.52 -8.151501 -12.9048 -9.377001 -11.5616 -8.950001 -6.173 -11.4572 -9.4045 -11.0205 -9.8315 -8.165501 
-7.0595 -7.120501 -7.1105 -8.563001 -7.833501 -12.0076 -7.1025 -7.9555 -8.881001 -9.069501 -8.4095 -10.2175 -10.193 -9.552501 -8.693501 -8.5935 -8.679001 -8.604 -8.496 -7.165501 -7.7925 -9.425 -8.050501 -7.463 -10.194 -10.3675 -10.3575 -10.403 -10.4355 -10.35 -10.451 -10.7585 -13.9723 -12.8813 -10.779 -11.6901 -10.6545 -13.0385 -15.38 -14.4947 -11.6981 -9.352501 -9.975 -10.7952 -10.0005 -10.8059 -9.612 -9.555 -8.151501 -13.3669 -12.9048 -12.4386 -11.5616 -10.1475 -11.4572 -13.6252 -11.0201 -11.7621 -12.6706 
-3.4985 -3.86 0 -4.905 0 -5.1415 0 -3.9005 -3.86 0 -4.0555 -4.395 -2.5685 -3.5795 -1.934 -3.7745 -4.042 -3.86 
-5.719501 -3.86 -4.905 -4.905 -5.1415 -5.1415 -3.9005 -8.455501 -3.86 -4.0555 -9.1 -7.034 -6.8985 -5.5965 -5.196 -6.255 -5.938001 
-5.719501 -9.578001 -4.905 -11.5981 -5.1415 -9.322001 -8.455501 -8.455501 -8.043501 -9.1 -11.8954 -10.718 -9.1245 -10.0575 -8.7775 -6.3935 
-12.0857 -9.578001 -11.5981 -11.5981 -9.322001 -14.097 -8.455501 -12.9798 -13.536 -11.8954 -15.5794 -12.944 -13.9355 -13.7854 -9.509001 
-12.0857 -16.4003 -11.5981 -15.7786 -14.097 -14.097 -12.9798 -18.4723 -16.3314 -15.5794 -17.8054 -17.755 -17.6634 -14.5169 
