-4.759 
n/a 
n/a 
n/a 
n/a 
-4.759 
n/a 
n/a 
n/a 
n/a 
-4.759 
n/a 
n/a 
n/a 
n/a 
-4.759 
n/a 
n/a 
n/a 
n/a 
-3.135 -2.8965 -5.1065 -3.6785 -2.3335 -3.074 -1.4985 -4.359 -2.3335 -3.2645 -2.489 -3.7855 -1.7695 -3.595 -2.186 -5.2155 -2.0935 -1.4985 -3.469 -3.8405 0 
-4.9085 -6.944 -6.8345 -4.529 -5.496 -4.6505 -5.6425 -6.9245 -4.997 -3.7195 -4.789001 -4.793 -4.741 -5.940001 -6.7065 -7.066 -2.9725 -4.636 -5.8625 -3.8405 
-9.517501 -10.061 -8.132501 -8.385 -7.238501 -8.902 -7.719501 -8.5815 -5.3065 -5.6945 -5.3715 -6.5845 -6.862 -10.4855 -8.428 -7.927001 -5.8045 -7.2565 -5.8625 
-12.6357 -11.4038 -12.1557 -9.52 -11.5708 -10.622 -8.943501 -8.647 -7.587501 -6.0955 -7.673501 -8.885501 -10.673 -12.5184 -9.259501 -11.1864 -8.498501 -7.2565 
-13.9785 -15.427 -13.2907 -13.8523 -13.2908 -11.846 -8.9545 -9.0555 -8 -8.762501 -10.0805 -12.8593 -13.0457 -13.3499 -12.6295 -13.8804 -8.498501 
-3.135 -1.7565 -1.4985 -6.8335 -2.9805 -2.8645 -1.7695 -2.489 -1.4985 -3.9725 -3.436 -4.179 -2.872 -3.433 -1.7565 -3.135 -4.031 -2.4265 -2.674 -3.1125 -4.7975 0 
-3.9195 -2.4195 -7.862 -9.1415 -4.3245 -4.4755 -3.1405 -3.9675 -4.88 -7.6125 -8.3365 -5.93 -5.412001 -4.1845 -4.6765 -5.323501 -5.774 -5.6185 -3.6315 -6.2495 -4.7975 
-4.168 -9.206 -10.3885 -10.1955 -5.763 -4.9335 -4.568 -6.97 -8.276001 -12.8872 -10.159 -7.986501 -6.0505 -6.462 -7.966001 -6.5655 -10.259 -6.52 -6.7225 -6.2495 
-11.6535 -11.7911 -11.4425 -11.634 -6.863501 -6.2745 -7.204 -10.9014 -13.5705 -14.7097 -12.2155 -8.4665 -8.162001 -8.7335 -9.922501 -11.2395 -11.1605 -10.1225 -6.7225 
-14.2386 -12.8451 -12.881 -12.7345 -8.067 -9.453501 -11.1414 -16.1959 -15.393 -16.7662 -12.6955 -10.6875 -10.122 -10.434 -14.6229 -12.141 -14.763 -10.1225 
-3.948 -6.1105 -4.1585 -2.3335 -2.9805 -2.8645 -1.7695 -2.489 -3.6955 -3.222 -1.4985 -3.519 -3.4765 -3.436 -4.179 0 
-9.478001 -9.911 -5.438 -4.1515 -4.3245 -4.4755 -3.1405 -6.8245 -5.343 -3.7835 -4.426001 -6.909 -5.639 -8.3365 -4.179 
-13.5413 -11.2729 -6.815001 -5.419 -5.763 -4.9335 -7.401 -8.6555 -6.122 -6.7565 -8.4175 -8.9965 -10.8871 -8.3365 
-14.9032 -12.6499 -8.189501 -6.87 -6.863501 -9.4855 -9.556001 -8.855 -9.3865 -11.1608 -10.6858 -14.3274 -10.8871 
-16.2802 -14.0244 -9.1625 -7.985001 -11.8907 -11.7041 -10.444 -13.0715 -14.0406 -13.4291 -16.0167 -14.3274 
-3.436 -1.7565 -3.0465 -2.3615 -3.275 -1.7695 -3.469 -3.3435 -4.2765 -1.7695 -3.6785 -3.135 -4.5235 
-6.931 -6.2695 -5.028501 -4.4505 -4.9815 -5.617 -5.883 -8.036501 -7.033501 -4.268 -6.5155 -6.548 
-11.9906 -8.3395 -8.1285 -5.735 -9.1255 -7.8815 -10.1765 -11.0251 -9.6295 -7.1445 -9.418501 
-14.0606 -11.5567 -9.3675 -10.6735 -11.984 -12.4622 -13.1651 -13.6211 -12.6488 -10.2699 
-17.2778 -12.7957 -14.7966 -13.532 -16.5647 -15.4508 -15.7611 -16.6404 -15.7742 
