-4.759 
n/a 
n/a 
n/a 
n/a 
-4.759 
n/a 
n/a 
n/a 
n/a 
-4.759 
n/a 
n/a 
n/a 
n/a 
-4.759 
n/a 
n/a 
n/a 
n/a 
-3.1495 -3.8195 -4.375 -4.0825 -3.4045 -2.5195 -1.4985 -4.285 -1.756 -4.828 -3.4985 -1.7565 -4.628 -5.939 -3.5435 
-5.4425 -7.5125 -8.461 -5.2825 -5.461 -3.1695 -5.284 -5.6225 -6.2015 -8.9895 -4.622 -6.107501 -5.9615 -7.053 
-8.589001 -9.911 -8.5955 -6.425 -5.8915 -7.0895 -6.732501 -10.281 -10.2645 -10.0615 -9.525001 -7.357501 -7.0565 
-11.0309 -9.934501 -9.0205 -6.832 -10.367 -8.703 -11.5644 -14.344 -11.8579 -15.0585 -10.144 -9.1815 
-11.0544 -10.4935 -9.391 -11.6771 -11.9805 -13.6009 -15.6274 -15.9374 -16.8549 -15.6775 -11.968 
-3.1495 -4.088 -3.152 -4.794 -2.5195 -1.4985 -6.899 -3.5435 -2.5045 -3.543 -1.4985 -4.0415 -1.756 -3.8495 -4.384 0 
-6.193 -6.9045 -6.363501 -5.6105 -3.1695 -8.336 -8.7615 -5.881001 -5.323 -5.62 -4.9725 -5.4805 -5.988 -9.337 -4.384 
-7.9455 -9.812501 -7.134501 -5.9935 -10.147 -9.265 -11.286 -8.5165 -5.8685 -9.681001 -6.1125 -10.9029 -12.1843 -9.337 
-10.9667 -11.0613 -7.561501 -13.4028 -11.076 -11.8299 -13.9215 -8.93 -10.071 -10.821 -11.5905 -17.0992 -12.1843 
-12.2155 -11.4883 -15.1006 -14.3318 -13.6409 -14.4654 -14.335 -13.2269 -11.211 -16.299 -17.7868 -17.0992 
-2.3615 -3.9035 -2.186 -3.4985 -2.3345 -7.239501 -1.756 -12.16972 
-7.6165 -6.4815 -7.002001 -5.9425 -9.683001 -8.6645 -14.93432 
-9.572001 -11.5961 -8.641001 -13.7862 -11.2832 -22.16382 
-14.8048 -13.2351 -16.7227 -15.3864 -24.78252 
-16.4438 -21.3168 -18.3229 -28.88572 
-3.1495 -4.418 -2.4945 -2.9905 -1.7565 -3.4985 -1.7565 -4.0415 -1.756 -3.9555 -3.4985 -1.7565 -4.628 -5.939 -3.5435 0 
-6.281 -5.929 -5.4315 -3.6185 -5.136 -4.622 -5.4955 -5.4805 -5.3475 -7.514501 -4.622 -6.107501 -5.9615 -7.053 -3.5435 
-7.2705 -9.696 -5.7695 -5.606 -6.5465 -8.0765 -6.7825 -8.9855 -9.173 -9.08 -9.525001 -7.357501 -7.0565 -7.053 
-11.4967 -9.8205 -7.1165 -7.9545 -10.199 -9.204 -10.9569 -13.1078 -10.249 -14.0378 -10.144 -9.1815 -7.0565 
-11.6212 -11.3807 -9.221001 -12.036 -11.3265 -13.8644 -15.0792 -14.1838 -15.4482 -14.6568 -11.968 -9.1815 
