-4.759 
n/a 
n/a 
n/a 
n/a 
-4.759 
n/a 
n/a 
n/a 
n/a 
-4.759 
n/a 
n/a 
n/a 
n/a 
-4.759 
n/a 
n/a 
n/a 
n/a 
-4.559 -4.6395 -4.5925 -2.5645 -6.129 -4.744 -2.264 -1.4985 -6.084 -4.3685 
-10.368 -9.792 -8.508 -7.224 -10.2925 -6.632 -2.9195 -7.352 -11.3827 
-15.5205 -13.8425 -13.2471 -11.6057 -12.1805 -7.122001 -8.9785 -13.0473 
-19.571 -18.5816 -17.6288 -13.4937 -12.6705 -13.8284 -14.901 
-24.3101 -22.9633 -19.5168 -13.9837 -19.3769 -19.7509 
-3.6215 -2.5645 -5.2315 -4.744 -4.424 -1.934 -2.3615 -3.8275 
-5.96 -7.952001 -10.6345 -7.3205 -5.195 -3.539 -5.965 
-12.3309 -13.6682 -13.211 -7.767501 -7.3915 -6.813 
-18.0471 -16.2447 -13.658 -9.828001 -8.603001 
-20.6236 -16.6917 -15.7185 -10.578 
-3.5085 -3.931 -2.264 -1.4985 -8.965501 -4.348 -3.152 -3.6215 -3.8445 -6.4405 -1.934 -1.4985 -7.035501 -4.299 0 
-6.363 -5.7655 -2.9195 -9.964001 -10.8025 -6.44 -6.507501 -6.8725 -8.4525 -7.888 -2.6125 -8.76 -11.9743 -4.299 
-8.3295 -6.6095 -11.7676 -11.911 -12.8945 -10.068 -9.197001 -12.0245 -9.564501 -8.637 -10.238 -14.1078 -11.9743 
-8.9405 -16.0556 -13.7146 -14.003 -16.5225 -12.7575 -14.552 -13.1365 -10.7195 -16.6653 -15.5858 -14.1078 
-18.5278 -18.0026 -15.8066 -17.631 -19.212 -18.1125 -15.664 -14.2915 -18.7478 -22.0131 -15.5858 
-1.4985 -4.0865 -3.931 -2.0935 -1.4985 -4.065 -4.257 -1.934 -2.3615 -7.035501 -4.299 -2.186 -4.347 -2.5645 -6.4405 -4.744 0 
-4.7805 -7.4355 -5.7555 -2.9725 -4.824 -6.226501 -6 -3.539 -9.9615 -11.9743 -6.138 -5.555 -5.935 -7.538501 -12.0219 -4.744 
-8.02 -8.844501 -6.228 -6.4275 -6.502 -7.4675 -8.006001 -11.844 -15.4333 -13.8133 -9.587501 -7.150001 -12.0064 -13.3907 -12.0219 
-9.429501 -9.000501 -10.107 -7.960001 -7.516001 -9.774 -16.6284 -17.3158 -17.2723 -17.2628 -10.759 -13.4494 -17.8586 -13.3907 
-9.604501 -13.1419 -11.6395 -8.888 -9.822001 -18.4414 -22.1002 -19.1548 -20.7218 -18.4343 -17.0584 -19.3016 -17.8586 
