-4.759 
n/a 
n/a 
n/a 
n/a 
-4.759 
n/a 
n/a 
n/a 
n/a 
-4.759 
n/a 
n/a 
n/a 
n/a 
-4.759 
n/a 
n/a 
n/a 
n/a 
-5.965 -4.156 -4.328 -2.802 -8.221001 0 -7.581 0 -4.4895 -9.293 -3.4005 -3.2 0 -2.3335 -3.2 -5.739 -1.4985 -5.891 -4.495 -1.934 -3.1385 0 -9.293 -3.4005 -3.2 0 0 -1.756 -3.0415 -2.4265 -5.5395 -2.4265 0 
-10.335 -6.2095 -7.811501 -8.57 -8.221001 -7.581 -7.581 -4.4895 -12.2355 -10.631 -5.781 -3.2 -2.3335 -6.042 -8.5575 -6.797 -6.9925 -9.355 -6.266 -5.494 -3.1385 -7.641 -10.631 -5.781 -3.2 0 -1.756 -4.454 -4.551 -8.008 -7.502501 -2.4265 
-12.3885 -9.618 -14.1121 -8.57 -10.0315 -7.581 -12.9177 -12.2355 -15.6715 -12.7125 -5.781 -4.957 -6.042 -11.9675 -9.6195 -12.8396 -10.3345 -10.505 -9.245001 -5.494 -11.4057 -11.077 -12.7125 -5.781 -3.2 -1.756 -4.454 -5.8835 -11.5185 -9.9125 -7.502501 
-15.797 -16.3986 -14.1121 -10.259 -10.0315 -12.9177 -20.6637 -15.6715 -17.307 -12.7125 -7.277 -8.0695 -11.9675 -13.0295 -15.6621 -16.1816 -11.4845 -13.484 -9.245001 -14.3442 -14.8417 -12.7125 -12.7125 -5.781 -4.5345 -4.454 -5.8835 -13.0068 -13.423 -9.9125 
-22.5776 -16.3986 -15.8011 -10.259 -15.3682 -20.6637 -24.0997 -17.307 -17.307 -14.3805 -10.298 -14.427 -13.0295 -19.0721 -19.0041 -17.3316 -14.4635 -13.484 -18.119 -17.7802 -16.4772 -12.7125 -12.7125 -6.9115 -7.176001 -5.8835 -13.0068 -14.9113 -13.423 
-6.557 -4.156 -4.328 -10.383 -4.4895 -3.3975 -3.4005 0 -2.9705 -3.251 -3.1125 -3.7015 -2.3345 -3.6055 -2.871 0 
-9.4685 -6.2095 -15.4685 -15.7957 -8.703501 -5.987 -3.4005 -2.9705 -5.153 -4.28 -7.110001 -7.0055 -6.0955 -5.363 -2.871 
-9.493501 -17.8076 -21.3378 -20.0097 -11.5404 -5.987 -6.254 -5.153 -5.689 -8.130501 -10.7528 -9.611 -7.5065 -5.363 
-21.9596 -23.6243 -25.5518 -22.8466 -11.5404 -9.645 -8.473001 -5.689 -9.940001 -12.0027 -13.3583 -11.1374 -7.5065 
-27.2963 -27.8383 -28.3887 -22.8466 -15.1984 -11.9264 -8.987 -9.940001 -13.9606 -14.6082 -14.8847 -11.1374 
-1.7695 -5.7955 -1.4985 -5.891 -3.402 -3.4005 -4.4895 -2.3345 -1.4985 -3.1715 -4.156 -4.328 -2.802 -10.011 0 -2.9705 -4.38 -1.4985 -5.891 -3.4005 0 
-6.2755 -6.502 -6.9925 -7.641 -6.392 -8.2215 -5.5805 -3.233 -3.994 -7.225501 -6.2095 -7.811501 -11.0145 -10.011 -2.9705 -6.023001 -5.1675 -6.9925 -9.2285 -3.4005 
-6.877 -10.553 -8.935501 -11.077 -10.3885 -9.0325 -6.206 -5.2255 -7.732 -8.274501 -9.618 -16.5566 -11.0145 -13.0813 -6.023001 -6.657001 -10.75 -11.0132 -9.2285 
-11.0416 -12.7254 -12.2971 -15.0735 -11.3765 -9.653501 -8.52 -8.956 -8.67 -11.857 -18.8431 -16.5566 -14.0848 -16.1338 -6.657001 -12.3703 -14.7707 -11.0132 
-13.214 -16.087 -16.2936 -16.0615 -11.9975 -12.1553 -12.4413 -9.814 -12.3095 -21.0821 -18.8431 -19.6269 -17.1373 -16.7678 -12.3703 -16.391 -14.7707 
-3.7015 -2.802 -8.221001 0 -2.4285 -7.581 0 0 -1.4985 -3.321 -4.156 -4.328 -1.7565 -5.965 -3.1715 0 -2.0935 -4.905 -1.8085 -2.688 -4.1135 -3.2 -2.3335 -5.217 -4.803 -4.1955 -9.293 -5.076 -3.849 -6.454 -8.458 -8.796 
-7.356501 -8.57 -8.221001 -2.4285 -10.3545 -7.581 0 -1.4985 -5.696501 -7.2115 -6.2095 -5.0935 -7.106 -8.389 -3.1715 -2.0935 -6.307 -5.974 -3.642 -6.726501 -6.13 -4.957 -7.5165 -8.769501 -9.344001 -10.5405 -12.6345 -9.844 -9.764001 -10.459 -10.2925 
-13.6313 -8.57 -10.4505 -10.3545 -10.3545 -7.581 -1.4985 -5.696501 -7.848501 -8.376 -7.0935 -9.223001 -9.1485 -8.389 -5.2445 -6.307 -7.389 -6.5785 -7.418 -8.508 -7.5665 -10.013 -10.7025 -13.2061 -15.0366 -11.9705 -14.8126 -15.828 -13.8248 -10.4905 
-13.6313 -10.733 -10.731 -10.3545 -10.3545 -9.828001 -5.696501 -7.848501 -8.514001 -8.8015 -9.246 -9.735001 -9.1485 -10.7335 -10.199 -7.389 -8.311 -9.874001 -8.789001 -9.784501 -12.8185 -13.199 -15.1391 -18.8987 -15.6831 -15.5696 -20.8336 -19.8888 -13.8563 
-15.7943 -10.7835 -10.731 -10.3545 -12.6015 -14.0754 -7.848501 -8.514001 -8.913501 -10.4585 -9.7405 -9.735001 -11.5424 -15.688 -11.281 -8.311 -11.7425 -11.2778 -9.873501 -15.1819 -16.0045 -17.6356 -20.8317 -19.5452 -20.7637 -21.5536 -24.8944 -19.9203 
