-4.759 
n/a 
n/a 
n/a 
n/a 
-4.759 
n/a 
n/a 
n/a 
n/a 
-4.759 
n/a 
n/a 
n/a 
n/a 
-4.759 
n/a 
n/a 
n/a 
n/a 
-5.1845 -4.77 -2.186 -4.3895 -2.0935 -3.3715 -3.277 0 -4.354 0 -1.756 -3.43 -2.4265 -3.644 -2.356 -3.301 -4.957 0 -2.3335 -2.7415 -1.4985 -4.031 -2.0935 -1.4985 -3.6615 -1.7565 -3.644 -4.245 0 
-9.286501 -6.498501 -5.817 -6.3795 -4.713 -4.9255 -3.277 -4.354 -4.354 -1.756 -5.055 -4.849 -5.5655 -5.672 -5.3925 -9.353001 -4.957 -2.3335 -4.2725 -4.063 -4.771 -4.8935 -2.9725 -4.9455 -5.606 -5.5855 -8.892 -4.245 
-10.4775 -9.330001 -7.813001 -8.507 -5.244 -4.9255 -8.105 -4.354 -6.0865 -5.055 -6.1255 -7.1495 -7.702001 -8.493501 -11.8749 -9.353001 -6.976501 -4.2725 -5.387 -6.482 -5.3855 -5.596 -6.644001 -6.696001 -10.238 -10.4675 -8.892 
-13.309 -10.901 -10.6095 -8.6525 -5.244 -9.5425 -8.105 -6.0865 -8.835501 -6.1255 -7.377501 -9.222501 -10.8441 -15.3341 -11.8749 -10.2245 -9.528 -5.387 -7.172501 -7.023 -5.895 -8.4045 -8.55 -11.5628 -15.3808 -10.4675 
-14.88 -13.6975 -10.755 -8.6525 -9.570001 -9.5425 -9.774 -8.835501 -10.354 -7.377501 -9.6145 -12.5414 -17.6847 -15.3341 -12.7464 -14.2936 -10.505 -7.172501 -7.847001 -7.442 -8.627501 -10.5855 -13.5122 -16.7056 -15.3808 
-2.5195 -4.5735 -3.5215 -5.1845 -5.601 -7.0695 -2.186 -4.9325 -1.7565 0 -3.4765 -3.2615 -4.8365 -4.6045 -3.693 -1.756 -3.693 -2.925 -4.6155 -1.7695 -3.486 -5.5495 -1.756 -4.6155 -1.7695 -1.4985 -3.486 -3.3755 0 
-6.318501 -6.2465 -9.243 -10.119 -13.6235 -9.413501 -6.4585 -6.252501 -1.7565 -3.4765 -5.382501 -8.363 -8.870001 -9.168001 -5.0025 -5.153501 -6.007 -6.829 -5.4835 -6.279 -7.6375 -6.428501 -6.009 -5.4835 -2.7955 -3.5655 -5.091 -3.3755 
-7.0085 -12.5176 -14.4709 -19.9311 -15.9675 -13.8618 -7.265 -6.252501 -5.928 -5.382501 -10.702 -13.0609 -13.8405 -10.5135 -5.606 -7.199 -10.159 -7.354001 -8.435 -10.8481 -8.128 -10.5425 -6.577 -6.059 -5.0515 -5.103 -5.091 
-13.6904 -17.7455 -24.283 -22.2751 -20.4158 -14.6683 -7.265 -9.272501 -8.7895 -10.702 -15.3999 -18.0314 -15.186 -11.117 -7.718 -11.2784 -10.695 -10.6235 -14.0737 -11.3386 -12.8404 -10.6635 -7.3765 -7.824 -8.4755 -5.103 
-18.9183 -27.5576 -26.627 -26.7234 -21.2223 -14.6683 -10.2865 -12.4104 -14.1746 -15.3999 -20.3704 -19.3769 -15.7895 -13.229 -11.8758 -11.8144 -13.9645 -16.2622 -14.5642 -16.051 -12.9614 -11.463 -9.383501 -10.5855 -8.4755 
-7.4055 -1.4985 -8.1485 -3.9675 -2.8645 -3.1125 -6.468 0 -4.164 -1.756 -4.037 -1.7695 -4.285 -4.4785 0 -3.1435 -4.6165 -3.6615 -2.4945 -3.851 -1.7695 -1.4985 -4.544 -3.9675 0 
-5.5585 -9.3275 -10.316 -6.433001 -3.5345 -8.41 -6.468 -4.164 -5.7745 -6.06 -5.719 -6.204501 -6.746 -4.4785 -3.1435 -7.227 -7.713 -5.3425 -5.516 -4.0015 -2.7955 -5.639 -8.481001 -3.9675 
-13.3601 -10.6475 -12.7815 -7.2285 -8.87 -8.41 -11.6152 -5.7745 -8.544001 -7.417001 -11.2384 -8.950001 -6.746 -6.9455 -7.227 -10.4345 -9.810501 -7.764 -5.8965 -4.5775 -6.928501 -9.2065 -8.481001 
-14.8413 -13.113 -13.577 -12.7802 -8.87 -13.8216 -13.2257 -8.544001 -9.616 -13.1908 -13.9839 -8.950001 -9.842601 -11.753 -10.4345 -12.532 -12.232 -7.827001 -6.598001 -8.517 -10.635 -9.2065 
-17.3068 -13.9085 -19.1287 -12.7802 -14.3382 -15.4321 -15.9952 -9.616 -15.5272 -15.9363 -13.9839 -12.1042 -14.6501 -14.9605 -12.532 -14.9535 -12.295 -8.5465 -10.6133 -12.5269 -10.635 
-5.1845 -3.9675 -2.186 -3.074 -1.8085 -3.9675 -2.9705 -2.742 -3.0465 -6.721 -3.6615 0 -3.6705 -2.4265 -2.8645 -1.8085 -3.6135 -4.77 0 
-8.286 -5.881001 -4.156 -4.639 -5.5895 -6.533501 -4.601501 -4.8155 -9.462 -9.592501 -3.6615 -3.6705 -4.959001 -4.1435 -3.9785 -4.4545 -8.6735 -4.77 
-9.852 -7.866 -4.962 -8.498501 -7.509501 -8.217001 -7.1835 -11.9404 -12.4975 -9.592501 -6.9455 -4.959001 -6.373 -5.1925 -6.394 -8.858 -8.6735 
-11.837 -8.776501 -8.860001 -10.403 -9.4515 -10.9278 -14.6022 -14.9759 -12.4975 -13.2897 -8.212501 -6.373 -7.6615 -7.561501 -10.054 -8.858 
-12.7475 -10.75 -10.688 -12.345 -12.1895 -18.3465 -17.6377 -14.9759 -16.1947 -14.5567 -9.742001 -7.6615 -9.994 -11.3655 -10.054 
