-4.759 
n/a 
n/a 
n/a 
n/a 
-4.759 
n/a 
n/a 
n/a 
n/a 
-4.759 
n/a 
n/a 
n/a 
n/a 
-4.759 
n/a 
n/a 
n/a 
n/a 
-1.934 -5.7505 0 -3.5065 -1.4985 -6.899 -3.9725 -2.8645 -2.847 -5.8085 0 -4.6795 -8.611501 -7.504 -4.9385 -4.628 -4.743 -1.756 -4.3215 -4.33 -2.5045 -1.4985 -3.291 -3.9725 0 
-7.685 -5.7505 -3.5065 -4.358 -8.336 -11.1415 -6.5895 -4.6285 -8.607 -5.8085 -4.6795 -14.5156 -16.4199 -12.9785 -9.755501 -4.7515 -6.5275 -6.293 -7.9785 -5.651 -3.583 -3.9665 -7.514501 -3.9725 
-7.685 -9.5015 -4.358 -11.5119 -12.6715 -13.7585 -8.294001 -10.459 -8.607 -11.2308 -14.5156 -22.324 -21.8944 -17.7955 -9.906501 -6.535501 -11.8679 -8.93 -8.362 -6.542001 -5.9665 -7.771 -7.514501 
-10.368 -10.599 -11.5119 -15.8474 -15.2885 -15.463 -14.5021 -10.459 -14.3765 -21.0669 -22.324 -27.7985 -26.7114 -17.9465 -12.0017 -11.9005 -14.5049 -9.264501 -8.927501 -8.7495 -8.9495 -7.771 
-11.4655 -17.7529 -15.8474 -18.4644 -16.993 -21.6711 -14.5021 -16.2285 -24.2126 -28.8753 -27.7985 -32.6155 -26.8624 -20.0417 -17.3667 -14.5375 -14.8394 -9.825001 -11.2962 -10.674 -8.9495 
-1.934 -5.7505 0 -4.6795 0 -5.988 -3.7555 -3.881 -1.4985 -3.683 -3.802 -2.264 -1.4985 -3.098 -1.7565 -2.985 -3.9725 -2.5195 -1.4985 -3.9725 -1.7565 -6.6585 0 -3.0695 -3.251 -2.847 -5.73 
-7.685 -5.7505 -4.6795 -4.6795 -5.988 -10.0715 -7.699 -6.022 -4.9055 -6.4045 -6.078501 -2.9195 -4.3095 -4.3615 -3.9355 -6.916 -6.885 -3.1695 -4.88 -4.9685 -8.343 -6.6585 -3.0695 -4.7295 -4.8355 -7.967 
-7.685 -9.897 -4.6795 -11.8921 -10.0715 -14.1722 -9.8765 -9.852501 -7.629 -8.834001 -6.638501 -6.164001 -4.5915 -6.812 -7.853001 -9.009001 -7.524 -6.699 -5.4975 -12.6576 -8.343 -9.89 -4.7295 -6.452001 -8.887001 
-12.2109 -9.897 -11.8921 -15.9756 -14.1722 -16.3497 -13.707 -12.576 -9.799 -9.5435 -10.3114 -6.441 -6.8905 -9.52 -9.413501 -9.712501 -9.752001 -7.352 -13.3574 -12.6576 -10.598 -11.55 -6.452001 -9.667001 
-12.2109 -17.5082 -15.9756 -20.0763 -16.3497 -20.1802 -16.4305 -14.746 -10.5775 -13.2592 -10.5884 -8.969001 -9.535501 -11.0611 -10.9208 -12.1393 -10.357 -15.4351 -13.3574 -14.9126 -12.258 -13.2725 -9.667001 
-2.5045 -5.7505 -1.4985 -6.6585 -2.7415 -3.8085 -2.3345 -4.179 -1.7695 -3.9725 0 
-8.514001 -7.912001 -9.0305 -9.5905 -6.2365 -6.0295 -5.5965 -5.481501 -6.241001 -3.9725 
-10.0575 -15.7142 -12.1413 -13.1819 -7.593 -10.177 -7.234 -10.3345 -6.241001 
-17.8597 -18.825 -15.7327 -14.5384 -12.1073 -11.8145 -12.5506 -10.3345 
-20.9705 -22.4164 -17.0892 -19.0527 -13.7448 -17.1311 -12.5506 
-1.934 -5.7505 0 -3.5065 -1.4985 -3.9725 -2.8645 -2.847 -4.799 0 -1.4985 -6.3755 -4.328 -6.834 -4.0385 -1.8085 -2.742 -1.7565 -6.6585 -2.264 -3.091 -6.3755 -3.9725 
-7.685 -5.7505 -3.5065 -4.358 -4.88 -6.5895 -4.6285 -7.778 -4.799 -1.4985 -7.606501 -10.155 -10.674 -10.9855 -5.393001 -5.72 -5.563 -8.343 -9.47 -4.534 -9.759001 -10.1425 
-7.685 -9.5015 -4.358 -8.032001 -7.200001 -8.294001 -8.894501 -7.778 -6.7005 -7.606501 -10.7595 -16.833 -15.4773 -12.34 -8.748001 -7.4195 -13.2467 -10.7575 -11.8288 -11.5648 -13.574 
-10.368 -10.599 -8.032001 -9.529 -8.541 -12.9376 -8.894501 -9.1835 -13.2171 -10.7595 -17.4375 -21.6363 -16.8318 -15.695 -10.8383 -15.4566 -15.6612 -13.1163 -18.8596 -15.3798 
-11.4655 -14.273 -9.529 -10.8986 -13.4424 -12.9376 -10.228 -15.8579 -16.3701 -17.4375 -22.2408 -22.9908 -20.1868 -17.7853 -18.8754 -17.8711 -18.02 -20.1471 -22.6746 
