-4.759 
n/a 
n/a 
n/a 
n/a 
-4.759 
n/a 
n/a 
n/a 
n/a 
-4.759 
n/a 
n/a 
n/a 
n/a 
-4.759 
n/a 
n/a 
n/a 
n/a 
-1.4985 -3.7725 -4.645 -2.4945 -3.8935 -2.5195 -1.4985 -4.314 -4.417 -3.1495 -4.486 -2.186 -2.645 -3.1575 -7.8755 -3.277 -3.393 0 
-6.594501 -9.984 -6.2495 -5.8465 -4.9345 -3.1695 -5.3815 -8.699 -7.984 -7.778501 -6.2635 -4.528 -3.72 -7.923 -8.195 -4.243 -3.393 
-13.0152 -10.464 -9.719501 -6.903 -5.5105 -7.215 -9.338 -12.504 -12.8682 -10.4185 -8.443 -5.2425 -7.5645 -9.772001 -8.438001 -4.243 
-13.4952 -13.934 -10.9432 -7.323 -10.239 -11.5677 -13.3926 -17.3882 -15.5082 -12.598 -9.129001 -9.940001 -9.9165 -11.321 -9.425 
-16.9652 -15.1577 -11.3632 -12.3879 -14.5917 -15.6223 -18.2768 -20.0282 -17.6877 -13.284 -14.0481 -12.34 -11.5039 -11.4644 
-7.007 -3.277 -4.157 -3.436 -1.4985 -3.228 -3.158 
-9.760501 -7.478001 -8.0735 -4.213 -3.9575 -4.432 
-14.1095 -11.6365 -8.645 -6.544 -5.4985 
-18.268 -12.208 -11.0528 -8.964001 
-18.8395 -14.6158 -13.4728 
-4.2875 -1.7695 -4.092 -4.394 -3.0465 -1.4985 -3.228 -7.8755 -5.0285 -3.819 -1.4985 -4.2305 0 
-6.583 -6.100501 -9.0355 -8.104 -4.046 -3.9575 -9.3765 -10.018 -8.8005 -4.844 -5.4115 -4.2305 
-11.4948 -11.7972 -13.0107 -8.903501 -6.718 -8.4615 -12.937 -14.4677 -9.954 -8.182501 -5.4115 
-17.1915 -15.7724 -13.8102 -11.7807 -11.645 -14.7432 -19.1222 -15.763 -13.4027 -8.182501 
-21.1667 -16.5719 -16.6874 -16.7077 -18.0909 -19.2584 -20.2757 -19.2117 -13.4027 
-5.593 -2.4945 -4.4065 -2.5195 -3.699 -3.47 -1.756 -1.4985 -3.893 -2.186 -2.645 -4.2815 -1.7695 -7.8755 -3.277 -3.393 
-7.497001 -5.7815 -4.9945 -7.1785 -6.9005 -4.7915 -3.0405 -4.3925 -5.706 -4.528 -7.398001 -4.4915 -7.8105 -8.195 -4.243 
-9.402 -6.158 -10.4265 -10.019 -7.965 -6.116 -5.747 -6.5225 -7.852 -9.259001 -7.554501 -10.186 -10.0415 -8.438001 
-9.449 -12.1626 -13.267 -11.0835 -9.634001 -8.801001 -7.2705 -8.505501 -13.6034 -9.328001 -13.0508 -11.6865 -11.114 
-16.8188 -15.0031 -14.3315 -12.7525 -12.3996 -10.7991 -9.808001 -14.5035 -13.6724 -14.9623 -15.2061 -12.5093 
