-4.759 
n/a 
n/a 
n/a 
n/a 
-4.759 
n/a 
n/a 
n/a 
n/a 
-4.759 
n/a 
n/a 
n/a 
n/a 
-4.759 
n/a 
n/a 
n/a 
n/a 
-2.3615 -3.4865 -3.913 -2.186 -3.333 -3.098 -1.934 -3.893 -3.4765 -3.929 0 -3.858 -2.3615 -3.913 -2.4285 -4.521 -1.7695 -2.3615 -3.913 -2.186 -2.6165 -3.333 -2.356 -2.985 -3.8175 -5.239 -4.8245 0 -1.934 -3.5195 -3.131 -4.487 0 -3.4635 -3.893 
-5.546 -5.913 -5.4595 -4.2385 -5.46 -4.746 -6.018 -8.203001 -4.589 -3.929 -3.858 -6.460501 -4.9295 -5.8255 -5.464 -5.107 -3.736 -4.9295 -5.4595 -3.5105 -4.5195 -5.3435 -4.4615 -6.410501 -7.3805 -10.9505 -4.8245 -1.934 -5.009 -4.858 -7.0995 -4.487 -3.4635 -8.526001 
-7.754001 -7.8405 -6.8805 -6.029 -6.3685 -9.4215 -10.0285 -9.0965 -4.589 -7.664001 -6.460501 -9.509501 -7.337 -9.742001 -7.146501 -7.425001 -7.041501 -5.895 -6.581 -5.146 -6.576 -8.1835 -7.8725 -9.036501 -13.553 -10.9505 -7.904 -5.009 -6.297 -10.1225 -7.0995 -9.683001 -8.526001 
-8.8955 -9.6815 -7.801001 -7.008 -10.6875 -13.7598 -10.708 -9.0965 -8.898001 -10.1945 -9.509501 -10.42 -11.8101 -10.7625 -9.788 -10.1635 -8.597501 -6.8625 -7.2605 -7.2235 -9.8505 -11.7949 -10.543 -15.2922 -13.553 -14.03 -10.4945 -6.297 -11.6329 -10.1225 -13.6819 -15.1109 
-10.7359 -11.2002 -8.5705 -11.5606 -15.0258 -14.4393 -10.708 -13.6271 -11.6981 -13.2435 -10.42 -14.8931 -12.8306 -13.404 -12.6407 -12.0605 -10.0065 -7.4295 -8.596001 -10.586 -13.4619 -14.4654 -16.7987 -15.2922 -16.6325 -16.6205 -12.0947 -11.6329 -11.6329 -15.9009 -19.1098 
-2.3615 -2.186 -1.8085 -3.4865 -4.1155 -2.5195 -3.893 -2.3615 -4.1155 -2.186 -2.6165 -3.333 -1.934 -4.8245 -3.7925 0 -4.487 -3.9535 -2.3615 -4.1155 -3.4635 -3.893 -1.934 -3.131 
-3.5005 -3.164 -4.572001 -7.5255 -6.7045 -6.1305 -7.121 -5.8805 -5.6685 -3.5105 -4.5195 -4.374 -7.4885 -9.509001 -3.7925 -4.487 -8.955 -5.943501 -5.8805 -7.836 -8.526001 -6.7995 -4.8435 
-4.179 -5.7465 -8.0165 -10.3675 -10.7087 -8.9495 -11.5138 -6.7235 -7.015 -5.146 -5.6505 -9.8505 -12.1396 -9.509001 -8.279 -8.955 -11.1802 -10.0925 -9.702 -13.5037 -11.6669 -9.2685 
-6.5495 -9.150001 -10.621 -14.3717 -13.5277 -13.5715 -12.3568 -7.959 -8.092 -6.1185 -11.7046 -14.5016 -12.1396 -14.2969 -13.4042 -11.1802 -15.3292 -13.914 -15.4763 -16.6446 -14.1359 
-10.1625 -12.0699 -14.6252 -17.1907 -18.1497 -14.4145 -13.5923 -8.678 -9.054 -12.4988 -16.3557 -14.5016 -16.9275 -19.4221 -15.6294 -15.3292 -19.1507 -19.6883 -18.6172 -19.1136 
-2.4265 -3.893 0 -2.3615 -2.186 -1.4985 -3.4155 -5.495 -4.263 -3.1335 -1.756 -10.5565 -8.859 -4.8245 -2.674 -1.4985 -3.1335 -2.0935 -4.487 -3.67 -2.7405 
-6.742001 -3.893 -2.3615 -3.5005 -3.339 -4.4155 -8.380001 -9.997001 -8.2325 -4.562 -13.3211 -19.4155 -13.9867 -8.572001 -3.998 -4.5045 -4.924 -6.875 -7.6455 -4.8115 
-6.742001 -7.121 -3.5005 -4.3105 -6.328 -8.9965 -12.809 -14.536 -9.7605 -17.2321 -22.1801 -24.5432 -17.7342 -10.341 -7.487 -6.4355 -9.514501 -10.3761 -11.0212 
-10.3675 -8.231 -4.3105 -7.304501 -12.3195 -14.8717 -17.3997 -16.064 -22.4864 -26.0911 -27.3078 -28.2907 -19.5032 -13.83 -9.3405 -11.7254 -13.219 -13.7518 
-11.6965 -9.1035 -7.304501 -12.8836 -17.2283 -18.7712 -18.9277 -28.7899 -31.3454 -31.2188 -31.0553 -30.0597 -22.9922 -15.6835 -14.7826 -15.4299 -16.5947 
-2.4265 -2.186 -3.4865 -3.1335 -3.7855 -2.3345 -3.893 0 -3.4765 -2.4265 -2.186 -2.6165 -3.672 -2.3345 -5.239 0 -3.7685 -6.2875 -4.487 -3.6515 -1.7695 -3.6845 -2.3615 -4.1155 -8.206 
-3.292 -6.2065 -6.401501 -7.3035 -5.0075 -5.253 -3.893 -3.4765 -6.64 -3.292 -3.5105 -5.541 -4.219 -7.486501 -5.239 -3.7685 -10.2025 -11.797 -8.542 -3.9135 -4.2695 -5.733 -5.8805 -13.4017 
-7.547 -9.767 -10.504 -8.1215 -9.443001 -5.253 -8.203001 -6.64 -7.390501 -4.443 -6.2845 -6.64 -9.762 -7.486501 -8.936501 -10.597 -14.348 -14.5915 -8.922501 -5.954 -6.217 -9.647501 -15.9757 
-11.3475 -13.9553 -11.322 -12.776 -9.443001 -9.826 -11.6409 -7.390501 -8.271501 -7.8235 -7.212501 -12.8192 -9.762 -11.7192 -16.8054 -14.348 -18.641 -14.972 -11.9434 -7.532001 -10.0745 -19.9747 
-15.5358 -14.7733 -15.9765 -12.776 -14.3034 -13.7687 -12.3914 -8.271501 -11.8076 -8.68 -13.7227 -12.8192 -14.0731 -19.5881 -20.5564 -18.641 -19.0215 -17.9929 -13.5214 -11.8957 -20.4647 
