-4.759 
n/a 
n/a 
n/a 
n/a 
-4.759 
n/a 
n/a 
n/a 
n/a 
-4.759 
n/a 
n/a 
n/a 
n/a 
-4.759 
n/a 
n/a 
n/a 
n/a 
-3.7925 -3.0365 -2.186 -2.847 -4.1755 -3.458 -1.4985 -4.055 -1.756 -1.4985 -4.0455 
-5.8655 -3.66 -4.1045 -5.7085 -4.717 -4.063 -5.2035 -5.365 -3.0405 -5.133 
-6.3385 -4.256001 -6.4325 -6.382 -5.304501 -7.937 -6.49 -6.784 -6.8665 
-6.934 -6.445001 -6.749 -6.893 -9.458501 -8.275001 -7.429 -10.426 
-9.377501 -6.7555 -7.324 -11.2438 -10.1775 -8.5675 -11.2408 
-4.094 -3.0365 -2.186 -2.847 -3.8175 -4.1755 -3.458 -4.442 0 -8.7965 
-7.097001 -3.66 -4.1045 -6.106501 -6.458 -4.717 -7.394 -4.442 -8.7965 
-7.7545 -4.256001 -7.535501 -8.145 -6.8705 -9.3325 -7.394 -14.1399 
-8.462001 -7.573 -8.683001 -8.6885 -11.7294 -9.3325 -17.4369 
-11.9982 -8.691 -9.0465 -13.6294 -11.7294 -19.5788 
-4.013 -2.4265 -2.186 -2.847 -3.6065 -3.458 -4.0455 -1.756 -4.055 0 
-5.1265 -3.292 -4.1045 -5.76 -6.436 -7.5385 -5.650001 -5.6615 -4.055 
-5.6595 -5.592 -6.104 -8.3335 -10.5425 -7.963 -7.696 -5.6615 
-8.0375 -7.32 -8.925 -12.557 -10.967 -10.733 -7.696 
-10.702 -10.4585 -13.1695 -12.9815 -13.737 -10.733 
-3.929 0 -3.0365 -2.186 -2.847 -4.5725 -6.0275 -4.8015 -3.458 -4.0455 -1.756 -4.055 0 
-3.929 -3.0365 -3.66 -4.1045 -6.9095 -11.8116 -11.117 -6.3295 -7.5385 -5.650001 -5.6615 -4.055 
-5.627 -3.66 -4.256001 -7.5755 -14.7842 -16.9011 -12.645 -10.8466 -7.963 -7.696 -5.6615 
-6.2205 -4.256001 -7.5885 -15.956 -19.8737 -18.4291 -17.1621 -11.2711 -10.733 -7.696 
-6.805 -7.5885 -15.9724 -21.0455 -21.4017 -22.9462 -17.5866 -14.0411 -10.733 
