-4.759 
n/a 
n/a 
n/a 
n/a 
-4.759 
n/a 
n/a 
n/a 
n/a 
-4.759 
n/a 
n/a 
n/a 
n/a 
-4.759 
n/a 
n/a 
n/a 
n/a 
-4.893 0 -4.692 -5.1845 -4.571 -3.17 -1.7565 -5.3255 -3.818 -3.213 -2.0935 -3.737 -2.4265 0 
-4.893 -4.692 -10.523 -10.396 -8.543 -4.179 -6.804501 -10.0285 -5.229 -4.5705 -5.07 -4.8895 -2.4265 
-7.6235 -10.523 -15.7345 -14.368 -9.3765 -10.5512 -11.9055 -11.5943 -6.8915 -7.1575 -6.525 -4.8895 
-14.0741 -15.7345 -19.7065 -15.2015 -16.0259 -15.6522 -13.4713 -13.2568 -9.653 -9.679501 -6.525 
-19.2856 -19.7065 -20.54 -21.8509 -21.1269 -17.218 -15.1338 -16.0183 -10.6625 -9.679501 
-1.934 -9.585001 -5.1845 -3.7865 -4.09 -2.356 -1.4985 -4.267 -4.2685 -1.7565 -3.948 -4.936 0 
-8.871 -13.4545 -9.4215 -7.998501 -5.875 -3.1615 -5.119 -6.7485 -5.454 -5.05 -7.948501 -4.936 
-16.7546 -18.3111 -14.0535 -10.5325 -6.4675 -6.857 -7.3875 -7.3545 -7.942501 -9.024 -7.948501 
-20.9916 -22.9431 -16.5875 -11.125 -9.729501 -8.5165 -7.4675 -9.675501 -12.3067 -9.024 
-25.6236 -25.4771 -17.18 -14.387 -10.099 -8.5815 -9.8395 -14.0397 -12.3067 
-1.934 -1.4985 -4.644 -1.7565 -9.585001 -4.571 -1.7565 -5.1845 -2.7415 -3.8755 -2.5045 -1.8085 -6.225 -1.7565 -3.3715 -4.936 0 
-2.6125 -6.0535 -5.2855 -9.449 -12.492 -5.427 -6.580501 -8.745501 -5.065001 -5.988501 -3.3625 -6.670501 -6.575 -4.845 -6.9325 -4.936 
-7.3135 -6.790501 -15.1061 -16.0516 -13.3771 -10.4675 -10.199 -11.2122 -6.633 -6.3615 -7.125501 -6.796501 -9.165001 -8.3085 -6.9325 
-8.2075 -16.6677 -20.5942 -16.3171 -18.4576 -14.694 -12.6657 -12.7802 -6.876 -8.877501 -7.3735 -9.390501 -12.8549 -8.3085 
-18.1551 -22.1558 -20.8597 -21.3976 -22.6841 -17.1607 -14.2337 -13.0232 -10.096 -8.974501 -10.054 -13.1972 -12.8549 
-14.706 0 -3.8405 -2.356 -1.4985 -2.5685 -5.1845 -5.87 -3.213 -3.894 -1.756 -3.43 -3.594 -3.618 
-14.8972 -3.8405 -6.127501 -3.1615 -4.907001 -8.3965 -10.907 -8.691501 -5.22 -5.115 -5.055 -7.485001 -6.617001 
-19.0627 -6.127501 -6.863 -6.6175 -10.66 -14.2444 -13.7285 -11.4531 -6.506001 -7.441 -9.068501 -10.9866 
-21.4505 -6.863 -10.543 -13.1183 -16.5079 -17.0659 -16.4901 -12.7391 -9.823501 -11.8349 -12.7875 
-22.186 -10.543 -17.0438 -18.9662 -19.3294 -19.8275 -17.7761 -16.0566 -14.4482 -15.5539 
