-4.759 
n/a 
n/a 
n/a 
n/a 
-4.759 
n/a 
n/a 
n/a 
n/a 
-4.759 
n/a 
n/a 
n/a 
n/a 
-4.759 
n/a 
n/a 
n/a 
n/a 
-4.5125 -3.748 -3.1385 -2.4945 -5.3895 0 
-6.536 -5.326 -4.588 -7.054501 -5.3895 
-8.038 -6.6715 -8.127501 -7.054501 
-9.593 -8.701 -8.127501 
-11.185 -8.701 
-4.5125 -3.748 -4.9225 -2.4945 -1.7695 -3.3165 -2.8965 -4.088 
-6.536 -8.6395 -6.9525 -4.6835 -4.0585 -7.2865 -5.4645 
-11.395 -10.238 -8.868 -7.146 -7.885 -8.4715 
-13.6823 -12.1535 -11.4907 -11.5249 -8.868501 
-15.5978 -14.7762 -15.8696 -12.5084 
-4.5125 -3.748 -3.1385 -2.4945 -5.3905 0 
-6.536 -5.326 -4.588 -7.002 -5.3905 
-8.038 -6.6715 -9.8985 -7.002 
-9.593 -12.759 -9.8985 
-15.8177 -12.759 
-4.5125 -3.748 -3.1385 -3.251 -5.3905 -2.985 -3.918 0 
-6.536 -5.326 -5.812 -7.146501 -7.204 -6.4835 -3.918 
-8.038 -7.535501 -9.9275 -8.748501 -9.581 -6.4835 
-10.508 -12.2018 -10.638 -11.1379 -9.581 
-15.1069 -12.9123 -13.0274 -11.1379 
