-4.759 
n/a 
n/a 
n/a 
n/a 
-4.759 
n/a 
n/a 
n/a 
n/a 
-4.759 
n/a 
n/a 
n/a 
n/a 
-4.759 
n/a 
n/a 
n/a 
n/a 
-3.345 -4.35 -3.402 -2.264 -2.985 -4.142 -2.742 -3.335 -3.948 -3.931 -4.641 -2.264 -5.473 -3.6615 
-6.454 -7.457001 -3.793 -4.3835 -6.952001 -7.2035 -5.183001 -7.362 -8.468 -7.974 -4.7885 -7.698501 -6.1595 
-9.359501 -7.7865 -5.5775 -8.544001 -9.4645 -9.910501 -8.829 -12.181 -12.9702 -8.051001 -9.1495 -8.905001 
-9.4125 -9.6085 -8.880001 -11.2919 -12.2077 -13.8427 -13.7286 -16.6832 -13.0472 -12.7702 -10.9364 
-11.4879 -13.2736 -11.7517 -14.0351 -16.1399 -18.7423 -18.2308 -16.7602 -17.7664 -14.5571 
-1.934 -1.8085 -4.451 -4.5895 -1.4985 -4.176 -4.5925 -3.264 -2.3335 0 -4.061 -1.934 -6.2615 -3.1425 -4.985 -3.599 -4.6 -2.229 -4.4855 -3.8685 -1.756 -4.1825 -2.4265 -1.7695 -4.37 -1.934 -1.4985 -4.2645 -2.229 -4.275 -4.814 -1.756 -3.709 -4.3805 -3.772 0 0 
-3.2685 -5.9925 -7.1075 -6.1155 -5.1055 -8.186001 -7.461 -4.533 -2.3335 -4.061 -5.548 -8.213 -9.6815 -6.8785 -8.864 -6.829 -6.4725 -6.2985 -6.4515 -5.283 -5.715 -5.863 -4.11 -4.6705 -4.568501 -2.6125 -5.584001 -6.4655 -6.147 -7.3225 -6.2945 -5.1385 -5.983 -7.12 -3.772 0 
-7.2635 -7.315 -8.3275 -10.749 -8.6695 -9.8505 -8.824 -4.533 -6.916 -5.548 -9.701501 -12.3452 -13.5333 -10.66 -12.5958 -8.377501 -11.1018 -7.374 -7.508 -8.6885 -7.2955 -6.320001 -7.999001 -4.878 -5.054 -7.123001 -6.8155 -10.064 -9.551001 -8.3685 -8.610001 -7.0565 -8.242001 -7.12 -3.772 
-7.661 -8.442 -13.2908 -14.313 -9.8585 -11.5089 -8.824 -9.042001 -7.6165 -9.701501 -14.4277 -16.197 -17.3148 -14.3918 -14.1443 -13.3274 -12.1773 -8.351501 -10.411 -9.835501 -7.694 -9.0375 -8.151 -5.32 -8.751 -8.106501 -10.7494 -13.5736 -10.662 -8.989 -9.0455 -9.0765 -8.242001 -7.12 
-8.8205 -13.4611 -16.8548 -15.502 -11.5287 -11.5089 -13.497 -9.666 -12.0074 -14.4277 -18.2795 -19.9785 -21.0466 -15.9403 -19.0942 -14.4029 -13.1548 -11.3923 -11.558 -9.943001 -9.804501 -9.1505 -8.5725 -8.993 -9.255501 -12.351 -14.259 -14.6846 -11.2825 -9.472 -11.1645 -9.0765 -8.242001 
-1.934 -3.345 -4.3565 -2.8645 -1.4985 -4.4445 -4.287 -1.4985 -4.142 -1.756 -4.237 -4.1755 0 
-4.618 -6.080501 -6.9785 -4.3545 -5.4015 -8.4925 -5.0195 -5.4315 -5.7175 -5.738 -8.988501 -4.1755 
-6.867 -8.003 -8.0325 -8.922501 -9.896501 -9.564501 -8.1975 -6.6965 -9.318501 -10.674 -8.988501 
-9.8605 -8.744 -13.1287 -13.2681 -10.9685 -12.7425 -9.149 -9.972 -14.6971 -10.674 
-10.6205 -14.5226 -17.4743 -14.3401 -14.1465 -13.694 -12.8165 -16.0904 -14.6971 
-3.6055 -4.8515 -2.8645 -3.1435 -3.5205 -3.931 -4.4345 -4.4985 -2.264 -3.1435 -4.142 -1.756 -4.2485 0 
-9.887501 -7.8475 -5.22 -4.573 -7.7145 -7.259501 -8.586 -4.548 -4.6705 -6.6355 -5.7175 -5.8005 -4.2485 
-12.9313 -9.3985 -5.552 -8.833 -11.46 -11.9122 -8.652 -6.7275 -8.880501 -7.611 -8.507501 -5.8005 
-14.4823 -9.4455 -10.275 -12.6809 -16.1127 -11.9782 -10.9333 -9.732501 -9.541 -10.6366 -8.507501 
-14.5293 -14.5937 -14.1229 -17.3336 -16.1787 -14.2595 -13.9383 -10.429 -12.6758 -10.6366 
