-4.759 
n/a 
n/a 
n/a 
n/a 
-4.759 
n/a 
n/a 
n/a 
n/a 
-4.759 
n/a 
n/a 
n/a 
n/a 
-4.759 
n/a 
n/a 
n/a 
n/a 
-4.4675 0 -12.16972 -6.6435 -3.9795 -6.22 -8.27 
-4.4675 -12.16972 -18.81322 -10.3615 -11.2737 -15.3798 
-17.66622 -18.81322 -22.53122 -17.6557 -20.4335 
-24.30972 -22.53122 -29.82542 -26.8155 
-28.02772 -29.82542 -38.98522 
-3.717 0 -3.254 -1.7565 -9.758 -3.8255 -6.296 -6.318 
-3.717 -3.254 -4.0065 -11.0145 -14.0647 -10.0315 -13.5972 
-6.092 -4.0065 -14.0823 -15.3212 -20.2707 -17.6653 
-7.906 -14.0823 -18.389 -21.5272 -27.9045 
-18.5502 -18.389 -24.595 -29.161 
-3.717 0 -6.296 -6.6435 -3.9795 -4.389 -9.758 
-3.717 -6.296 -13.9227 -10.3615 -4.877 -15.2958 
-10.3225 -13.9227 -17.6407 -11.259 -16.2888 
-17.9492 -17.6407 -18.5382 -22.6708 
-21.6672 -18.5382 -29.95 
-4.0995 0 -8.27 -3.0695 -4.6475 -2.3345 -6.296 -8.354501 
-4.0995 -8.27 -9.8105 -7.873 -6.016 -8.1505 -9.801001 
-13.1703 -9.8105 -14.8076 -9.6183 -12.6232 -11.9031 
-14.7108 -14.8076 -16.5529 -16.2255 -16.3758 
-19.7079 -16.5529 -23.1601 -19.9781 
