-4.759 
n/a 
n/a 
n/a 
n/a 
-4.759 
n/a 
n/a 
n/a 
n/a 
-4.759 
n/a 
n/a 
n/a 
n/a 
-4.759 
n/a 
n/a 
n/a 
n/a 
-2.4265 -2.7415 -5.5395 -2.3335 -1.4985 -5.414 -1.7565 -2.461 -3.5785 -2.0935 -5.3255 -1.4985 -3.098 -3.4625 -1.7565 -10.076 -1.7695 -9.283501 -1.7695 -3.693 -3.4625 -1.4985 -3.098 -1.7695 -10.076 0 
-3.681 -6.922 -8.1115 -3.3515 -7.0555 -6.539 -4.6115 -4.606 -5.778 -6.8725 -6.301001 -4.3095 -5.7585 -4.9855 -12.7817 -11.8793 -12.0352 -11.136 -6.295001 -7.527 -4.474 -4.3095 -5.051 -12.8277 -10.076 
-8.248 -9.717 -9.5185 -8.651001 -7.2575 -8.4945 -6.87 -6.934 -10.1105 -7.497001 -9.595501 -6.726 -7.473 -17.0093 -14.585 -22.145 -13.8877 -15.6615 -9.061501 -8.070001 -6.237 -6.369 -16.4652 -12.8277 
-10.9818 -11.2564 -14.8928 -8.985001 -10.4585 -9.623 -8.610001 -11.6173 -10.8868 -10.9891 -9.9905 -8.176001 -19.954 -18.8126 -24.8507 -23.9975 -18.4132 -18.428 -9.474001 -9.718 -7.361 -17.9052 -16.4652 
-12.5212 -16.6307 -15.2268 -12.2744 -11.9152 -11.7618 -13.4967 -12.3936 -14.3789 -11.3841 -11.4405 -20.9686 -21.7573 -29.0783 -26.7032 -28.523 -21.1797 -18.8405 -11.1814 -10.676 -18.9488 -17.9052 
-1.4985 -3.098 -1.7565 -4.372 -1.7565 -10.076 -12.16972 0 -6.009 -7.545001 -2.3345 -10.076 -2.229 -3.1385 
-4.3095 -4.3615 -6.6495 -6.0365 -12.7817 -22.27952 -12.16972 -6.009 -14.563 -11.0145 -12.7411 -12.3388 -5.7405 
-4.5915 -8.8225 -8.787001 -17.8377 -24.98522 -22.27952 -18.17872 -14.563 -18.0325 -21.4211 -15.0039 -15.8503 
-10.0215 -11.4948 -20.6818 -30.04122 -24.98522 -28.28852 -26.73272 -18.0325 -28.4391 -23.6839 -18.5154 
-12.6938 -23.3896 -32.88532 -30.04122 -30.99422 -36.84252 -30.20222 -28.4391 -30.7019 -27.1954 
-1.7695 -5.7955 -1.4985 -4.9045 -1.756 -2.461 -3.5785 -5.033 -3.7855 -2.0935 -1.4985 -3.1385 -3.0695 -3.918 -1.4985 -4.319 -1.7695 -5.302 -1.4985 -3.4625 -1.7565 -3.098 -1.7565 -10.076 -1.7695 -10.6015 -1.756 -1.7695 -3.4625 -1.4985 -3.098 -1.4985 -3.251 -1.7695 -10.076 0 
-6.2755 -6.502 -5.917001 -6.0475 -4.711 -4.606 -9.6745 -8.147 -5.6715 -2.9725 -4.2575 -4.286 -6.2075 -5.135 -5.231501 -5.752 -5.898 -5.971 -4.940001 -4.9855 -5.764501 -4.3615 -12.7817 -11.8793 -13.3532 -12.3575 -3.963 -4.3 -4.474 -4.3095 -5.133 -4.617001 -3.664 -12.8277 -10.076 
-6.877 -9.174001 -6.888 -9.2165 -7.053 -11.164 -13.0821 -9.496501 -6.3275 -5.5795 -5.1225 -7.841001 -6.642001 -7.8145 -6.415501 -9.199501 -6.478 -8.535 -5.959001 -6.5745 -6.755001 -16.0351 -14.585 -23.463 -15.1092 -14.5645 -6.713 -4.9495 -6.237 -6.505 -9.0425 -6.356 -15.2234 -12.8277 
-9.6995 -9.813001 -10.4035 -11.7181 -13.5994 -14.5716 -14.4316 -10.623 -9.544001 -6.4165 -8.547501 -8.370001 -9.1715 -8.594 -9.574501 -9.7615 -9.0365 -9.814 -7.509 -7.656 -18.8498 -17.8384 -26.1687 -25.219 -17.3162 -17.3145 -7.248 -6.6415 -8.540001 -10.264 -10.9429 -18.4654 -15.2234 
-10.187 -13.5323 -12.9051 -18.2645 -17.007 -15.9211 -15.5581 -13.8395 -10.4955 -10.155 -9.13 -11.0057 -10.168 -12.1222 -10.023 -12.32 -10.151 -11.4618 -8.431001 -20.4022 -20.6531 -29.4221 -27.9247 -27.426 -20.0662 -17.8495 -8.6475 -8.891001 -12.4224 -12.1644 -23.0523 -18.4654 
-1.934 -4.1635 -1.7565 -5.7545 -1.7565 -10.6015 -2.5045 -10.4705 0 -3.1435 -3.8235 -3.098 0 -3.433 -1.4985 -3.098 -10.6015 -7.1985 -3.5455 -4.1865 -5.5195 -2.9805 -2.7415 -4.644 -5.249 -1.7695 -3.54 -3.5785 -5.414 -1.934 -2.3615 -4.931 0 
-5.632 -6.048 -7.296 -6.903501 -13.3072 -13.106 -13.8924 -10.4705 -3.1435 -5.5565 -6.497 -3.098 -3.433 -4.3795 -4.3095 -14.0929 -17.8 -11.117 -6.670501 -9.175 -8.186501 -4.004 -6.2025 -8.477 -5.5155 -5.1675 -5.0555 -6.9585 -6.6425 -3.539 -7.161 -4.931 
-7.874001 -10.688 -9.2545 -18.9904 -15.8117 -24.4939 -13.8924 -13.718 -5.5565 -7.429501 -6.497 -6.502 -4.3795 -7.3055 -15.8646 -21.2914 -21.7185 -14.242 -10.2645 -11.9778 -9.354501 -7.2475 -8.712501 -8.544001 -7.052 -6.507 -8.134001 -8.308001 -8.695 -8.379001 -7.161 
-12.6262 -12.6465 -21.5104 -21.4949 -27.1996 -24.4939 -17.1399 -16.131 -7.429501 -7.429501 -9.4645 -7.558 -7.3055 -18.8804 -23.0631 -25.2099 -24.8435 -17.836 -13.0673 -13.1458 -12.6758 -9.1815 -8.745501 -10.0225 -8.000501 -8.486501 -9.463 -10.328 -13.8908 -8.379001 
-14.5847 -24.9024 -24.0149 -32.8828 -27.1996 -27.7414 -19.5529 -18.004 -7.429501 -10.1145 -10.3975 -9 -18.8804 -26.0789 -26.9816 -28.3349 -28.4375 -20.6388 -14.2353 -16.4671 -14.6098 -9.216001 -10.164 -10.7182 -8.807 -9.759501 -11.5328 -15.5238 -13.8908 
