-4.759 
n/a 
n/a 
n/a 
n/a 
-4.759 
n/a 
n/a 
n/a 
n/a 
-4.759 
n/a 
n/a 
n/a 
n/a 
-4.759 
n/a 
n/a 
n/a 
n/a 
-1.4985 -4.1455 -1.7565 -1.4985 -3.995 -5.4015 -2.5195 -3.5015 -1.7695 -3.5015 0 
-4.870501 -5.11 -2.4195 -4.712 -9.573501 -5.6195 -6.413 -4.5585 -5.0115 -3.5015 
-5.3985 -5.3235 -5.2205 -9.966501 -9.826 -8.717 -6.473 -6.4445 -5.0115 
-5.6005 -6.671 -10.4265 -10.172 -12.8911 -8.729 -6.478 -6.4445 
-6.712501 -12.3418 -10.773 -13.2977 -12.9031 -8.7305 -6.478 
-1.4985 -4.1455 -1.7565 -3.995 -3.6615 -2.5195 -3.5015 -1.7695 -3.5015 0 
-4.870501 -5.11 -5.423 -7.127 -5.618 -6.413 -4.5585 -5.0115 -3.5015 
-5.3985 -7.788001 -8.5305 -9.499001 -9.013 -6.473 -6.4445 -5.0115 
-7.8915 -9.963501 -10.7575 -13.0046 -9.019 -6.478 -6.4445 
-9.974501 -12.5119 -14.2631 -13.0106 -9.023001 -6.478 
-1.4985 -3.598 -3.873 -2.186 -3.383 -2.5195 -3.5015 -1.7695 -3.5015 -2.264 -3.995 
-5.213 -7.5935 -5.709 -4.438 -7.851501 -6.413 -4.5585 -5.0115 -5.1645 -4.972 
-10.5745 -10.7025 -7.9705 -9.362501 -10.218 -6.473 -6.4445 -6.7445 -6.4575 
-13.6835 -12.964 -13.2294 -11.8456 -10.226 -6.478 -8.242001 -9.867001 
-15.945 -18.2229 -15.7125 -11.8536 -10.291 -8.253 -10.034 
-1.4985 -3.873 -4.1455 -1.934 -3.995 -5.069 -2.5195 -3.5015 -1.7695 -3.5015 0 
-4.7405 -6.34 -6.054 -6.139 -8.652 -5.955 -6.413 -4.5585 -5.0115 -3.5015 
-6.9445 -8.067 -10.264 -11.6832 -9.540501 -7.88 -6.473 -6.4445 -5.0115 
-8.3205 -12.451 -15.8082 -12.5717 -10.049 -7.881001 -6.478 -6.4445 
-12.7851 -17.9952 -16.6967 -13.0802 -10.0545 -7.8825 -6.478 
