-4.759 
n/a 
n/a 
n/a 
n/a 
-4.759 
n/a 
n/a 
n/a 
n/a 
-4.759 
n/a 
n/a 
n/a 
n/a 
-4.759 
n/a 
n/a 
n/a 
n/a 
-4.251 -3.0835 -2.264 -3.432 -3.8925 -3.16 -2.9775 -1.7695 -3.319 -1.4985 -3.6395 -1.756 -1.4985 -3.991 
-7.927001 -5.758 -5.949 -7.667 -6.3865 -4.6715 -4.6995 -5.554 -5.0895 -5.0345 -5.4715 -3.0405 -5.0305 
-10.1225 -8.626501 -10.4425 -10.76 -7.9325 -6.271 -7.733001 -6.58 -6.6895 -6.548 -6.705 -6.701 
-13.0352 -13.339 -13.5355 -12.306 -10.4732 -10.513 -7.758 -8.613501 -9.040501 -7.5845 -10.028 
-17.7477 -16.432 -15.0815 -14.8467 -14.7152 -10.538 -12.2487 -10.103 -10.1555 -10.081 
-4.7935 0 -3.0835 -1.934 -1.4985 -3.8925 -2.7295 -3.319 -1.4985 -3.6395 -1.7565 -1.4985 -3.16 -2.9775 -2.4285 -3.956 -2.3335 -2.9775 -2.3615 -2.186 -1.4985 -4.129 -1.7565 -1.4985 -3.16 -2.9775 
-4.7935 -3.0835 -5.265 -2.6125 -5.0365 -6.596 -7.3675 -5.0895 -5.0345 -5.651 -2.4195 -4.0625 -4.6715 -5.093 -6.131001 -6.706 -5.673 -5.274 -3.5005 -3.339 -5.424 -6.9015 -2.4195 -4.0625 -4.6715 
-8.966501 -5.265 -5.862 -5.9845 -7.902 -12.2774 -8.502501 -6.6895 -5.8595 -5.9745 -5.068501 -5.8255 -6.3715 -8.6435 -9.273001 -10.634 -7.994 -6.1485 -4.3105 -6.7085 -7.337501 -7.3865 -5.068501 -5.8255 
-11.3194 -5.862 -9.927501 -8.630001 -13.802 -13.4124 -10.223 -7.969501 -6.105 -7.533 -6.575 -7.679501 -10.1635 -12.5239 -13.4214 -12.955 -8.674001 -6.951 -7.6315 -8.927501 -7.6925 -10.7575 -6.575 
-11.9164 -9.927501 -12.7264 -14.693 -14.937 -15.1329 -11.7346 -8.146001 -7.6625 -7.8715 -8.489 -11.6831 -14.5325 -16.6723 -15.7424 -13.635 -9.648001 -9.643001 -9.6035 -9.422 -11.1275 -12.264 
-1.4985 -3.4605 -2.674 -4.015 -3.6395 -3.098 -2.4285 -4.2415 -3.9605 -3.423 0 
-4.652 -6.335 -6.739 -7.654 -5.988 -4.9655 -6.749001 -6.225501 -4.7995 -3.423 
-7.6525 -11.3894 -11.2368 -10.4139 -8.901 -9.641001 -7.874501 -6.718 -4.7995 
-12.7269 -15.8872 -13.9967 -13.3269 -14.2569 -9.807 -8.087001 -6.718 
-17.2247 -18.6471 -16.9097 -18.6828 -14.4229 -9.958501 -8.087001 
-4.251 0 -3.0835 -1.4985 -3.6395 -2.186 -1.934 -1.4985 -3.16 -3.8925 -1.756 -4.0395 -2.9775 -1.7695 -3.319 -1.4985 -3.355 -2.4285 -1.7695 -3.047 -1.4985 -3.584 -2.9775 -1.7565 -5.1465 -3.3425 -1.4985 -3.16 -3.4095 -9.165 
-4.251 -3.0835 -5.229 -5.0345 -5.941 -4.0835 -2.6125 -4.0625 -4.8765 -5.235 -7.084 -8.2995 -4.6995 -5.554 -5.0895 -4.951 -5.6885 -4.3895 -3.768 -4.095 -4.755 -5.806 -4.9315 -7.679501 -7.61 -4.0125 -4.0625 -5.327 -13.5261 
-7.927001 -5.229 -8.599501 -6.4875 -7.982 -4.6915 -5.7115 -6.238 -5.875 -12.2824 -10.7175 -10.5769 -7.733001 -6.58 -8.7215 -7.3205 -7.732501 -6.795001 -4.6855 -7.611501 -6.940001 -7.683001 -10.702 -10.223 -8.431 -6.281 -7.2685 -16.094 
-9.605 -8.599501 -8.807501 -8.4235 -8.382501 -8.131001 -7.1965 -7.478001 -13.4254 -15.9159 -12.9949 -13.6104 -7.758 -10.292 -10.76 -9.625501 -10.6608 -7.723001 -8.191501 -9.413501 -7.8985 -14.2589 -13.2455 -11.4728 -10.6215 -9.4525 -18.8671 
-12.9755 -8.807501 -11.9233 -8.724001 -10.275 -9.7845 -8.399501 -14.7286 -17.0589 -18.1933 -16.0284 -13.6354 -13.9272 -12.3819 -13.065 -12.6886 -11.5888 -11.427 -10.476 -10.1685 -14.8038 -16.8024 -14.4953 -13.6633 -13.793 -21.2661 
