-4.759 
n/a 
n/a 
n/a 
n/a 
-4.759 
n/a 
n/a 
n/a 
n/a 
-4.759 
n/a 
n/a 
n/a 
n/a 
-4.759 
n/a 
n/a 
n/a 
n/a 
-2.872 -2.7455 -3.8605 -3.748 -3.277 -3.393 0 -3.851 -1.7695 -1.4985 -5.2245 -3.325 -1.4985 -3.995 0 -2.3615 -3.4155 -5.213 -3.9535 -1.7695 -4.5275 0 
-6.151501 -5.9165 -5.822 -5.8405 -4.243 -3.393 -3.851 -4.0015 -2.7955 -6.1955 -8.119 -3.898 -4.712 -3.995 -2.3615 -5.395 -7.936501 -9.356001 -5.098001 -5.8015 -4.5275 
-8.8015 -7.3005 -7.4925 -6.2535 -4.243 -7.185 -4.0015 -4.5775 -7.289501 -8.9305 -8.913501 -7.189 -4.712 -6.533 -5.395 -8.466001 -12.4633 -9.829 -8.686001 -5.8015 
-10.375 -8.354501 -7.846 -6.2535 -7.638 -7.2495 -4.5775 -8.2095 -10.1765 -9.938001 -12.2829 -7.189 -7.001 -9.4805 -8.466001 -13.1686 -12.9363 -13.4854 -8.686001 
-11.429 -8.5755 -7.846 -9.3605 -7.6575 -7.943 -8.2095 -11.4715 -11.707 -13.363 -12.2829 -9.5345 -9.847501 -12.5515 -13.1686 -13.6416 -16.5927 -13.4854 
-1.4985 -4.399 -1.7565 -1.4985 -3.788 -4.066 -2.5195 -7.170001 -5.527 0 -2.9705 -2.186 -2.871 -1.7565 -1.4985 -3.849 -8.0765 -1.934 -1.4985 -3.4425 -1.7565 -1.4985 -7.170001 -3.9075 -1.756 -7.170001 -3.787 -1.934 -4.142 -4.065 -4.1985 0 
-5.3005 -4.831 -2.4195 -4.6805 -7.516 -4.976 -10.0895 -9.5825 -5.527 -2.9705 -3.89 -4.247 -3.5385 -2.4195 -5.724 -10.513 -9.9725 -2.6125 -4.4545 -4.5535 -2.4195 -9.333 -9.543001 -5.436 -9.3605 -9.984001 -5.6985 -5.173 -7.009 -4.864 -4.1985 
-5.514501 -5.598 -5.635 -7.779 -7.6455 -10.4345 -10.4255 -9.5825 -8.722 -3.89 -6.034 -4.411 -3.7675 -6.25 -10.553 -10.569 -10.4635 -4.866 -5.141 -5.259 -9.915501 -9.826501 -10.261 -10.5035 -10.5235 -10.518 -8.317 -7.7955 -7.03 -4.864 
-5.949501 -7.588 -9.149 -7.823 -10.4675 -10.481 -10.4255 -10.4965 -9.2025 -6.034 -6.16 -4.5655 -7.081 -10.553 -10.5705 -10.5865 -10.5315 -5.344 -5.919 -10.5035 -10.1985 -10.4 -10.5335 -10.5385 -10.55 -10.585 -10.3285 -7.809 -7.03 
-7.737501 -9.699 -9.280001 -10.467 -10.482 -10.481 -10.514 -10.521 -10.4045 -6.16 -6.2675 -7.9975 -10.553 -10.5705 -10.588 -10.604 -10.5575 -6.397501 -10.503 -10.5385 -10.4625 -10.539 -10.55 -10.565 -10.598 -10.603 -10.3455 -7.809 
-4.3435 -3.8605 -3.748 -3.277 -3.436 0 -1.4985 -5.213 -3.251 -1.7695 -4.4995 -3.8515 -3.851 -1.7695 -4.101 -4.153 -1.7565 -1.4985 -3.995 0 
-6.314 -5.822 -5.8405 -5.4395 -3.436 -1.4985 -5.7165 -7.9855 -4.3285 -5.743001 -6.699 -7.257 -4.0015 -6.062 -6.9285 -5.717 -2.4195 -4.712 -3.995 
-7.5725 -7.4925 -7.797501 -5.4395 -4.213 -5.7165 -8.2735 -8.973001 -7.7865 -7.6485 -11.9183 -7.2695 -7.229 -8.3905 -7.791501 -6.319001 -5.2205 -4.712 
-9.323 -9.4005 -7.797501 -6.117001 -9.2285 -8.2735 -9.064501 -13.0258 -10.238 -12.6956 -11.9308 -10.4675 -8.8765 -9.654 -8.029 -8.844501 -5.2205 
-11.197 -9.4005 -8.251 -10.6875 -12.1375 -9.064501 -13.2721 -15.4773 -14.8709 -12.7081 -15.1288 -12.115 -10.758 -10.4875 -10.8817 -8.844501 
-2.872 -3.436 -3.8605 -3.748 -3.277 -3.851 -1.7695 -3.995 -5.465 -4.1655 0 -2.3615 -8.2185 -5.213 -4.331 -1.7695 -5.043 0 
-5.635 -8.186 -5.822 -5.8405 -6.528501 -4.0015 -5.497 -7.948501 -9.4505 -4.1655 -2.3615 -11.8682 -14.1313 -8.8195 -4.925 -5.9445 -5.043 
-10.8544 -10.181 -7.4925 -9.427501 -6.573 -8.1755 -10.354 -12.2056 -9.4505 -6.7615 -11.8682 -17.781 -17.7378 -9.2075 -8.5085 -5.9445 
-12.8494 -10.389 -11.2565 -9.440001 -11.1046 -13.7223 -14.6111 -12.2056 -12.1647 -16.674 -17.781 -21.3875 -18.1258 -12.8684 -8.5085 
-13.0574 -15.126 -11.269 -14.0552 -16.6514 -17.9794 -14.6111 -14.9198 -22.0772 -22.5868 -21.3875 -21.7755 -21.7867 -12.8684 
