-4.759 
n/a 
n/a 
n/a 
n/a 
-4.759 
n/a 
n/a 
n/a 
n/a 
-4.759 
n/a 
n/a 
n/a 
n/a 
-4.759 
n/a 
n/a 
n/a 
n/a 
-3.0365 -3.152 -3.3715 -11.128 -2.8645 -3.1125 -4.492 0 
-4.453 -5.921 -15.7895 -13.9925 -3.5345 -5.936501 -4.492 
-5.988501 -18.5398 -18.654 -14.6625 -6.44 -5.936501 
-18.6297 -21.4043 -19.324 -17.568 -6.44 
-21.4942 -22.0743 -22.2295 -17.568 
-3.1435 -4.656 -2.8645 -4.1785 -1.756 -4.3685 -3.974 -1.756 -2.4265 -2.186 -3.793 0 
-7.771 -7.5645 -6.9585 -5.44 -5.6235 -6.1685 -5.694 -3.949 -3.292 -5.3225 -3.793 
-10.0675 -12.2511 -8.2605 -5.8365 -8.162001 -8.2825 -7.469501 -4.7355 -6.444 -5.3225 
-14.7127 -13.5531 -8.405001 -8.767501 -10.4855 -9.8205 -8.101 -8.168 -6.444 
-16.0147 -13.6976 -11.7876 -10.76 -12.0235 -10.578 -11.6931 -8.168 
-3.0365 -2.186 -4.1785 -1.756 -4.3685 -4.3365 -2.4945 -4.3215 -2.7455 -1.4985 -4.656 
-3.66 -5.9575 -5.44 -5.6235 -8.182501 -5.805 -6.37 -7.622001 -3.637 -4.866 
-7.769501 -6.825 -5.8365 -9.346001 -9.529501 -8.7705 -9.323501 -8.336 -6.3045 
-9.225 -8.648001 -9.509501 -10.7585 -12.5868 -11.9556 -10.5545 -11.3393 
-9.548501 -12.5884 -10.9478 -13.8158 -15.7719 -13.1866 -13.5578 
-4.4095 -1.756 -5.3255 -5.0375 -2.4945 -3.0365 -2.7455 -1.4985 -3.4515 -1.7565 -2.3615 0 
-6.2155 -6.921 -8.868001 -6.8075 -4.952001 -6.3805 -3.637 -4.432 -4.611 -3.523 -2.3615 
-8.114 -10.361 -10.564 -9.709001 -8.372001 -7.185 -6.6825 -4.8535 -5.8545 -3.523 
-12.0194 -12.057 -13.4655 -13.02 -9.176001 -10.6465 -7.0415 -5.9445 -5.8545 
-13.7154 -14.9585 -16.7765 -13.824 -12.7833 -11.0055 -8.2545 -5.9445 
