-4.759 
n/a 
n/a 
n/a 
n/a 
-4.759 
n/a 
n/a 
n/a 
n/a 
-4.759 
n/a 
n/a 
n/a 
n/a 
-4.759 
n/a 
n/a 
n/a 
n/a 
-3.436 -1.4985 -5.1075 -1.7565 -3.5855 -1.756 -3.433 -1.4985 -4.6195 -3.2615 -5.741 -1.4985 -3.7075 -2.229 -4.7195 -3.998 -2.3335 -3.0365 -2.186 -3.6065 -4.3 -4.146 -1.934 -2.4265 0 
-4.213 -5.561 -5.5065 -4.6335 -4.5585 -4.5825 -5.3125 -5.9655 -7.8575 -7.6285 -7.934 -4.6235 -5.5255 -7.111001 -9.7095 -5.1075 -4.2925 -3.66 -5.206 -7.1515 -7.0565 -5.428 -4.6645 -2.4265 
-9.361 -5.594 -6.103 -5.386 -5.0205 -6.329 -9.110001 -9.368 -12.6979 -9.9805 -11.242 -5.9985 -7.860001 -12.543 -11.3398 -6.8915 -4.7505 -7.831501 -10.281 -9.876 -8.241 -7.905001 -4.6645 
-9.4835 -6.1115 -7.2585 -5.6845 -6.772 -10.0435 -12.5967 -14.3808 -15.0499 -13.2885 -12.617 -7.892001 -13.8318 -14.1733 -13.1238 -7.8825 -8.8935 -12.6441 -13.2151 -11.0605 -11.3288 -7.905001 
-10.2118 -7.288 -7.9435 -7.421 -10.264 -13.5302 -17.6095 -16.7328 -18.3579 -14.6635 -14.5105 -13.879 -15.4621 -15.9573 -14.1148 -12.1797 -13.8209 -15.5782 -14.3996 -14.1483 -11.3288 
-3.034 -4.873 -5.52 -2.7455 -1.4985 -3.7075 -3.5455 -2.6165 -3.932 -3.5855 -4.09 -3.8405 -2.925 -3.557 -3.7075 -5.6305 -2.8645 -1.8085 -4.3 -4.146 -2.9705 -2.186 -2.6165 -3.557 -1.934 -3.995 
-8.7985 -10.051 -8.112 -3.637 -4.6235 -7.2165 -8.185 -5.076 -7.736 -7.989501 -9.4375 -6.55 -5.51 -7.690001 -9.7185 -8.1595 -3.9785 -5.7115 -7.0565 -6.443501 -3.89 -3.5105 -4.855 -4.4175 -6.139 
-14.0891 -12.6968 -8.872001 -6.891 -7.420501 -12.4514 -11.2135 -8.9175 -12.9356 -13.5878 -12.118 -8.526 -10.5535 -14.4864 -12.4219 -9.366501 -7.938 -7.6365 -9.030001 -7.024001 -5.319 -5.974501 -5.873 -8.458 
-16.7349 -13.4568 -12.272 -10.028 -12.7694 -15.4799 -15.055 -14.2969 -18.5339 -16.2683 -14.094 -14.0935 -17.3499 -17.1898 -13.6289 -13.4102 -10.3374 -9.380501 -9.628501 -8.258 -7.871 -6.7095 -10.3345 
-17.4949 -16.8568 -15.409 -15.3977 -15.7979 -19.3214 -20.4344 -19.8952 -21.2144 -18.2443 -19.6615 -20.8899 -20.0533 -18.3968 -17.6726 -15.8096 -12.0814 -9.831 -11.0783 -10.5125 -8.069 -11.7208 
-3.5855 -3.383 -3.9555 -3.958 -1.934 -1.4985 -10.2555 -2.5045 -1.4985 -12.16972 
-8.087 -5.706 -7.336 -5.497 -2.6125 -12.8478 -13.0738 -3.583 -14.76202 
-10.8232 -9.031501 -9.468 -6.0775 -14.356 -15.6661 -14.1523 -17.01852 
-14.1487 -10.533 -10.2295 -18.4848 -17.1743 -16.7446 -27.58782 
-15.6502 -11.2945 -22.6368 -21.3031 -18.2528 -30.18012 
-9.606001 -1.4985 -3.5855 -2.95 -1.7565 -1.4985 -3.188 -2.5045 -1.4985 -2.95 -1.4985 -3.7075 -3.915 -3.892 -1.756 -4.828 -3.892 -1.4985 -3.326 -4.873 -1.4985 -3.7075 0 -3.995 -3.0365 -2.186 -2.6165 -4.5235 -1.7565 -4.146 -4.0585 -1.7565 -4.1345 0 
-11.6055 -5.1475 -7.66 -4.3785 -2.4195 -3.619 -5.646501 -3.1915 -3.9285 -4.514 -4.6235 -8.198001 -6.948 -5.337 -6.5035 -9.576 -5.4945 -4.841001 -6.127501 -6.772 -4.6235 -3.7075 -3.995 -6.861 -3.66 -3.5105 -8.025001 -6.012501 -6.465001 -9.144001 -7.115001 -6.1775 -4.1345 
-15.2545 -9.558001 -10.0885 -5.0485 -4.4095 -5.965 -6.469 -4.5155 -5.248 -7.185 -8.8785 -11.6426 -8.250501 -10.8595 -11.6553 -11.6921 -8.4685 -8.223001 -8.330501 -10.0745 -4.6235 -6.968 -6.861 -7.379 -5.4545 -8.224501 -10.6605 -9.816501 -11.8968 -12.3627 -12.0666 -6.1775 
-19.665 -11.9969 -10.7585 -8.202001 -6.912 -6.6385 -7.458 -5.5765 -7.9915 -12.3646 -12.4269 -12.9451 -14.0328 -16.0113 -13.7714 -14.6661 -12.0499 -9.940001 -11.831 -10.0745 -7.4175 -10.692 -7.379 -8.856501 -10.733 -11.7628 -14.4645 -15.4395 -15.1155 -17.3143 -12.0666 
-22.1039 -12.6669 -13.912 -10.9947 -7.4455 -7.583001 -8.539001 -9.245501 -13.8285 -15.913 -13.7294 -18.7274 -19.1846 -18.1274 -16.7454 -18.2475 -13.7669 -13.4405 -11.831 -13.1009 -11.5749 -11.21 -8.856501 -14.4556 -14.2713 -15.5668 -20.0875 -18.6582 -20.0671 -17.3143 
