-4.759 
n/a 
n/a 
n/a 
n/a 
-4.759 
n/a 
n/a 
n/a 
n/a 
-4.759 
n/a 
n/a 
n/a 
n/a 
-4.759 
n/a 
n/a 
n/a 
n/a 
-9.028501 -3.6645 -2.5045 -2.6615 -3.723 -12.16972 -12.16972 -2.5045 -12.16972 -3.5865 
-13.0956 -5.7515 -4.4545 -6.787001 -16.83152 -24.33944 -14.67422 -15.36922 -15.75622 
-15.1826 -8.788501 -9.409 -20.31532 -29.00124 -26.84394 -27.53894 -18.95572 
-18.2196 -14.0668 -23.48172 -32.48504 -31.50574 -39.70866 -31.12544 
-23.4979 -28.13952 -35.65144 -34.98954 -44.37046 -43.29516 
-2.5045 -1.4985 -2.95 -7.699501 -1.934 -3.091 -4.6625 -3.723 -4.2225 -1.934 -8.636001 -3.5865 -1.934 -12.16972 -12.16972 
-3.1915 -3.9285 -11.5831 -9.7005 -4.2105 -7.0925 -8.3785 -8.7025 -5.37 -10.907 -11.046 -5.4235 -15.11012 -24.33944 
-4.5155 -13.1394 -13.5841 -10.7595 -8.035001 -10.19 -13.6478 -9.609501 -15.3992 -13.317 -12.883 -19.43902 -27.27984 
-13.9754 -15.1404 -14.6431 -14.584 -11.7013 -15.4593 -14.5548 -19.7111 -17.8092 -15.154 -26.89852 -31.60874 
-15.9764 -16.1994 -18.4676 -18.2503 -16.9706 -16.3663 -24.6564 -22.1211 -19.6462 -29.16952 -39.06824 
-7.699501 -5.5925 -2.5045 -10.3435 -2.229 -11.128 -1.756 -2.5045 -8.636001 -3.5865 -5.7865 -4.6625 -3.723 
-13.8736 -7.5575 -13.543 -12.6525 -13.952 -12.884 -4.604 -10.841 -11.046 -10.1945 -9.292001 -8.3785 
-15.8386 -19.0588 -15.852 -24.3755 -15.708 -15.732 -13.6009 -13.251 -17.654 -13.7 -10.2145 
-27.3399 -21.3678 -27.575 -26.1315 -18.556 -24.7289 -16.0109 -19.859 -21.1595 -14.6225 
-29.6489 -33.0908 -29.331 -28.9795 -27.5529 -27.1389 -22.6189 -23.3645 -22.082 
-7.699501 -3.5745 -3.091 -3.4005 -1.934 -9.833 -3.5865 -4.732 -4.6625 -3.723 -1.934 -12.16972 0 -10.3435 
-10.443 -6.1395 -6.4455 -5.069 -12.7734 -13.7869 -8.862 -8.467001 -8.3785 -5.734 -15.11012 -12.16972 -10.3435 
-13.2634 -9.8245 -7.338 -16.7712 -16.7273 -19.0624 -12.697 -10.1765 -9.7425 -19.39792 -15.11012 -22.51322 
-16.9484 -10.613 -19.2984 -20.7251 -22.0028 -22.8974 -14.4065 -11.5405 -23.37562 -19.39792 -25.45362 
-17.7369 -22.5734 -23.2523 -26.0006 -25.8378 -24.6069 -15.7705 -25.17362 -23.37562 -29.74142 
