-4.759 
n/a 
n/a 
n/a 
n/a 
-4.759 
n/a 
n/a 
n/a 
n/a 
-4.759 
n/a 
n/a 
n/a 
n/a 
-4.759 
n/a 
n/a 
n/a 
n/a 
-3.2615 -4.712 0 -1.934 -4.869 -3.034 -1.4985 -4.4175 -3.152 -4.7925 -2.264 -1.4985 -4.1175 -1.7565 -3.6885 0 -2.4265 -4.3195 -1.4985 -3.9515 -1.7565 -1.4985 -3.1715 
-6.923 -4.712 -1.934 -6.114 -7.3795 -3.947 -5.876 -7.737 -6.3265 -6.556 -2.9195 -4.6915 -4.7545 -5.4275 -3.6885 -2.4265 -5.45 -5.1515 -5.059 -5.368 -2.4195 -3.994 
-6.923 -6.144001 -6.114 -7.723001 -8.042001 -8.599501 -9.8901 -11.2747 -7.83 -7.144 -4.9245 -4.851 -8.057 -5.4275 -6.1715 -5.45 -6.508 -7.413 -5.839 -5.843 -4.741 
-7.88 -8.3505 -7.723001 -8.426001 -12.8829 -12.8416 -13.4278 -12.7782 -8.196 -8.2355 -4.9575 -8.336 -8.057 -7.7005 -9.185 -6.508 -7.909501 -7.4795 -6.326 -7.3835 
-9.547001 -10.3605 -8.426001 -13.2977 -17.125 -16.3793 -14.9313 -13.1442 -9.286501 -8.24 -8.4215 -8.336 -10.2535 -10.6465 -10.209 -7.909501 -7.936501 -7.864 -7.58 
-1.8085 -3.7375 -3.277 -3.2615 -3.8735 -5.5605 -3.1435 -4.712 -3.034 -4.1865 -3.468 -3.152 -4.7925 -3.402 -2.264 -3.6885 -1.934 -4.869 0 -2.4265 -4.3195 -1.8085 -3.355 -1.7565 -5.1845 -5.74 -1.756 -1.4985 -3.9515 -3.2875 -1.7565 -1.4985 -3.1715 0 
-3.8995 -4.877501 -5.1005 -7.178 -9.030001 -7.5935 -6.5115 -7.444 -7.826 -7.0925 -6.2205 -6.3265 -8.068501 -3.793 -6.288501 -5.5135 -6.114 -4.869 -2.4265 -5.45 -5.0655 -4.6195 -3.725 -6.580501 -5.7465 -7.346 -3.0405 -5.059 -5.783 -4.3315 -2.4195 -3.994 -3.1715 
-5.1525 -6.763 -8.985001 -9.587501 -10.204 -8.5385 -8.929501 -12.367 -10.4115 -9.198 -8.866501 -9.151501 -8.109 -7.635 -7.830501 -9.792 -6.114 -7.498001 -5.45 -6.2565 -6.917 -4.725 -9.0275 -6.961501 -7.3525 -8.4665 -6.6575 -6.233 -6.4065 -6.134501 -4.741 -3.994 
-6.8525 -10.485 -11.7783 -11.1069 -10.318 -11.6307 -14.1785 -14.9525 -10.687 -12.0626 -11.6113 -9.191001 -10.426 -8.807501 -12.3846 -9.792 -7.817501 -9.206 -6.2565 -8.003 -6.9435 -10.034 -9.151001 -8.0565 -8.475 -12.2851 -7.972 -6.543 -7.226 -8.008 -4.741 
-10.5225 -13.2783 -13.2977 -11.2209 -13.4102 -16.8797 -16.764 -15.228 -13.5516 -14.8074 -11.6508 -11.5408 -12.1567 -13.5218 -12.3846 -11.5631 -9.366501 -10.0385 -8.003 -8.010501 -12.2495 -10.333 -10.6105 -8.925501 -12.2964 -13.5996 -8.347 -7.3255 -8.261001 -8.008 
-3.2615 -3.135 -3.277 -1.7565 -4.1865 -4.712 -1.934 -4.869 0 -3.034 -1.4985 -3.468 -3.152 -4.5275 0 -2.4265 -4.3195 -1.8085 -3.355 -1.7565 -6.557 -1.756 -4.3195 -3.1435 -3.9515 
-5.675 -5.790501 -4.296 -5.463 -7.3815 -6.144001 -6.114 -4.869 -3.034 -3.947 -5.0815 -6.2205 -6.809 -4.5275 -2.4265 -5.45 -5.0655 -4.6195 -3.725 -7.653501 -8.2015 -5.563 -7.035 -6.321 
-7.389 -7.463 -8.2255 -8.142 -8.6335 -8.3505 -6.114 -7.3795 -3.947 -7.9065 -7.360001 -9.609 -6.809 -6.606 -5.45 -6.2565 -6.917 -4.725 -9.738501 -8.8885 -12.3885 -7.6355 -9.22 
-7.8725 -11.4865 -8.831 -9.3065 -11.6218 -8.3505 -7.723001 -8.042001 -7.9065 -9.1495 -10.5425 -9.609 -9.714001 -10.2385 -6.2565 -8.003 -6.9435 -11.0503 -11.0467 -13.1023 -14.461 -10.5425 
-11.9752 -12.092 -10.647 -12.1454 -11.6218 -10.3605 -8.426001 -10.3885 -9.1495 -12.4308 -10.5425 -12.483 -13.6007 -11.045 -8.003 -8.010501 -13.2658 -12.3585 -15.2605 -15.1748 -17.368 
-3.2615 -3.135 -3.277 -1.7565 -4.1865 -4.248 0 -2.5045 -1.4985 -2.95 -1.7565 -3.999 -1.7565 -3.468 -3.6885 -4.7365 -1.934 -4.869 0 -2.4265 -4.3195 -1.8085 -3.355 -1.7565 -6.557 -1.756 -3.074 -4.3195 -1.8085 -3.9515 0 
-5.675 -5.790501 -4.296 -5.463 -8.061501 -4.248 -2.5045 -3.1915 -3.9285 -4.3785 -6.017001 -4.5785 -5.649 -6.8885 -8.357 -6.7035 -6.114 -4.869 -2.4265 -5.45 -5.0655 -4.6195 -3.725 -7.653501 -8.2015 -4.566 -6.3765 -5.0655 -5.7485 -3.9515 
-7.389 -7.463 -8.2255 -8.934001 -8.061501 -6.8335 -3.1915 -4.5155 -4.676 -8.820001 -7.138501 -9.1295 -10.702 -13.0348 -10.1595 -11.3793 -6.114 -7.498001 -5.45 -6.2565 -6.917 -4.725 -9.738501 -8.8885 -10.151 -7.788 -7.0185 -8.8455 -5.7485 
-7.8725 -11.4865 -12.1875 -8.934001 -11.3666 -7.513 -4.5155 -4.837 -9.099001 -9.923 -10.243 -14.4145 -16.8483 -14.8373 -14.8353 -11.3793 -7.817501 -9.206 -6.2565 -8.003 -6.9435 -11.0503 -11.0467 -10.564 -13.373 -8.3055 -11.0425 -8.8455 
-11.9752 -15.4485 -12.1875 -12.1255 -12.0461 -9.070001 -4.837 -9.212 -10.0035 -13.2183 -15.8868 -20.5608 -18.6508 -19.5131 -14.8353 -13.0828 -9.366501 -10.0385 -8.003 -8.010501 -13.2658 -12.3585 -12.7222 -13.786 -13.8905 -12.4589 -11.0425 
