-4.759 
n/a 
n/a 
n/a 
n/a 
-4.759 
n/a 
n/a 
n/a 
n/a 
-4.759 
n/a 
n/a 
n/a 
n/a 
-4.759 
n/a 
n/a 
n/a 
n/a 
-3.5455 -6.864 -3.8405 0 -5.92 -3.4005 -2.7415 -3.998 -3.098 -1.7695 -1.4985 -7.35 0 
-10.0285 -8.532001 -3.8405 -5.92 -8.903501 -6.286 -6.126 -7.07 -4.6695 -2.7955 -7.8485 -7.35 
-10.6655 -8.532001 -9.959001 -8.903501 -12.1296 -9.448 -9.175501 -8.4385 -5.5175 -9.059501 -7.8485 
-10.6655 -14.9811 -13.1443 -12.1296 -15.2916 -13.0041 -9.643001 -10.1635 -12.1729 -9.059501 
-17.1146 -18.1664 -16.3704 -15.2916 -18.8477 -13.4716 -11.5686 -16.8735 -12.1729 
-1.934 -7.4885 -3.8405 -3.4005 -2.7415 -4.2755 -1.934 -5.92 -3.6885 -2.0935 -1.4985 -6.963 -4.3075 0 
-10.862 -11.9562 -8.217501 -6.286 -5.9875 -5.457 -6.953 -7.6985 -5.5805 -2.9725 -7.569 -9.683001 -4.3075 
-15.3297 -16.3332 -9.752001 -8.936001 -7.262 -11.1256 -8.7585 -9.8915 -6.5785 -9.293 -10.3885 -9.683001 
-19.7067 -17.8677 -12.483 -9.589001 -13.1338 -12.9311 -11.1845 -10.4145 -13.3602 -12.2235 -10.3885 
-21.2412 -20.5987 -13.136 -15.3998 -14.9393 -15.3571 -11.7075 -17.1962 -16.2907 -12.2235 
-3.5455 -6.864 -3.8405 -3.4005 -2.7415 -1.934 -10.827 -3.6885 -1.756 -2.7415 -3.7855 -3.098 -1.7695 -6.963 0 
-10.0285 -8.532001 -8.217501 -6.286 -4.5155 -13.7674 -14.5155 -5.041 -4.4655 -5.209001 -6.5205 -4.6695 -8.819 -6.963 
-10.6655 -13.2396 -9.752001 -8.002001 -16.9303 -17.4559 -15.868 -7.905 -6.687 -7.674001 -7.2795 -10.468 -8.819 
-15.3731 -14.7741 -11.549 -20.558 -20.6188 -18.8084 -18.732 -10.3345 -9.006001 -8.559501 -13.5644 -10.468 
-16.9076 -16.5711 -24.105 -24.2465 -21.9713 -21.6724 -21.1615 -12.6535 -10.019 -14.9752 -13.5644 
-1.934 -10.0905 -3.814 -5.92 -2.4945 -4.7075 -1.7695 -7.2035 -3.1385 -3.098 
-13.0309 -14.0369 -10.674 -8.6955 -5.9565 -5.998001 -9.818 -11.4136 -6.344 
-16.9773 -20.8969 -13.4495 -10.66 -6.7685 -14.8101 -14.1753 -14.6191 
-23.8373 -23.6724 -15.414 -11.472 -15.845 -19.1674 -17.3808 
-26.6128 -25.6369 -16.226 -20.5485 -20.2023 -22.3729 
