-4.759 
n/a 
n/a 
n/a 
n/a 
-4.759 
n/a 
n/a 
n/a 
n/a 
-4.759 
n/a 
n/a 
n/a 
n/a 
-4.759 
n/a 
n/a 
n/a 
n/a 
-3.986 -4.4265 -1.4985 -12.16972 -4.6965 -2.9805 -5.123 -2.356 -1.4985 -4.828 -4.6535 -3.732 -12.16972 0 
-8.026 -6.304 -14.76202 -16.86622 -8.075001 -9.552 -7.216001 -3.1615 -5.821 -9.156 -7.371 -16.86552 -12.16972 
-10.0285 -20.05892 -19.45852 -20.24472 -14.5515 -11.7134 -8.182501 -7.5745 -10.513 -12.1223 -20.85372 -16.86552 
-23.78342 -24.75542 -22.83702 -26.72122 -16.7129 -12.6799 -12.8123 -12.4739 -13.4793 -25.60502 -20.85372 
-28.47992 -28.13392 -29.31352 -28.88262 -17.6794 -17.3097 -17.7117 -15.4402 -26.96202 -25.60502 
-8.966001 -3.495 -5.262 -2.5195 0 -2.356 -3.732 -6.1155 0 -1.4985 -4.899 -1.7565 -2.791 -4.0415 0 
-14.2945 -9.903501 -7.745 -2.5195 -2.356 -5.028501 -6.563 -6.1155 -1.4985 -5.882501 -5.858 -4.4165 -5.742001 -4.0415 
-21.1078 -12.3865 -7.745 -6.555 -5.028501 -9.3695 -6.563 -7.233001 -5.882501 -6.439001 -7.94 -7.2705 -5.742001 
-23.5908 -12.3865 -12.1587 -10.368 -9.3695 -9.3695 -7.319 -8.6105 -6.439001 -8.342501 -9.598001 -7.2705 
-23.5908 -16.8002 -15.9717 -14.709 -9.3695 -9.8975 -8.717 -8.668 -8.342501 -10.334 -9.598001 
-3.986 -3.962 -3.676 -2.5195 -1.4985 -4.2805 
-8.4385 -8.413 -6.226 -3.1695 -5.4875 
-13.4837 -9.964001 -6.7225 -7.2445 
-15.0347 -10.602 -10.7495 
-15.6727 -14.629 
-3.986 -3.9485 -2.356 -4.257 -4.156 -3.732 -12.16972 -4.0305 -5.262 -2.5195 -6.271 
-8.0375 -4.311 -6.9855 -6.5735 -6.919001 -16.86552 -16.20022 -9.943501 -7.745 -8.928 
-8.099501 -8.939 -9.026001 -10.1979 -20.82112 -20.89602 -22.11322 -12.8679 -14.5317 
-12.9515 -10.688 -13.1382 -24.10002 -24.85162 -26.80902 -25.03762 -19.6546 
-14.7005 -14.8002 -27.04032 -28.13052 -30.76462 -29.73342 -31.82432 
