-4.759 
n/a 
n/a 
n/a 
n/a 
-4.759 
n/a 
n/a 
n/a 
n/a 
-4.759 
n/a 
n/a 
n/a 
n/a 
-4.759 
n/a 
n/a 
n/a 
n/a 
-1.8085 -3.768 -2.186 -3.147 -2.9705 -2.7765 -5.029 -4.221 0 
-5.834001 -6.05 -5.0625 -6.2445 -4.677 -5.9635 -9.046501 -4.221 
-8.1435 -8.271501 -8.02 -8.0605 -7.2445 -9.6245 -9.046501 
-9.969501 -11.517 -10.1385 -10.889 -10.3885 -9.6245 
-14.1384 -13.6355 -13.1516 -14.033 -10.3885 
-2.3615 -3.5015 -2.8645 -3.1125 -4.834 -1.934 -3.3755 -2.3335 -4.6945 -1.7565 -3.1385 -2.7765 -4.5965 -2.5045 -1.8085 -2.95 
-5.2225 -6.312 -3.5345 -6.3725 -5.8555 -6.653 -4.8655 -8.064501 -6.384501 -4.388 -5.1855 -6.163 -6.1415 -3.913 -4.4675 
-6.748 -7.0805 -6.788 -7.289001 -10.061 -7.530001 -10.7335 -9.024 -8.007501 -6.825 -7.8695 -7.5385 -7.061 -4.8145 
-7.6315 -10.233 -7.7935 -11.7883 -10.205 -13.5958 -11.693 -9.767 -10.76 -9.5605 -9.0675 -8.384001 -9.799001 
-11.145 -11.2385 -12.4154 -11.9323 -16.2708 -14.5553 -12.436 -12.9005 -13.4955 -11.0527 -9.5775 -10.45 
-1.4985 -3.6135 -5.2155 -3.3155 -4.6945 -3.499 -2.7765 -2.489 -5.381 -2.186 -4.9385 0 
-4.4525 -8.531 -7.7015 -8.837 -7.4705 -5.529 -3.495 -6.4925 -8.016001 -6.113 -4.9385 
-8.897001 -10.2755 -13.4382 -11.9738 -10.249 -6.8675 -7.874501 -8.947001 -12.1668 -6.113 
-10.8081 -16.0122 -16.575 -14.7523 -11.5875 -10.126 -10.4585 -13.429 -12.1668 
-16.5448 -19.149 -19.3535 -16.0908 -14.846 -12.9424 -14.9405 -13.429 
-3.147 -2.664 -5.2155 -2.186 -4.834 -1.7695 -7.712 -4.221 -3.1385 0 
-6.2495 -7.0425 -7.335001 -5.844 -6.1985 -7.894501 -10.8625 -6.6955 -3.1385 
-10.941 -9.0745 -10.3615 -7.1965 -13.2243 -11.1726 -13.337 -6.6955 
-12.973 -12.2324 -11.714 -14.3997 -16.5024 -13.6471 -13.337 
-16.1309 -13.5849 -18.9172 -17.6778 -18.9769 -13.6471 
