-4.759 
n/a 
n/a 
n/a 
n/a 
-4.759 
n/a 
n/a 
n/a 
n/a 
-4.759 
n/a 
n/a 
n/a 
n/a 
-4.759 
n/a 
n/a 
n/a 
n/a 
-12.16972 -4.147 -1.934 -1.4985 -4.02 -3.8655 -2.186 -4.1205 -1.7695 -2.489 -1.4985 -4.4665 -3.7285 -4.3075 -4.147 0 -6.2145 0 0 
-16.31672 -6.257 -2.6125 -4.969501 -5.305 -5.968 -5.007 -5.1155 -3.1405 -3.9675 -4.729 -6.928 -7.5165 -6.068 -4.147 -6.2145 -6.2145 0 
-18.42672 -6.789001 -5.589 -7.6235 -7.4615 -8.751 -5.68 -5.2255 -4.568 -6.2955 -7.036 -11.4572 -9.7776 -6.068 -10.575 -6.2145 -6.2145 
-18.95872 -8.878501 -8.742001 -10.66 -9.84 -9.335001 -5.763 -6.1065 -6.6995 -8.316501 -11.6396 -13.7183 -9.7776 -13.59 -10.575 -6.2145 
-21.04822 -12.4723 -11.8631 -13.0385 -10.507 -9.436001 -6.563 -8.577001 -8.637 -13.1115 -13.9007 -13.7183 -17.2996 -13.59 -10.575 
-5.7605 -4.0685 -2.186 -2.871 -1.7565 -1.4985 -4.4745 -6.0155 -1.934 -4.02 -3.355 -1.7565 -3.8655 
-8.646001 -6.23 -4.247 -3.5385 -2.4195 -4.774 -11.0145 -8.1165 -5.3455 -6.454 -3.725 -5.196 
-11.1691 -7.9055 -4.411 -3.7675 -5.541501 -11.4726 -13.1155 -12.086 -8.306001 -6.5065 -7.348001 
-12.8446 -7.9445 -4.5655 -5.7395 -12.6017 -13.5736 -17.085 -15.0465 -8.3395 -9.475 
-12.8836 -8.13 -6.559 -13.0527 -14.7027 -17.5431 -20.0455 -15.08 -11.2726 
-1.4985 -5.7605 -4.147 -1.934 -1.4985 -4.02 -3.8655 -2.186 -1.4985 -3.188 -2.229 -4.4665 -6.0155 -4.147 0 
-8.0565 -10.647 -6.257 -2.6125 -4.969501 -5.305 -5.968 -3.339 -3.619 -4.279 -5.278501 -10.411 -10.0925 -4.147 
-13.3448 -12.757 -6.789001 -5.589 -7.6235 -7.4615 -6.9385 -4.9385 -4.3695 -5.936501 -11.7952 -14.488 -10.0925 
-15.4548 -13.289 -8.878501 -8.742001 -10.66 -8.414001 -8.260501 -4.97 -6.0715 -13.0494 -15.8722 -14.488 
-15.9868 -15.3785 -12.4723 -11.8631 -11.6125 -10.0035 -8.279501 -7.313 -13.454 -17.1264 -15.8722 
-1.4985 -5.7605 -4.147 -1.934 -1.4985 -3.641 -3.7575 -1.7565 -3.8655 -2.186 -4.1205 -2.5045 -4.834 -4.4665 -6.2145 0 
-8.0565 -10.647 -6.257 -2.6125 -4.644 -5.455501 -4.4575 -5.196 -5.968 -5.007 -5.3175 -7.8645 -6.9325 -9.737501 -6.2145 
-13.3448 -12.757 -6.789001 -5.3205 -5.974 -6.054501 -8.511001 -7.193501 -8.751 -6.317 -11.2367 -9.332001 -12.8233 -9.737501 
-15.4548 -13.289 -8.937501 -7.7795 -6.156 -10.3155 -10.4765 -10.126 -10.173 -12.5904 -12.7042 -15.896 -12.8233 
-15.9868 -15.4375 -11.5611 -8.1075 -10.367 -12.281 -13.409 -11.5538 -16.5768 -14.0579 -19.2682 -15.896 
