-4.759 
n/a 
n/a 
n/a 
n/a 
-4.759 
n/a 
n/a 
n/a 
n/a 
-4.759 
n/a 
n/a 
n/a 
n/a 
-4.759 
n/a 
n/a 
n/a 
n/a 
-2.7295 -2.7765 -3.047 -3.1495 -4.0845 -5.893 -2.5195 -5.4695 -3.853 0 -3.594 -1.7565 -4.5635 -1.756 -4.257 -3.9515 0 
-4.065 -4.5075 -5.766 -7.2675 -7.697001 -7.436 -8.6235 -9.201 -3.853 -3.594 -4.857 -6.160501 -5.782001 -5.9805 -5.9555 -3.9515 
-5.696 -6.938 -9.6195 -10.6215 -10.0125 -13.9918 -12.6236 -9.201 -7.203 -4.857 -7.3805 -7.094501 -10.2085 -7.373 -5.9555 
-8.1695 -11.0599 -13.1417 -12.937 -16.7037 -17.9919 -12.6236 -12.8092 -9.237 -7.3805 -8.788 -11.8534 -11.601 -7.373 
-12.4236 -14.5821 -15.4572 -19.6282 -20.7038 -17.9919 -16.2318 -14.8432 -12.0433 -8.788 -13.5543 -13.2459 -11.601 
-4.5305 -1.756 -4.57 -2.4945 -1.4985 -3.519 -1.7565 -4.5635 0 
-6.048 -5.998 -7.508 -3.9315 -4.4155 -4.4175 -6.160501 -4.5635 
-7.68 -7.9325 -8.7215 -7.898001 -4.839 -8.410001 -6.160501 
-10.0745 -8.941501 -13.113 -8.5725 -9.1685 -8.410001 
-11.0835 -13.843 -13.7875 -12.9936 -9.1685 
-2.7295 -2.7765 -3.047 -1.4985 -3.594 -1.7565 -4.8255 -1.934 -4.245 0 -1.756 -4.126 -3.645 0 -5.1845 -4.3225 -3.843 0 
-4.065 -4.5075 -4.095 -4.568 -4.857 -6.473001 -6.514 -5.934 -4.245 -1.756 -6.1785 -8.102 -3.645 -5.1845 -7.6455 -7.5385 -3.843 
-5.696 -5.387 -7.430501 -5.042 -10.054 -8.045501 -11.2344 -5.934 -5.425 -6.1785 -9.894 -8.102 -8.737 -7.6455 -11.4331 -7.5385 
-6.5735 -8.9525 -8.031 -10.155 -12.0499 -12.8589 -11.2344 -6.784 -9.7825 -9.894 -9.894 -13.5672 -12.578 -11.4331 -11.4331 
-10.1805 -9.848001 -13.5364 -12.4021 -16.8633 -12.8589 -12.0844 -11.6451 -13.6724 -9.894 -15.5926 -17.4082 -16.3656 -11.4331 
-3.1495 -2.4945 -3.557 -1.934 -3.4635 -4.017 -5.091 -12.16972 0 -12.16972 -1.756 -12.16972 0 
-4.459 -5.304 -4.4175 -6.2625 -6.3715 -8.276501 -17.58052 -12.16972 -12.16972 -13.92572 -14.93432 -12.16972 
-7.234 -5.732501 -8.679001 -9.507001 -10.1225 -20.80742 -17.58052 -24.33944 -13.92572 -27.10404 -14.93432 
-7.4195 -10.228 -12.1665 -13.2306 -22.96982 -20.80742 -29.75024 -26.09544 -27.10404 -27.10404 
-12.3766 -13.7155 -15.8901 -26.07792 -22.96982 -32.97714 -31.50624 -39.27376 -27.10404 
