-4.759 
n/a 
n/a 
n/a 
n/a 
-4.759 
n/a 
n/a 
n/a 
n/a 
-4.759 
n/a 
n/a 
n/a 
n/a 
-4.759 
n/a 
n/a 
n/a 
n/a 
-3.851 -1.7695 -1.4985 -5.753 -1.7565 -1.4985 -3.875 -5.4525 0 -3.9155 -3.6215 -3.251 -4.09 -1.8085 -3.845 
-4.0015 -2.7955 -6.276501 -6.8765 -2.4195 -6.274 -9.573501 -5.4525 -3.9155 -6.0065 -6.583 -6.222 -5.1625 -3.9645 
-4.5775 -7.604001 -7.251 -7.288001 -7.2865 -12.8871 -9.573501 -8.487 -6.0065 -9.0225 -9.005501 -6.831 -7.813 
-9.532001 -8.528001 -7.602001 -12.6376 -14.3104 -12.8871 -13.4076 -11.0638 -9.0225 -11.5168 -9.420001 -9.359 
-10.0865 -8.845501 -13.0848 -19.6615 -14.3104 -16.7212 -15.9844 -14.0798 -11.5168 -11.9313 -11.9658 
-3.851 -1.7695 -3.875 -4.3855 0 -5.4525 -1.756 -3.9155 -4.134 -3.251 -4.7195 -4.8385 0 
-4.0015 -5.567 -8.722501 -4.3855 -5.4525 -6.544001 -5.138 -7.098001 -7.599 -6.109 -6.8835 -4.8385 
-8.781 -10.304 -8.722501 -11.0566 -6.544001 -8.711 -7.694 -11.0394 -10.019 -8.517 -6.8835 
-14.3076 -10.304 -15.7124 -12.1481 -8.711 -11.5818 -11.9006 -13.4594 -12.4428 -8.517 
-14.3076 -17.2939 -16.8039 -14.3151 -11.5818 -15.7884 -14.3206 -15.8832 -12.4428 
-1.934 -3.875 -3.9155 -2.742 -2.489 -4.38 
-4.7225 -8.539001 -7.043 -3.301 -5.6195 
-9.797 -12.1419 -7.6 -6.7925 
-13.3999 -12.6989 -11.4547 
-13.9569 -16.5536 
-2.5045 -1.8085 -3.777 -1.7565 -1.4985 -4.6225 -1.934 -3.875 0 -1.4985 -3.6445 -1.7565 -4.481 -1.756 -3.9155 -4.49 -4.697 -3.898 0 
-3.3625 -4.3955 -4.411 -2.4195 -5.606501 -5.716001 -4.7225 -3.875 -1.4985 -4.4795 -4.775001 -5.378 -5.452001 -5.138 -8.8685 -8.156 -7.267 -3.898 
-4.4445 -4.6235 -5.008 -6.28 -6.6755 -7.6685 -4.7225 -5.516 -4.4795 -5.062 -7.666501 -6.1615 -7.2405 -10.1225 -12.7451 -8.9175 -7.267 
-4.6725 -5.178 -8.713 -7.43 -8.048 -7.6685 -6.0155 -9.5455 -5.062 -7.768001 -8.713 -8.711 -12.7938 -14.0147 -13.5066 -8.9175 
-5.221 -8.900001 -9.444 -9.689501 -8.048 -8.841001 -9.9125 -10.0425 -7.768001 -8.809501 -11.1105 -14.4989 -16.686 -14.7762 -13.5066 
