-4.759 
n/a 
n/a 
n/a 
n/a 
-4.759 
n/a 
n/a 
n/a 
n/a 
-4.759 
n/a 
n/a 
n/a 
n/a 
-4.759 
n/a 
n/a 
n/a 
n/a 
-3.034 -4.4525 -2.5195 -1.4985 -5.5475 -3.9205 -4.6545 0 -2.3615 -4.2925 -2.186 -2.186 -3.851 -1.7695 -1.4985 -5.044 -4.9105 -6.7455 0 
-7.1215 -7.224501 -3.1695 -6.823 -9.967001 -8.684 -4.6545 -2.3615 -6.601 -8.440001 -5.4195 -5.0955 -4.0015 -2.7955 -5.9325 -7.906 -10.3285 -6.7455 
-9.892 -7.816501 -8.505501 -11.4555 -14.7305 -8.684 -7.1385 -6.601 -11.3547 -11.8927 -8.8065 -5.314 -4.5775 -7.328001 -8.905001 -13.8156 -10.3285 
-10.247 -13.3655 -13.2598 -16.219 -14.7305 -11.428 -11.6992 -11.3547 -14.8074 -15.2797 -8.9305 -5.7875 -7.9115 -10.223 -14.9652 -13.8156 
-15.796 -18.1198 -18.0233 -16.219 -17.4745 -15.9887 -16.4529 -14.8074 -18.1944 -15.4037 -9.384001 -9.2825 -11.0259 -16.3574 -14.9652 
-2.4265 -2.186 -1.8085 -4.8865 0 -9.671 -5.5385 0 
-3.292 -3.164 -7.427501 -4.8865 -9.671 -15.4555 -5.5385 
-4.4005 -9.343 -7.427501 -15.6709 -15.4555 -15.4555 
-10.5125 -9.343 -18.4377 -21.4554 -15.4555 
-10.5125 -20.4496 -24.2222 -21.4554 
-3.6075 0 -3.6975 -3.3235 -3.9205 -3.929 -4.3195 -1.4985 -4.2895 -2.0935 -5.044 -5.759501 
-3.6075 -3.6975 -7.7535 -4.8795 -7.601001 -8.98 -5.1515 -5.106 -5.047 -7.0375 -11.0145 
-8.318001 -7.7535 -8.481001 -8.360001 -12.8314 -10.0615 -10.1425 -5.613 -9.3205 -13.6714 
-12.8834 -8.481001 -12.1363 -13.6524 -13.9129 -15.0525 -10.441 -10.286 -16.1904 
-13.6109 -12.1363 -17.4287 -14.7339 -18.9039 -15.351 -15.114 -17.1559 
-3.228 0 -1.4985 -4.5535 -1.7565 -3.326 -5.083 0 -5.8945 -4.814 -4.345 0 
-3.228 -1.4985 -5.291 -5.315 -4.8495 -9.439001 -5.083 -5.8945 -10.2485 -10.1725 -4.345 
-5.9245 -5.291 -5.577001 -8.547501 -10.513 -9.439001 -10.123 -10.2485 -16.0434 -10.1725 
-10.1305 -5.577001 -9.065001 -14.3998 -10.513 -14.5338 -14.9894 -16.0434 -16.0434 
-10.5925 -9.065001 -15.0087 -14.3998 -15.6078 -19.4002 -20.7843 -16.0434 
