-4.759 
n/a 
n/a 
n/a 
n/a 
-4.759 
n/a 
n/a 
n/a 
n/a 
-4.759 
n/a 
n/a 
n/a 
n/a 
-4.759 
n/a 
n/a 
n/a 
n/a 
-3.091 -4.235 -4.424 -2.264 -3.488 -7.634001 
-5.1065 -6.508 -5.6385 -4.790501 -10.7285 
-7.012 -8.2365 -7.390501 -10.1915 
-8.910501 -9.83 -12.3745 
-10.6215 -13.1211 
-3.091 -4.235 -4.424 -2.264 -4.3365 -3.488 -5.173 
-5.1065 -6.508 -5.6385 -6.3955 -7.094501 -7.936501 
-7.012 -8.2365 -8.915001 -8.217001 -11.7258 
-8.910501 -11.8658 -10.1385 -12.9385 
-12.5176 -13.0893 -15.126 
-3.091 -4.235 -2.7415 -4.424 -1.934 -3.488 -7.634001 
-5.1065 -5.7375 -8.262 -5.195 -4.9205 -10.7285 
-6.3065 -10.0505 -9.086 -7.4715 -11.7505 
-10.5325 -10.8745 -11.4843 -14.4639 
-11.3565 -13.2728 -18.4767 
-3.091 -4.235 -2.7415 -4.424 -1.934 -4.3365 -3.488 0 -5.173 0 
-5.1065 -5.7375 -8.262 -5.195 -6.342 -7.094501 -3.488 -5.173 -5.173 
-6.3065 -10.0505 -9.086 -10.361 -10.0345 -7.094501 -7.936501 -5.173 
-10.5325 -10.8745 -14.3738 -14.0535 -10.0345 -11.7258 -7.936501 
-11.3565 -16.1623 -18.0663 -14.0535 -14.9956 -11.7258 
