-4.759 
n/a 
n/a 
n/a 
n/a 
-4.759 
n/a 
n/a 
n/a 
n/a 
-4.759 
n/a 
n/a 
n/a 
n/a 
-4.759 
n/a 
n/a 
n/a 
n/a 
-2.3615 -3.962 -2.5195 -3.873 -1.7695 -4.8385 0 -3.5015 -1.7695 -3.5015 -2.6165 -4.1655 -3.766 0 -4.475 -4.052 -1.4985 -4.0455 0 
-7.734 -5.7095 -6.3285 -5.7395 -7.150001 -4.8385 -3.5015 -4.5585 -5.0115 -6.4775 -6.457 -7.778 -3.766 -4.475 -9.6945 -4.752 -5.133 -4.0455 
-9.177 -9.139 -7.610001 -10.7025 -7.150001 -8.1895 -4.5585 -6.4445 -8.722 -9.453501 -10.6239 -7.778 -6.9705 -9.6945 -10.7595 -8.829 -5.133 
-13.1939 -10.5189 -13.3046 -10.7025 -11.287 -9.862101 -6.4445 -9.0255 -11.8748 -13.8256 -10.6239 -12.0249 -12.785 -10.7595 -14.8365 -8.829 
-14.5738 -16.2135 -13.3046 -14.8395 -12.9596 -11.7481 -9.0255 -12.2327 -16.2469 -13.8256 -14.8708 -17.8394 -13.85 -14.8365 -14.8365 
-2.3615 -2.742 -3.6955 -2.5195 -1.4985 -3.873 0 -3.952 -2.5195 -3.5015 -1.7695 -3.5015 0 -4.7195 -3.222 -1.8085 -5.4675 -4.055 -2.186 -1.7565 -2.3335 -3.319 
-4.486 -5.043 -4.843 -3.1695 -4.7405 -3.873 -3.952 -5.6115 -6.413 -4.5585 -5.0115 -3.5015 -4.7195 -6.297 -4.144 -5.9135 -10.041 -5.900001 -4.858 -4.314 -5.88 
-7.027 -6.0955 -5.604 -6.237 -4.7405 -8.636 -5.6115 -7.6745 -6.473 -6.4445 -5.0115 -9.439001 -6.297 -6.5955 -7.8435 -11.1738 -11.987 -8.469501 -7.570001 -6.4905 
-8.3315 -6.7905 -7.907001 -6.237 -9.344501 -10.3225 -7.6745 -7.678501 -6.478 -6.4445 -11.6174 -11.1627 -6.5955 -11.1302 -13.4066 -13.1198 -14.5565 -11.2279 -8.472 
-8.8915 -9.975 -7.907001 -11.3088 -11.1666 -12.3855 -7.678501 -7.681 -6.478 -13.3568 -13.3411 -11.4612 -11.1302 -16.6933 -15.3526 -15.6893 -17.3149 -12.1299 

n/a 
n/a 
n/a 
n/a 
-2.3615 -2.186 -2.9905 -4.0225 -1.934 -4.7505 0 -2.871 -4.6135 0 0 -2.872 -3.013 -5.651501 -3.952 0 -7.719501 -4.25 -7.8085 -4.399 
-3.5005 -5.0885 -7.4305 -5.3785 -7.2325 -4.7505 -2.871 -7.1895 -4.6135 0 -2.872 -5.2745 -8.529501 -8.074 -3.952 -7.719501 -10.293 -12.6855 -13.9835 
-7.1625 -9.3985 -8.795 -11.53 -7.2325 -7.7775 -7.1895 -7.1895 -4.6135 -2.872 -5.2745 -10.4885 -11.892 -8.9855 -11.1415 -10.293 -19.1297 -19.0169 
-12.1855 -11.2172 -15.0475 -11.53 -10.8381 -12.4172 -7.1895 -7.1895 -7.202 -5.2745 -9.778501 -14.1444 -12.1224 -17.109 -13.715 -19.1297 -25.2249 
-14.0042 -17.4697 -15.0475 -15.1356 -15.4778 -12.4172 -7.1895 -9.231501 -9.75 -9.778501 -14.1924 -14.1924 -20.2459 -19.6825 -22.5517 -25.2249 
