-4.759 
n/a 
n/a 
n/a 
n/a 
-4.759 
n/a 
n/a 
n/a 
n/a 
-4.759 
n/a 
n/a 
n/a 
n/a 
-4.759 
n/a 
n/a 
n/a 
n/a 
-3.034 -3.45 -4.795 -4.4905 -4.348 0 -4.065 -3.0695 -3.251 -3.788 -4.024 -3.251 -3.17 -1.7565 -2.985 -4.795 -1.7695 -3.875 -1.756 -3.152 -3.689 -4.0145 -3.7555 -5.2725 -3.5445 -2.7035 -3.4795 -1.756 -3.074 -5.867 -2.985 -3.0415 -3.849 -6.99 -5.4175 -1.7695 -4.2135 -3.3785 -6.9525 -9.375501 0 -2.264 -3.508 -7.936 0 
-6.073501 -7.403 -8.9165 -10.0545 -4.348 -4.065 -7.445 -4.7295 -5.3545 -6.127 -5.9595 -7.005 -4.179 -3.9355 -6.995 -5.956 -5.567 -5.0395 -5.002501 -5.8975 -8.22 -8.133 -8.51 -8.828 -6.042 -5.2675 -5.0885 -4.566 -8.362 -7.614 -6.8785 -4.942 -9.892501 -8.1055 -7.6285 -6.2805 -7.8955 -8.961 -17.3332 -9.375501 -2.264 -4.813 -9.9315 -7.556 
-9.224001 -11.9093 -15.1169 -10.0545 -8.437 -7.445 -8.3105 -6.763 -7.804501 -8.710001 -9.803 -7.519001 -5.8355 -7.868001 -8.018001 -8.953501 -6.567 -8.209001 -7.456 -11.2979 -12.7495 -13.1651 -12.3783 -11.5585 -7.5895 -7.3 -7.686 -10.013 -9.6215 -11.9545 -7.0395 -10.0475 -11.087 -9.925 -12.5285 -10.3155 -9.785 -20.7927 -17.3332 -11.9399 -4.813 -9.9565 -8.969501 
-14.1441 -18.1097 -15.1169 -14.4141 -12.3332 -8.3105 -10.2335 -9.452001 -9.814 -12.8047 -10.1375 -9.005501 -9.284 -9.138 -11.0303 -9.8055 -9.4505 -10.7677 -13.1248 -15.8274 -17.7816 -17.0334 -15.1088 -13.106 -9.517 -9.537001 -13.3302 -11.2725 -14.164 -12.1155 -10.621 -11.2812 -12.9065 -14.9148 -16.5635 -12.205 -21.8663 -20.7927 -19.8976 -14.4889 -9.368501 -9.368501 
-20.3445 -18.1097 -19.4765 -18.3103 -13.1987 -10.2335 -12.9225 -11.6223 -13.8299 -13.1392 -11.5428 -12.6128 -10.323 -12.2187 -11.8823 -12.8084 -12.067 -16.4365 -17.6543 -20.8595 -21.6499 -19.7639 -16.6563 -15.0335 -11.7636 -15.8952 -14.5897 -15.815 -14.325 -15.697 -12.6277 -13.1007 -17.8963 -18.9498 -18.453 -24.2863 -21.8663 -23.3571 -22.4466 -19.0444 -9.368501 
-2.3335 -9.0745 -4.299 -7.647501 -7.521 -2.9805 -3.931 
-12.5988 -13.6255 -12.8727 -15.6987 -10.3105 -8.351501 
-17.1498 -22.1992 -20.9239 -18.4882 -15.6815 
-25.7235 -30.2504 -23.7134 -23.8592 
-33.7747 -33.0399 -29.0844 
-3.034 -3.45 -4.348 -5.198 -4.348 0 -4.065 -4.348 -3.687 -2.356 -3.535 -3.264 -1.7565 -4.744 -3.2615 -4.5125 -3.17 -1.7565 -3.1435 -4.348 -1.7695 -3.875 -3.152 -5.2725 -1.934 -3.098 -2.7035 -3.4795 -3.074 -1.4985 -5.867 -1.7695 -1.4985 -4.2135 -3.3785 -6.9525 -6.3715 -3.2615 -5.701 -3.2295 -1.4985 -4.302 -2.9705 -2.7415 -3.264 -2.5045 -2.6165 -3.768 -2.0935 -1.4985 -5.889 -2.264 -3.508 -2.998 0 -4.8185 0 
-6.073501 -7.0665 -7.5245 -9.844501 -4.348 -4.065 -6.7045 -7.9265 -5.612 -5.592 -5.5165 -3.6125 -6.1375 -7.4595 -6.5715 -8.283001 -4.179 -4.124 -6.9185 -5.641 -5.567 -6.835501 -6.7755 -6.51 -5.595 -5.78 -5.2675 -6.9745 -4.6505 -7.5185 -6.57 -2.7955 -5.2425 -7.8955 -8.961 -8.533501 -10.0965 -7.636001 -6.4685 -3.844 -5.659 -7.595 -4.512 -5.7545 -5.7165 -5.4895 -5.2535 -5.1955 -2.9725 -6.6495 -8.1525 -4.813 -5.3735 -2.998 -4.8185 -4.8185 
-9.241001 -10.762 -12.4946 -9.844501 -8.437 -6.7045 -9.033 -10.3605 -8.974001 -8.238001 -5.559 -7.363 -9.007501 -11.2653 -10.434 -8.503501 -6.0025 -7.8135 -8.0255 -9.492001 -8.1615 -10.4765 -7.576 -10.0775 -7.6815 -7.548 -9.2675 -8.254 -10.8953 -10.3345 -6.9175 -6.6175 -8.56 -9.785 -8.976001 -12.5685 -14.5466 -8.206 -7.105 -8.2605 -8.104 -8.2485 -7.6175 -8.164001 -9.58 -8.807 -6.307 -5.938 -8.403501 -8.961 -11.1845 -6.3605 -5.3735 -7.423 -4.8185 
-13.1215 -15.7321 -12.4946 -13.9335 -11.5927 -9.033 -11.9816 -13.7225 -11.7166 -8.2775 -8.941 -10.634 -12.9107 -15.1278 -10.4985 -9.370501 -9.134501 -9.001 -12.1999 -12.1643 -12.1383 -11.277 -11.3365 -12.2252 -9.001501 -12.1314 -10.5235 -14.544 -13.7113 -10.682 -8.8275 -9.9175 -10.757 -9.7935 -13.1388 -17.0186 -15.1166 -8.635501 -11.9321 -10.223 -8.7655 -11.69 -10.3475 -12.0839 -12.8327 -10.3165 -6.717 -9.9725 -10.688 -12.1176 -12.732 -6.3605 -8.936001 -7.423 
-18.0916 -15.7321 -16.5836 -17.0892 -13.9212 -11.9816 -15.3436 -16.4651 -11.7561 -11.7971 -12.268 -14.5372 -16.7732 -15.1923 -11.3655 -12.6881 -10.3355 -13.2522 -14.8722 -16.1411 -12.9388 -15.0375 -13.4842 -13.5452 -13.7459 -13.3874 -16.8135 -17.36 -14.0588 -12.592 -12.5711 -12.1569 -10.777 -13.9563 -17.5889 -17.5886 -15.5461 -13.4888 -13.8946 -11.1275 -12.1882 -14.42 -14.2674 -15.3366 -14.3422 -10.7265 -11.3203 -13.055 -13.8446 -13.6651 -12.732 -9.753 -8.936001 
-3.034 -1.4985 -4.257 -5.198 -4.348 0 -3.7875 -4.024 -4.4285 -1.7565 -1.4985 -3.9665 -1.7695 -3.875 -2.356 -5.747 -4.257 -4.4095 -1.4985 -4.559 -3.7555 -5.2725 -1.934 -2.7035 -3.4795 0 -2.925 -5.867 -1.7695 -1.4985 -4.034 -5.267 -6.9525 -6.3715 -1.756 -5.9445 -1.4985 -4.302 -2.9705 -2.7415 -4.7295 -1.7695 -2.489 -6.36 0 
-3.947 -5.0245 -8.009501 -9.844501 -4.348 -3.7875 -7.2765 -10.019 -4.6405 -2.4195 -5.3745 -5.6315 -5.567 -6.167 -7.6835 -9.3655 -8.3365 -6.2675 -7.208 -8.112 -8.51 -6.51 -5.4295 -5.2675 -3.4795 -2.925 -7.7025 -6.57 -2.7955 -6.043 -9.590501 -13.1499 -8.533501 -8.022 -7.5255 -7.2815 -5.659 -7.595 -4.512 -5.5525 -4.798 -3.1405 -8.245 -6.36 
-7.3035 -8.959001 -12.7596 -9.844501 -8.518 -7.2765 -13.6497 -10.7225 -5.2 -6.309 -7.125 -9.5465 -7.3875 -11.9899 -11.9064 -13.5344 -10.089 -12.2016 -10.361 -13.3165 -9.367001 -10.3475 -6.889 -5.2675 -6.194 -7.7025 -8.5465 -6.9175 -7.477001 -12.5309 -17.8886 -14.7309 -10.041 -14.1295 -8.7225 -11.96 -8.104 -8.2485 -7.085501 -5.561 -5.204 -8.516001 -8.245 
-9.832001 -13.8101 -12.7596 -14.0145 -12.1166 -13.6497 -14.3532 -11.282 -9.0815 -8.024501 -11.2458 -11.5572 -13.495 -16.2128 -16.0753 -15.2869 -16.0231 -15.3546 -16.1051 -14.1735 -13.3073 -11.807 -6.889 -8.7405 -9.6715 -8.5465 -8.92 -12.1932 -14.1481 -20.829 -19.4696 -16.2384 -16.2611 -15.3265 -13.5438 -14.405 -8.7655 -11.158 -7.0905 -5.9155 -9.819501 -8.516001 
-14.6765 -13.8101 -16.9296 -17.6131 -18.4898 -14.3532 -14.9127 -15.1635 -10.8744 -12.2961 -13.2565 -17.6647 -17.7179 -20.3817 -17.8278 -21.221 -19.1761 -21.0987 -16.9621 -18.1138 -14.7668 -11.807 -9.675501 -12.3638 -11.1913 -8.92 -14.2651 -18.8643 -22.4462 -22.41 -20.9771 -22.4585 -17.4581 -20.1478 -15.9888 -15.0665 -11.6562 -11.163 -7.480501 -10.66 -9.819501 
