-4.759 
n/a 
n/a 
n/a 
n/a 
-4.759 
n/a 
n/a 
n/a 
n/a 
-4.759 
n/a 
n/a 
n/a 
n/a 
-4.759 
n/a 
n/a 
n/a 
n/a 
-2.0935 -1.4985 -3.814 -3.2495 -4.778 0 -3.8735 -2.186 -2.871 -1.7565 -1.4985 -3.9555 -4.216 -3.959 -2.356 -1.4985 -3.784 -3.4075 -4.591 -1.7565 -5.129 -3.543 -4.5385 0 
-2.9725 -4.198 -5.493 -5.537 -4.778 -3.8735 -5.949 -4.247 -3.5385 -2.4195 -5.385 -7.2615 -5.047 -5.6375 -3.1615 -4.6165 -7.1285 -7.527501 -5.979 -5.9075 -7.262 -4.669 -4.5385 
-5.1435 -5.5265 -6.329 -5.537 -8.4005 -5.949 -7.517 -4.411 -3.7675 -6.534501 -7.9375 -8.619 -6.9715 -6.462 -6.458 -7.786 -10.1675 -9.7995 -11.2935 -9.395 -7.6455 -4.669 
-6.251 -6.333 -6.329 -8.9685 -9.494 -7.517 -7.5755 -4.5655 -7.841 -8.790501 -9.567 -10.3675 -7.868 -9.663 -9.380001 -10.733 -12.4395 -15.5252 -13.4617 -8.373 -7.455 
-7.3105 -6.333 -9.436501 -9.935 -11.3262 -7.5755 -7.6425 -8.4665 -9.51 -10.459 -11.5087 -11.7394 -11.333 -12.585 -12.4202 -13.005 -18.1652 -17.4222 -13.6547 -8.408501 
-2.0935 -3.228 -4.597 -3.277 -3.4075 -3.898 -3.6395 -4.522 -5.129 0 -3.0415 -2.3335 -3.8735 -2.186 -3.9555 -4.25 -3.59 -1.934 -4.351 -1.934 -1.4985 -3.188 0 
-5.855 -6.507 -5.4935 -7.081 -7.382501 -5.4665 -8.506001 -9.416 -4.221 -3.0415 -4.132 -6.491 -5.949 -5.658 -5.8495 -7.897 -5.272 -5.718 -6.3545 -2.6125 -3.619 -3.188 
-9.414001 -6.6795 -9.6705 -11.3914 -8.17 -9.969501 -13.8623 -9.6645 -7.8145 -4.132 -8.673 -7.278 -8.584001 -7.844 -8.918 -8.684 -10.1635 -7.401 -7.0505 -4.377 -3.619 
-9.6435 -10.4265 -14.0319 -12.1789 -13.0112 -15.413 -13.8623 -13.333 -9.055 -8.673 -10.0535 -9.9355 -10.181 -11.4309 -10.1385 -14.0815 -11.8465 -8.383 -9.012501 -4.377 
-13.3905 -14.7879 -14.8194 -17.0201 -18.4547 -15.413 -17.5308 -14.5735 -13.7808 -10.0535 -12.711 -11.4877 -13.7679 -12.6514 -15.3984 -15.7645 -12.8285 -10.1985 -9.012501 
-2.5045 -3.228 -3.2495 -4.191 -3.277 -4.5925 -5.129 0 -1.756 -4.101 -3.59 -3.898 -1.7695 -3.8735 -2.186 -1.4985 -3.8565 -4.25 -3.59 
-5.1825 -5.2515 -7.428 -5.1085 -8.3815 -10.1645 -4.221 -1.756 -5.641 -8.873001 -7.6785 -6.106 -5.578001 -5.949 -3.339 -4.882 -9.148001 -7.897 
-8.3255 -10.4945 -9.3555 -9.901 -14.0625 -10.1945 -6.3985 -5.641 -10.361 -13.1681 -10.181 -9.650001 -7.6555 -7.04 -6.983 -10.044 -10.007 
-13.5511 -12.422 -14.3806 -15.7672 -14.0625 -12.5486 -11.2605 -10.361 -14.6561 -15.6706 -13.725 -12.0537 -8.8865 -10.071 -12.354 -11.0188 
-15.4786 -17.4471 -20.2468 -15.7672 -16.4166 -17.4106 -16.1147 -14.6561 -17.1586 -19.2146 -16.1287 -13.2847 -12.0127 -16.004 -13.3288 
-1.934 -3.228 -4.597 -3.277 0 -3.8735 -2.186 -1.8085 -7.448 -4.09 -3.59 -2.356 -5.129 0 -4.63 -4.326 -3.3855 0 
-5.4695 -6.507 -5.4935 -3.277 -3.8735 -5.949 -3.164 -9.123 -10.66 -6.6095 -5.7155 -7.119 -4.221 -4.63 -5.88 -5.8915 -3.3855 
-8.896 -6.6795 -5.4935 -7.536 -5.949 -6.8155 -9.609 -12.7818 -13.1795 -7.996 -10.633 -7.285501 -8.7565 -5.88 -5.915 -5.8915 
-8.998 -6.6795 -9.959001 -8.580001 -6.8155 -13.8273 -13.8416 -15.3013 -14.566 -13.1316 -10.2755 -12.2344 -9.636001 -5.915 -5.915 
-8.998 -10.586 -11.0034 -9.561501 -13.8273 -18.0599 -16.3611 -16.6878 -19.7016 -13.1316 -15.9168 -13.1139 -9.7375 -5.915 
