-4.759 
n/a 
n/a 
n/a 
n/a 
-4.759 
n/a 
n/a 
n/a 
n/a 
-4.759 
n/a 
n/a 
n/a 
n/a 
-4.759 
n/a 
n/a 
n/a 
n/a 
-3.1495 -2.4945 -3.54 -4.2895 -1.7695 -3.7685 -3.8105 -1.7695 -3.4625 0 
-4.459 -5.328 -6.3195 -5.278 -6.081 -8.5835 -5.2 -4.3 -3.4625 
-7.383 -7.094 -7.249001 -11.0175 -11.3702 -10.2356 -7.65 -4.3 
-9.601501 -8.366 -13.3879 -16.3067 -13.0223 -12.6856 -7.65 
-10.735 -14.6995 -18.6771 -17.9588 -15.4723 -12.6856 
-1.7565 -2.3615 0 -4.251 -3.098 -1.4985 -3.0835 -3.54 -4.246 -4.4775 -1.7695 -1.4985 -3.6615 -1.934 -4.2485 
-3.523 -2.3615 -4.251 -6.642 -4.514 -3.535 -5.4995 -6.489 -6.902 -4.816501 -2.7955 -4.9455 -4.437 -6.183 
-3.523 -6.797 -6.642 -8.030001 -5.961 -5.592 -8.3865 -8.738001 -6.9335 -5.2565 -6.484 -5.731 -6.9315 
-8.483 -8.851 -8.030001 -9.484501 -7.668 -8.412001 -10.7533 -8.7735 -7.373001 -8.831 -6.940001 -8.348001 
-10.7462 -10.88 -9.484501 -11.2477 -10.1545 -10.7956 -10.7888 -9.125 -10.2855 -9.09 -9.314 
-1.4985 -3.0835 -3.54 -4.2895 -4.4605 -1.8085 -4.0885 -3.9825 -1.934 -1.4985 -4.2485 -3.6615 0 
-3.535 -5.4995 -6.3195 -9.673 -5.447001 -4.947001 -6.1335 -4.624 -2.6125 -5.307 -6.466001 -3.6615 
-5.592 -9.0425 -12.1388 -10.312 -7.4515 -6.2845 -6.34 -5.1565 -6.895 -7.6785 -6.466001 
-9.091501 -14.8642 -12.7778 -12.3165 -7.476501 -6.444 -6.72 -9.455501 -10.0155 -7.6785 
-14.9224 -15.5032 -14.7823 -12.3415 -7.552001 -6.798501 -11.4782 -12.7698 -10.0155 
-4.84 -1.7565 -3.634 -4.113 -3.4625 -4.8535 -2.264 -1.4985 -3.0835 -3.54 -3.9755 -1.7565 -5.232 0 
-6.613 -5.447001 -7.157001 -4.488501 -8.438 -4.928 -2.9195 -3.535 -5.4995 -5.8685 -4.312 -6.664501 -5.232 
-8.718 -8.078501 -7.661 -8.996 -8.497 -5.479001 -5.1055 -5.592 -8.4135 -5.9265 -9.3395 -6.664501 
-8.853001 -8.220501 -10.5855 -9.051001 -9.029 -7.947501 -7.364 -8.438001 -8.6245 -10.2755 -9.3395 
-8.855 -10.5855 -10.6045 -9.6905 -10.575 -9.151501 -9.9055 -8.653501 -10.564 -10.2755 
