-4.759 
n/a 
n/a 
n/a 
n/a 
-4.759 
n/a 
n/a 
n/a 
n/a 
-4.759 
n/a 
n/a 
n/a 
n/a 
-4.759 
n/a 
n/a 
n/a 
n/a 
-1.934 -2.3615 -6.351501 0 -2.4945 -12.0145 0 -2.4945 -2.8965 -4.2225 -2.3335 -2.4945 -4.045 -1.7565 -3.8735 -1.756 -4.0745 -2.3335 -2.4945 -3.383 -3.689 -4.4345 0 
-3.539 -9.1785 -5.79 -2.4945 -14.872 -12.162 -2.4945 -5.387 -5.936501 -5.9915 -3.947 -6.1085 -4.939 -5.112 -5.3865 -5.4415 -6.5525 -3.947 -4.732 -7.358 -8.365 -4.4345 
-11.689 -10.3675 -9.647501 -15.191 -15.191 -14.428 -5.387 -8.634501 -7.441501 -6.778 -8.984 -6.1375 -9.9055 -6.409 -9.4075 -7.4465 -10.2485 -6.3125 -8.540001 -9.935 -8.365 
-12.3198 -14.225 -22.6406 -15.191 -17.457 -19.0751 -8.634501 -9.367001 -8.380501 -12.2884 -9.114 -10.757 -11.3859 -10.5346 -11.9471 -11.3285 -12.614 -10.543 -11.3216 -9.935 
-16.1773 -27.2181 -22.6406 -17.457 -22.1041 -22.4388 -9.367001 -10.2 -14.0155 -12.4184 -14.4211 -13.514 -15.5115 -13.0742 -15.8291 -13.694 -16.8445 -13.7416 -11.3216 
-2.4265 -2.186 -3.383 -3.644 -4.0745 -3.1575 -3.769 0 
-3.292 -4.438 -5.271 -8.0015 -8.698 -5.38 -3.769 
-5.166 -6.3665 -9.43 -13.499 -9.920501 -5.38 
-7.8955 -9.844001 -15.6425 -14.7215 -9.920501 
-11.6458 -16.0205 -16.865 -14.7215 
-2.4265 -2.7415 -6.351501 0 -12.0145 0 -3.511 -1.934 -3.5155 -3.873 -1.756 -3.4715 -3.152 -5.0075 -1.7695 -3.8735 -3.034 -4.2815 -2.356 -3.769 -2.4265 -2.7415 -3.689 -3.098 0 
-3.681 -8.910501 -5.79 -12.162 -12.162 -3.511 -4.582 -4.6585 -7.151 -5.114 -4.8875 -6.724 -10.123 -5.113 -5.578001 -7.187 -5.568 -4.868001 -5.021501 -5.815001 -3.681 -5.778 -7.5845 -3.098 
-9.8715 -8.6285 -19.2521 -12.162 -15.691 -4.582 -7.8805 -8.402 -7.347 -6.0645 -7.559501 -14.1312 -10.288 -8.43 -8.278001 -9.358 -6.111001 -7.493001 -7.148001 -7.0035 -6.859 -9.946001 -7.5845 
-10.4755 -22.5642 -19.2521 -15.691 -18.2993 -7.8805 -10.674 -8.734501 -7.978 -9.191501 -15.1579 -14.2962 -13.605 -11.5148 -9.9245 -10.116 -8.628501 -9.504001 -8.437501 -9.539001 -11.2428 -9.946001 
-24.4112 -22.5642 -22.7811 -18.2993 -21.7 -10.674 -10.7115 -9.4355 -10.4755 -16.8031 -15.3229 -17.6132 -16.6898 -13.1613 -11.8007 -12.6129 -10.4105 -10.719 -11.0958 -14.1358 -11.2428 
-1.934 -2.3335 -6.351501 0 -5.541 0 -6.4735 -2.8965 -4.2225 -2.186 -3.689 -3.034 -3.3035 -1.7695 -2.9325 -3.8735 -3.251 0 
-4.359 -9.2145 -5.79 -5.541 -5.541 -5.8865 -9.142 -5.936501 -6.433001 -4.993 -6.6735 -7.3785 -5.123 -4.755 -7.682 -6.9985 -3.251 
-11.3935 -9.314001 -12.1815 -5.541 -12.162 -9.089001 -12.65 -8.0415 -9.165001 -8.1035 -11.2656 -10.468 -8.802501 -9.161501 -9.583 -6.9985 
-11.4663 -16.4713 -12.1815 -12.162 -15.3645 -12.791 -15.1338 -10.9311 -12.2593 -12.9264 -14.3551 -14.1475 -13.4268 -11.2849 -9.583 
-18.6236 -16.4713 -19.2521 -15.3645 -19.0665 -15.1338 -18.0234 -14.0254 -17.0822 -16.0159 -18.0346 -18.7718 -15.5502 -11.2849 
