-4.759 
n/a 
n/a 
n/a 
n/a 
-4.759 
n/a 
n/a 
n/a 
n/a 
-4.759 
n/a 
n/a 
n/a 
n/a 
-4.759 
n/a 
n/a 
n/a 
n/a 
-3.4075 -5.1845 -6.844 -4.2245 -12.16972 -8.616 -7.009 
-6.5165 -6.9655 -10.01 -17.25002 -20.78572 -8.841001 
-10.76 -10.051 -23.28892 -25.86602 -21.01072 
-13.8455 -23.36472 -31.90492 -26.09102 
-27.15922 -31.98072 -32.12992 
-8.616 -9.6155 -4.2245 -1.7565 -6.144 
-19.1361 -14.2486 -5.277 -7.7095 
-23.7692 -15.3011 -9.714001 
-24.8217 -19.7381 
-29.2587 
-12.16972 -4.248 -4.2245 0 -12.16972 -7.609 -8.104501 
-16.41772 -8.9615 -4.2245 -12.16972 -19.77872 -16.7065 
-21.13122 -8.9615 -17.25002 -19.77872 -28.87622 
-21.13122 -22.26382 -24.85902 -28.87622 
-34.43354 -29.87282 -33.95652 
-5.1845 -6.844 -3.4075 -16.00822 -7.609 -7.699501 
-6.9655 -9.23 -20.43602 -24.56302 -8.768001 
-9.493 -28.15532 -29.22722 -25.72202 
-28.67112 -35.76432 -30.38622 
-36.28012 -36.92332 
