-4.759 
n/a 
n/a 
n/a 
n/a 
-4.759 
n/a 
n/a 
n/a 
n/a 
-4.759 
n/a 
n/a 
n/a 
n/a 
-4.759 
n/a 
n/a 
n/a 
n/a 
-1.934 -12.16972 -3.634 -6.9985 -4.2995 -4.518 -3.2785 0 
-15.11012 -15.80372 -11.7157 -8.7875 -8.746 -9.0005 -3.2785 
-18.74412 -23.88542 -13.5047 -13.2852 -13.6045 -9.0005 
-26.82582 -25.67442 -18.0024 -18.1437 -13.6045 
-28.61482 -30.17212 -22.8609 -18.1437 
-11.0235 -3.852 -6.9985 -3.6825 -5.0025 -3.2785 0 
-14.8755 -11.9309 -9.712 -9.078501 -8.993 -3.2785 
-22.9544 -14.6444 -15.108 -13.1616 -8.993 
-25.6679 -20.0404 -19.1911 -13.1616 
-31.0639 -24.1235 -19.1911 
-9.316501 -5.0025 -1.934 -12.16972 -5.6265 
-14.558 -6.476 -15.11012 -17.79622 
-16.0315 -20.20072 -20.73662 
-29.75622 -25.82722 
-35.38272 
-1.934 -12.16972 -3.845 -3.326 -4.687 -3.2785 0 
-15.11012 -16.01472 -8.0255 -8.0425 -8.800001 -3.2785 
-18.95512 -20.19522 -13.3576 -12.9723 -8.800001 
-23.13562 -25.52732 -18.2874 -12.9723 
-28.46772 -30.45712 -18.2874 
