-4.759 
n/a 
n/a 
n/a 
n/a 
-4.759 
n/a 
n/a 
n/a 
n/a 
-4.759 
n/a 
n/a 
n/a 
n/a 
-4.759 
n/a 
n/a 
n/a 
n/a 
-4.0415 -4.1985 -3.873 -1.7695 -3.2955 -2.3345 -8.435 -3.3035 -8.4405 -12.16972 
-8.402 -9.139 -5.7395 -6.642001 -4.534 -11.1001 -12.3207 -12.6516 -21.12602 
-13.8647 -11.2413 -11.1922 -8.3745 -14.0608 -14.9858 -21.6688 -25.33712 
-15.967 -16.694 -12.9247 -18.1227 -17.9465 -24.3339 -34.35432 
-21.4197 -18.4265 -22.6729 -22.0084 -27.2946 -37.01942 
-3.75 -4.1865 -3.3035 -5.465 -4.9585 -3.2955 -2.3335 -2.5045 -3.699 -3.5015 -2.0935 -2.985 -4.0415 -4.048 
-6.4385 -7.119 -9.005501 -8.071 -9.165001 -6.015 -4.976501 -5.56 -6.8615 -4.7905 -4.3315 -6.5755 -7.4165 
-8.545 -13.3142 -11.8393 -12.7201 -12.1981 -7.565 -8.370001 -10.1075 -7.863501 -7.252501 -7.959001 -10.688 
-14.9528 -16.148 -16.4884 -15.7532 -13.7481 -11.9189 -13.2773 -11.1095 -10.532 -11.1422 -12.2833 
-17.7866 -20.7971 -19.5215 -17.3032 -18.102 -16.8262 -14.2793 -13.778 -14.4217 -15.4665 
-12.16972 -3.3035 -3.975 -8.226001 -1.7695 -2.9645 -2.3615 -6.099 -2.0935 -4.257 -4.383 
-15.47322 -7.257 -13.1562 -10.841 -3.812 -4.419 -9.0845 -9.4825 -6.670001 -9.9405 
-19.42672 -16.7984 -15.7712 -12.8835 -4.966 -11.9014 -12.755 -14.099 -12.8739 
-28.96812 -19.4134 -17.8137 -14.0375 -12.7648 -15.5719 -17.3715 -20.3029 
-31.58312 -21.4559 -18.9677 -21.8363 -16.4353 -20.1884 -23.5754 
-3.75 -3.8735 -2.229 -3.975 -5.465 -3.2955 -2.3615 -2.5045 -1.8085 -3.918 -2.0935 -3.091 -4.257 -3.772 0 
-6.110001 -5.3655 -6.4095 -8.082001 -9.4065 -5.544 -5.006 -3.3625 -5.439 -5.5555 -4.5345 -6.362 -8.138 -3.772 
-8.946001 -10.5678 -10.4945 -12.5251 -11.886 -7.3965 -5.589 -6.245 -6.4925 -7.995 -8.113001 -10.6465 -8.138 
-14.2353 -14.6528 -14.9376 -15.0046 -13.7385 -7.7585 -8.219501 -6.7335 -8.635 -10.647 -12.6161 -10.6465 
-18.3203 -19.0959 -17.4171 -16.8571 -14.1005 -9.256001 -8.755 -8.778501 -11.347 -15.1501 -12.6161 
