-4.759 
n/a 
n/a 
n/a 
n/a 
-4.759 
n/a 
n/a 
n/a 
n/a 
-4.759 
n/a 
n/a 
n/a 
n/a 
-4.759 
n/a 
n/a 
n/a 
n/a 
-5.8075 -2.4945 -4.985 -3.401 -4.98 -2.0935 -3.711 -1.756 -3.687 -4.98 -2.0935 -3.5485 0 
-6.9355 -8.1805 -8.1265 -7.1715 -6.85 -5.014501 -4.841 -5.358 -7.277 -6.85 -4.787 -3.5485 
-13.5865 -10.233 -12.3126 -9.117001 -10.2755 -5.9205 -8.7115 -9.1215 -9.243 -9.969501 -4.787 
-15.639 -14.6159 -14.2581 -12.8091 -11.3509 -10.4505 -12.761 -11.2251 -12.4913 -9.969501 
-20.0219 -16.5614 -17.9502 -13.8845 -15.8809 -14.5 -14.8646 -14.4734 -12.4913 
-2.0935 -4.1455 -3.401 0 -1.756 -4.1285 -3.687 
-6.205 -7.592 -3.401 -1.756 -5.5985 -8.024 
-10.2865 -7.592 -5.0635 -5.5985 -9.468 
-10.2865 -9.3985 -9.5235 -9.468 
-12.093 -9.8455 -9.974 
-2.0935 -4.1455 -1.4985 -4.825 -3.5765 -1.7565 -3.401 -4.98 -1.756 -2.0935 -4.1285 -1.4985 -3.687 -4.98 -4.923 -2.186 -3.9595 
-6.205 -6.6775 -5.909 -6.948 -6.218 -5.7035 -7.1715 -6.4295 -4.3175 -6.1335 -6.6515 -4.548 -7.277 -8.1025 -6.468 -5.2155 
-9.245001 -11.4004 -8.1195 -8.639001 -10.6095 -9.2845 -8.154 -9.468 -8.385 -8.9755 -9.9275 -7.987 -9.26 -9.745 -8.785001 
-13.9679 -13.6109 -9.226501 -13.3505 -14.1905 -10.3755 -11.3605 -13.6415 -10.6465 -12.3289 -13.4087 -10.292 -11.0073 -12.1272 
-16.1784 -14.7179 -14.1476 -16.9315 -15.2815 -13.582 -15.534 -15.903 -13.9999 -15.8101 -15.7137 -12.3987 -13.3895 
-2.0935 -4.1455 0 -7.746 -4.98 -2.186 -3.2955 -1.756 -1.4985 -3.687 -4.98 -2.186 -3.2955 -2.0935 -4.1285 0 
-6.205 -4.1455 -7.746 -13.2894 -6.5335 -4.348001 -5.223 -3.0405 -4.548 -7.277 -6.5335 -4.348001 -4.307 -6.1335 -4.1285 
-6.205 -12.7883 -13.2894 -14.8429 -8.71 -6.258 -6.1755 -6.452 -7.987 -8.9075 -8.71 -5.274 -8.663 -6.1335 
-15.4388 -18.3317 -14.8429 -17.0194 -11.091 -7.0305 -9.8275 -9.579 -9.458501 -10.6215 -9.918 -9.609501 -8.663 
-20.9822 -19.8852 -17.0194 -19.4004 -11.8635 -10.003 -13.2843 -10.7585 -11.2045 -12.2429 -14.3109 -9.609501 
