-4.759 
n/a 
n/a 
n/a 
n/a 
-4.759 
n/a 
n/a 
n/a 
n/a 
-4.759 
n/a 
n/a 
n/a 
n/a 
-4.759 
n/a 
n/a 
n/a 
n/a 
-1.934 -4.129 -4.126 -3.595 -4.235 -1.7565 -2.229 0 
-6.2175 -8.4655 -9.403501 -7.418 -5.388 -5.3255 -2.229 
-10.238 -14.0036 -13.3511 -8.881001 -9.144 -5.3255 
-15.7761 -17.9512 -14.8141 -12.9304 -9.144 
-19.7237 -19.4142 -18.8635 -12.9304 
-4.253 -2.9805 -2.356 -3.091 -4.235 -2.229 0 
-6.7095 -6.7405 -4.513 -5.1065 -5.0915 -2.229 
-10.9183 -7.62 -6.311 -5.8285 -5.0915 
-11.7978 -9.401501 -7.349501 -5.8285 
-13.5793 -10.3355 -7.349501 
-2.5045 -1.4985 -4.129 -3.091 -4.235 -2.229 
-3.1915 -5.424 -6.832 -5.1065 -5.0915 
-6.963 -10.597 -9.6327 -5.8285 
-12.7264 -13.3977 -10.3547 
-15.5271 -14.1197 
-7.785 -2.9805 -2.229 -4.235 -1.7565 -2.229 
-10.8025 -4.2145 -5.509 -5.388 -5.3255 
-12.0365 -8.7545 -7.936501 -9.144 
-16.5765 -9.174001 -11.9555 
-16.996 -13.7562 
