-4.759 
n/a 
n/a 
n/a 
n/a 
-4.759 
n/a 
n/a 
n/a 
n/a 
-4.759 
n/a 
n/a 
n/a 
n/a 
-4.759 
n/a 
n/a 
n/a 
n/a 
-4.386 -1.7565 -4.1865 -4.2335 -1.756 -4.2225 -12.16972 -4.0555 -2.5195 -12.16972 
-4.539 -5.463 -8.1615 -5.316 -5.5795 -17.31682 -16.22522 -5.0775 -15.36282 
-8.615001 -8.317 -9.683001 -5.969 -19.11202 -21.37232 -17.24722 -18.36862 
-11.6778 -10.553 -10.5885 -19.99512 -23.16752 -22.39432 -30.53834 
-13.9138 -11.4585 -24.61462 -24.05062 -24.18952 -35.68544 
-3.17 -1.7565 -1.4985 -4.1865 -4.2335 -1.756 -4.2225 -4.819 -4.0555 -2.5195 -12.16972 -4.418 0 
-4.179 -2.4195 -5.177 -8.1615 -5.316 -5.5795 -8.744 -7.601 -5.0775 -15.36282 -16.58772 -4.418 
-4.497 -5.9285 -9.732 -9.683001 -5.969 -10.322 -11.709 -8.5065 -18.36862 -19.78082 -16.58772 
-8.0255 -10.459 -11.3605 -10.5885 -10.7025 -13.287 -12.6145 -21.92862 -22.78662 -19.78082 
-12.7934 -12.0875 -12.266 -15.322 -13.6675 -14.1925 -26.03662 -26.34662 -22.78662 
-3.3715 -4.1865 -5.1405 0 -4.282 -3.3435 -4.0555 -2.5195 -12.16972 -1.756 -4.0555 -1.7695 -3.8735 0 
-7.212501 -9.943001 -5.1405 -4.282 -6.3725 -7.212501 -5.0775 -15.36282 -13.92572 -5.629 -4.7475 -5.578001 -3.8735 
-13.4948 -9.943001 -9.953501 -6.3725 -10.2755 -8.086 -18.36862 -17.11882 -17.79872 -6.2905 -7.797 -5.578001 
-13.4948 -14.756 -12.044 -10.2755 -11.442 -21.69112 -20.12462 -20.99182 -18.46022 -9.450001 -7.797 
-18.3078 -16.8465 -15.947 -11.442 -25.04712 -23.44712 -23.99762 -21.65332 -21.61972 -9.450001 
-3.3715 -4.1865 -4.055 -1.756 -4.141 -4.178 -4.0555 -1.934 -1.4985 -3.3755 -1.7565 -3.45 -5.2025 -1.934 -10.3915 
-7.212501 -8.2985 -5.365 -5.6005 -6.2635 -8.2195 -5.263 -2.6125 -4.057 -4.5295 -4.322 -8.823501 -6.014501 -13.3319 
-11.8503 -10.1035 -6.2815 -6.868 -10.485 -9.335 -6.174 -5.1455 -5.3375 -7.827001 -9.6855 -9.794001 -17.97 
-13.6553 -11.02 -6.908501 -11.2899 -11.6005 -10.7234 -8.359 -5.606501 -7.907001 -13.5755 -10.3495 -21.7107 
-14.5718 -11.647 -11.3564 -12.4054 -12.9889 -12.9084 -8.6815 -8.199 -13.7353 -14.2395 -22.2662 
