-4.759 
n/a 
n/a 
n/a 
n/a 
-4.759 
n/a 
n/a 
n/a 
n/a 
-4.759 
n/a 
n/a 
n/a 
n/a 
-4.759 
n/a 
n/a 
n/a 
n/a 
-3.321 -1.4985 -3.535 -4.5585 -1.7565 -5.494 -3.8105 -3.6615 -1.934 -1.4985 -3.5435 -5.377 -4.1865 0 
-4.481 -4.255 -6.632 -5.449 -7.6095 -10.335 -7.1955 -4.437 -2.6125 -4.2755 -9.004001 -10.75 -4.1865 
-7.4055 -6.941 -7.2355 -12.0632 -12.8587 -13.9298 -7.5465 -5.0245 -5.924 -10.243 -14.4094 -10.75 
-10.7495 -7.298501 -14.5281 -17.3124 -16.4535 -14.2808 -8.14 -8.0825 -12.2793 -15.6484 -14.4094 
-11.107 -14.7041 -19.7773 -20.9072 -16.8045 -14.8743 -11.2742 -14.6666 -17.6847 -15.6484 
-1.756 -1.4985 -3.699 -4.5585 -1.7565 -5.9355 -4.154 -4.767 -3.6615 
-3.0405 -5.264 -7.1745 -5.449 -6.8195 -10.2945 -8.554501 -6.8135 
-6.8755 -8.2235 -8.087 -11.0995 -11.7 -14.0139 -10.4675 
-9.9975 -8.7085 -12.9326 -15.2307 -16.6943 -15.9701 
-10.6385 -13.5933 -18.3541 -19.8296 -18.6073 
-1.4985 -4.415 -1.7565 -4.1735 -2.229 -5.473 -3.2795 
-5.4025 -5.449501 -6.146 -6.268 -7.7095 -9.956 
-5.7235 -10.0745 -8.446501 -12.3933 -12.5479 
-10.411 -12.375 -14.7226 -17.2317 
-12.7115 -18.6511 -19.561 
-3.074 -3.699 -3.724 -2.3345 -5.473 -4.0375 -1.7565 -4.1735 
-5.729 -7.783 -5.919001 -7.724 -10.674 -5.415501 -6.146 
-10.6095 -9.788 -11.9819 -13.3 -12.052 -10.674 
-12.6145 -16.0879 -17.5579 -14.678 -17.3105 
-18.9144 -21.6639 -18.9359 -19.9365 
