-4.759 
n/a 
n/a 
n/a 
n/a 
-4.759 
n/a 
n/a 
n/a 
n/a 
-4.759 
n/a 
n/a 
n/a 
n/a 
-4.759 
n/a 
n/a 
n/a 
n/a 
-3.327 -5.007 -6.301 -3.9265 -1.756 -3.5045 -3.65 0 
-10.27 -12.4988 -6.865 -5.489 -5.085 -5.9985 -3.65 
-18.0388 -13.0628 -8.262 -6.441 -7.08 -5.9985 
-18.6028 -14.4598 -9.0365 -7.475 -7.08 
-19.9998 -15.2343 -10.1905 -7.475 
-3.327 -2.264 -3.4155 -4.6095 -3.539 -3.9265 -1.756 -3.5045 -3.65 
-4.167 -6.7895 -9.081501 -5.7545 -5.376 -5.489 -5.085 -5.9985 
-7.98 -12.9389 -9.5515 -6.124001 -6.837 -6.441 -7.08 
-14.8102 -13.4089 -9.7925 -7.436 -7.612501 -7.475 
-15.2802 -13.6499 -10.4165 -8.181001 -9.5795 
-5.007 -4.6095 -3.539 -2.664 -2.9385 -3.0465 -1.4985 -3.65 
-9.892 -5.7545 -6.1755 -5.9915 -5.88 -4.046 -5.190001 
-11.4836 -8.6815 -9.400001 -9.206 -6.941 -8.037001 
-14.4106 -12.1992 -12.6145 -10.3755 -11.1106 
-17.9283 -15.4137 -13.784 -14.5451 
-3.013 -3.327 -5.007 -4.6095 -3.539 -3.9265 -1.756 -3.327 -1.4985 -3.9115 0 
-6.530001 -10.27 -9.892 -5.7545 -5.376 -5.489 -4.756001 -4.386 -4.888 -3.9115 
-14.4514 -15.432 -11.4836 -6.124001 -6.837 -6.891 -5.5215 -7.543 -4.888 
-19.6134 -17.0236 -11.8531 -7.436 -7.5175 -7.769 -8.736 -7.543 
-21.205 -17.3931 -13.1651 -8.354001 -8.372001 -10.1585 -8.736 
