-4.759 
n/a 
n/a 
n/a 
n/a 
-4.759 
n/a 
n/a 
n/a 
n/a 
-4.759 
n/a 
n/a 
n/a 
n/a 
-4.759 
n/a 
n/a 
n/a 
n/a 
-2.3615 -3.3425 -2.186 -3.115 -2.5685 -1.4985 -2.8965 -3.8225 -4.031 -2.264 -1.4985 -3.16 0 
-5.091 -5.0375 -4.989 -5.481501 -3.7015 -3.928 -6.1905 -8.588501 -6.576 -2.9195 -4.0625 -3.16 
-6.0325 -8.432 -7.506001 -6.196001 -5.397 -7.4645 -10.523 -11.3935 -7.16 -4.6215 -4.0625 
-10.1225 -11.0822 -8.057 -6.8545 -8.9875 -11.973 -13.328 -11.9775 -8.38 -4.6215 
-13.4203 -11.6332 -8.7405 -10.7015 -13.5664 -14.778 -13.912 -13.1975 -8.38 
-3.1495 -3.473 -4.251 -3.5025 -3.473 0 
-7.738 -8.233 -8.848001 -7.1195 -3.473 
-13.1754 -13.2092 -12.6644 -7.1195 
-18.1516 -17.0256 -12.6644 
-21.968 -17.0256 
-2.3615 -3.473 -2.882 -2.489 -3.3785 -3.473 
-6.1505 -7.0195 -3.631 -6.736 -6.5385 
-8.4785 -7.519 -7.5845 -10.7025 
-8.759001 -11.9927 -12.0264 
-13.6117 -16.4346 
-3.1495 -4.031 -3.115 -2.8965 -3.3785 -4.031 -1.7565 -1.4985 -3.4605 -2.882 -4.3185 
-7.342501 -7.504 -5.740001 -6.077001 -7.6435 -4.8995 -2.4195 -4.652 -5.888 -5.103001 
-11.5277 -10.0545 -9.276001 -11.0962 -8.4245 -5.3865 -5.5235 -6.891 -6.85 
-14.0782 -13.8257 -14.4392 -11.8772 -8.8435 -7.678 -7.632 -7.807 
-17.8494 -18.9889 -15.2202 -12.2962 -11.2432 -9.413501 -9.321 
