-4.759 
n/a 
n/a 
n/a 
n/a 
-4.759 
n/a 
n/a 
n/a 
n/a 
-4.759 
n/a 
n/a 
n/a 
n/a 
-4.759 
n/a 
n/a 
n/a 
n/a 
-5.1845 -5.74 -2.186 -2.871 -1.7565 -1.4985 -4.09 -4.109 -3.468 -1.934 -3.8735 
-5.7465 -7.964001 -4.247 -3.5385 -2.4195 -5.988 -7.857 -7.8715 -5.1985 -4.885 
-7.973001 -9.1485 -4.411 -3.7675 -6.7535 -8.8865 -9.863001 -9.0985 -7.561501 
-9.1545 -9.189 -4.5655 -8.612 -9.656501 -10.674 -11.1472 -11.6157 
-9.193001 -9.2285 -9.477 -10.586 -11.442 -11.9582 -13.6644 
-6.557 -2.186 -2.871 -1.7565 -1.4985 -4.09 -3.468 -1.934 -3.8735 -2.356 -4.6495 -1.7695 -4.109 -3.3825 
-8.833 -4.247 -3.5385 -2.4195 -5.988 -7.7475 -5.1985 -4.885 -6.3865 -5.0705 -4.846 -6.239 -6.012 
-10.2185 -4.411 -3.7675 -6.7535 -8.828501 -8.877501 -7.561501 -6.853001 -8.836 -5.0755 -8.606501 -7.9215 
-10.2725 -4.5655 -8.612 -9.5465 -10.061 -9.703501 -9.2235 -9.348001 -8.837501 -8.720501 -9.913001 
-10.3035 -9.477 -10.66 -10.6355 -10.9086 -11.4025 -11.7773 -9.351001 -12.5229 -10.078 
-6.557 -2.186 -2.871 -1.7565 -1.4985 -4.09 -3.1715 -1.934 -4.3035 -1.934 -3.8735 
-8.833 -4.247 -3.5385 -2.4195 -5.988 -7.653501 -5.1815 -6.577 -5.9305 -4.885 
-10.2185 -4.411 -3.7675 -6.7535 -9.248501 -8.990001 -10.1675 -8.196 -7.959001 
-10.2725 -4.5655 -8.612 -10.2695 -10.6956 -14.3366 -11.7865 -10.3535 
-10.3035 -9.477 -12.3384 -11.7166 -16.0422 -15.9556 -13.944 
-5.1845 -5.74 -2.186 -4.1205 -2.5045 -2.871 -1.4985 -3.17 -4.09 -4.109 -3.1715 -1.934 -3.8735 
-5.7465 -7.964001 -5.007 -5.3175 -4.7085 -5.1 -3.7115 -6.773 -7.857 -7.6875 -5.1815 -4.885 
-7.973001 -10.4425 -6.317 -6.802 -7.159 -6.7835 -7.127 -9.3275 -10.4425 -9.030001 -7.614 
-10.459 -11.7525 -7.384 -9.161 -8.3005 -10.1635 -9.509501 -12.1446 -11.785 -11.7219 
-11.769 -12.8195 -9.688001 -9.8855 -11.8631 -12.546 -12.2756 -13.4871 -14.4769 
