-4.759 
n/a 
n/a 
n/a 
n/a 
-4.759 
n/a 
n/a 
n/a 
n/a 
-4.759 
n/a 
n/a 
n/a 
n/a 
-4.759 
n/a 
n/a 
n/a 
n/a 
-2.4265 -2.186 -1.7695 -2.489 -4.4155 -2.3335 -2.5195 -4.788 -1.7695 -5.328 0 -6.864 -2.229 -5.2875 -6.292 -1.4985 -3.59 -4.478 
-3.292 -3.8745 -3.1405 -6.0695 -5.6635 -5.569 -7.460501 -7.147 -7.421 -5.328 -6.864 -8.205501 -7.5895 -9.074 -8.1005 -4.268 -8.536 
-5.165 -4.7485 -6.732501 -6.853 -8.826 -11.0734 -8.199 -9.5245 -7.421 -12.8202 -8.205501 -14.4482 -11.6816 -10.9959 -9.998 -8.925501 
-5.818501 -8.35 -7.836501 -9.543 -14.5244 -11.8119 -10.007 -9.5245 -15.325 -14.1617 -14.4482 -18.5403 -13.6035 -12.8934 -14.6555 
-8.646 -8.777 -10.494 -15.3946 -15.2629 -13.6199 -10.007 -17.6419 -16.6665 -20.4044 -18.5403 -20.4622 -15.501 -17.5509 
-2.4265 -2.186 -3.074 -3.699 -7.4885 -4.6825 -2.7415 -5.3905 -3.458 -4.788 -1.756 -5.328 -3.9055 
-3.292 -4.156 -5.729 -12.5309 -12.7982 -6.733001 -7.4615 -10.259 -8.067501 -7.228 -7.7275 -8.280001 
-4.91 -5.927 -15.3777 -17.8406 -14.8487 -11.8644 -12.9812 -14.9175 -8.380501 -9.531 -10.0215 
-6.1025 -16.0339 -20.6874 -19.8911 -19.9801 -17.3841 -17.6397 -15.2305 -10.096 -12.0216 
-17.4522 -21.3436 -22.7379 -25.0225 -25.4998 -22.0426 -17.9527 -16.946 -12.5866 
-1.934 -3.158 -4.788 -1.7695 -5.328 -6.864 -4.6825 -12.16972 -2.3615 -2.95 
-5.7375 -8.46 -7.147 -7.421 -12.8202 -8.668501 -17.79102 -14.53122 -4.4645 
-12.0461 -10.543 -9.5245 -15.325 -14.6247 -22.04822 -20.15252 -16.63422 
-14.1291 -12.9205 -17.6419 -17.1295 -28.00442 -24.40972 -22.25552 
-16.5066 -21.0379 -19.4464 -30.50922 -30.36592 -26.51272 
-2.4265 -2.186 -4.076 -2.3335 -2.5195 -4.788 -3.9055 -1.7695 -5.328 -3.9055 -6.864 -4.6825 -2.7415 -4.212 0 
-3.292 -5.795 -6.591001 -5.569 -7.460501 -8.6115 -6.068 -7.421 -8.280001 -10.2985 -8.668501 -6.733001 -5.965 -4.212 
-6.7545 -7.008 -9.654 -11.0734 -10.1345 -9.9405 -10.3545 -8.4785 -15.258 -12.305 -10.2645 -10.5325 -5.965 
-7.024 -9.883 -15.2772 -13.7474 -10.25 -14.227 -10.415 -16.2617 -17.2645 -13.901 -14.064 -10.5325 
-9.884501 -15.5052 -17.9512 -13.8629 -14.5365 -14.2875 -18.1982 -18.2682 -18.8605 -17.7005 -14.064 
