-4.759 
n/a 
n/a 
n/a 
n/a 
-4.759 
n/a 
n/a 
n/a 
n/a 
-4.759 
n/a 
n/a 
n/a 
n/a 
-4.759 
n/a 
n/a 
n/a 
n/a 
-11.0235 -2.3085 -4.682 -1.4985 -6.864 -4.418 -1.756 -2.9805 -2.186 -4.185 -1.934 -6.557 -3.97 -3.519 -3.5065 0 
-13.332 -7.48 -6.0545 -7.8675 -10.784 -5.694 -4.3555 -4.1635 -7.197001 -5.627 -7.536 -9.6175 -7.191 -7.2665 -3.5065 
-18.5035 -8.106501 -12.9007 -12.3851 -12.06 -9.059501 -5.5675 -8.3675 -7.6445 -11.8156 -10.8443 -13.0365 -11.8343 -7.2665 
-19.13 -15.1123 -17.4183 -13.6611 -15.4255 -10.1765 -9.873501 -8.722 -14.0351 -15.1239 -14.2633 -17.6798 -11.8343 
-26.1358 -19.6299 -18.6943 -17.0266 -16.5425 -14.4825 -10.092 -15.1786 -17.3434 -18.5429 -18.9066 -17.6798 
-2.9805 -2.186 -3.849 -2.5045 -4.208 -8.881001 -1.934 -3.9655 0 -2.9805 -4.38 -3.091 -4.887 
-4.1635 -4.8565 -6.305 -7.225 -14.0574 -11.387 -5.717 -3.9655 -2.9805 -7.322001 -6.977 -8.210501 
-6.91 -7.104 -10.6095 -17.4942 -16.5634 -15.17 -5.717 -7.9265 -7.322001 -8.064501 -12.7045 
-9.0845 -11.5383 -20.8787 -20.0002 -20.3464 -15.17 -10.6038 -12.4426 -8.064501 -13.9424 
-13.6238 -21.8075 -23.3847 -23.7832 -20.3464 -20.0568 -15.1199 -13.1851 -13.9424 
-1.4985 -3.6765 -3.0695 -2.186 -3.849 -2.5045 -3.0835 -9.262501 -4.303 -1.8085 -4.602 -3.9825 -1.934 -3.97 -1.756 -4.2745 -7.4885 -4.8015 
-4.501 -4.7945 -4.2675 -4.8565 -6.305 -5.9195 -13.5562 -13.6999 -5.363 -6.177501 -9.1085 -4.624 -5.607 -5.137 -5.792 -12.9096 -12.9172 
-5.3435 -5.549 -7.152 -7.104 -9.2735 -16.9512 -17.9936 -14.7599 -10.287 -11.5184 -10.0432 -7.663 -6.5835 -10.4176 -14.8079 -18.3383 
-6.3695 -8.514501 -9.119 -10.335 -20.5212 -21.3886 -19.0536 -19.6839 -16.0743 -12.4531 -13.0822 -8.4635 -12.2147 -19.4335 -20.2366 
-9.0745 -9.818001 -12.9402 -21.5827 -24.9586 -22.4486 -23.9776 -25.4712 -17.009 -15.4921 -13.8827 -14.3087 -21.2306 -24.8622 
-3.0835 -9.262501 -1.934 -6.557 -2.8645 -3.383 -5 
-13.5562 -11.3309 -7.536 -9.126 -5.9505 -6.227 
-15.6246 -16.9329 -9.8605 -12.1904 -9.165501 
-21.2266 -19.2574 -12.9455 -15.4054 
-23.5511 -22.3424 -16.1605 
