-4.759 
n/a 
n/a 
n/a 
n/a 
-4.759 
n/a 
n/a 
n/a 
n/a 
-4.759 
n/a 
n/a 
n/a 
n/a 
-4.759 
n/a 
n/a 
n/a 
n/a 
-6.903 -5.7205 -2.356 -6.848001 -4.7475 -2.9805 -5.9375 -2.356 -6.848001 -1.756 -3.9535 -3.5205 -3.6825 -3.9205 -2.5045 -5.1845 -3.4075 -3.6825 -1.934 -4.82 
-13.3153 -6.001501 -8.776501 -12.1025 -7.034 -7.741001 -7.144001 -8.776501 -8.3605 -5.4855 -8.669001 -6.411 -7.7935 -4.449 -8.208 -7.849501 -6.165501 -5.357 -6.055 
-13.5963 -13.4742 -14.4034 -14.389 -12.0083 -8.505501 -14.1165 -10.5865 -12.6004 -9.977501 -11.8723 -10.442 -7.9935 -9.444 -11.0832 -9.767 -7.874001 -9.2585 
-21.069 -19.1011 -16.6899 -19.3633 -12.7728 -15.7928 -15.9265 -14.8264 -17.0924 -13.1808 -15.9033 -10.546 -13.4357 -12.657 -13.0007 -11.8319 -12.0773 
-26.6959 -21.3876 -21.6642 -20.1278 -20.0601 -17.6028 -20.1664 -19.3184 -20.2957 -17.2118 -16.0073 -15.9882 -16.6487 -14.5745 -15.0656 -16.0352 
-1.934 -3.5715 -7.181 0 -6.946 -3.8755 -1.4985 -7.539001 -10.0295 0 -2.9905 -1.7565 -1.4985 -4.1585 -3.6825 -1.756 -1.4985 -7.9205 -4.2995 -2.5045 -1.4985 -4.9395 -5.0075 -3.711 0 
-5.0835 -12.3765 -7.181 -6.946 -10.985 -5.275 -8.479 -10.8025 -10.0295 -2.9905 -3.6185 -2.4195 -5.6005 -7.5125 -5.315 -3.0405 -7.7935 -11.116 -6.617 -3.1915 -6.475 -11.046 -7.977 -3.711 
-13.5991 -12.3765 -15.0188 -10.985 -12.3845 -12.4989 -12.0555 -10.8025 -13.1756 -3.6185 -4.3385 -6.508 -8.5185 -8.932501 -6.1835 -9.331 -10.64 -11.4928 -7.14 -7.6755 -13.3915 -14.0155 -7.977 
-13.5991 -20.2143 -19.0578 -12.3845 -19.6084 -16.0754 -12.0555 -13.9486 -13.8036 -4.3385 -8.540001 -9.0865 -9.621501 -9.4455 -12.444 -10.385 -11.8777 -12.1082 -11.9888 -14.9704 -16.361 -14.0155 
-21.4369 -24.2533 -20.4573 -19.6084 -23.1849 -16.0754 -15.2016 -14.5766 -14.5236 -8.540001 -11.6533 -10.016 -10.049 -15.764 -13.7125 -12.9419 -12.5319 -16.957 -19.2837 -17.9399 -16.361 
-2.3615 -3.8755 -5.8755 -3.1715 -1.934 -1.4985 -3.6825 -1.756 -3.0415 -2.9805 -4.543 -1.4985 -3.6825 -1.756 -3.8755 -3.091 -3.5205 -3.6825 -1.934 -4.82 -3.849 -5.1845 -5.8475 -3.6825 0 
-6.7985 -10.4855 -8.1455 -5.1815 -2.6125 -4.87 -5.315 -4.454 -5.0885 -6.811 -6.1365 -4.87 -5.315 -5.7875 -6.87 -4.613 -6.411 -5.357 -6.055 -9.120001 -8.881001 -8.7675 -6.877 -3.6825 
-13.8179 -12.7555 -10.016 -5.7925 -6.3985 -6.299 -7.924 -6.387 -8.207001 -7.681 -8.1825 -6.299 -9.215501 -7.837 -7.2075 -6.7345 -7.9075 -9.2585 -9.529501 -14.2656 -12.7036 -10.3165 -6.877 
-16.0879 -14.626 -10.796 -10.223 -7.561501 -8.696 -9.651501 -9.687 -9.274 -9.366501 -9.1025 -10.0065 -11.5948 -7.987 -9.710501 -8.1785 -12.1812 -12.8126 -14.7127 -18.0882 -14.2526 -10.3165 
-17.9584 -15.406 -15.2265 -11.5118 -9.715 -10.13 -13.0017 -10.535 -11.0075 -10.299 -12.9344 -12.5388 -11.7448 -10.442 -11.2737 -12.5608 -15.7353 -17.9958 -18.5353 -19.6372 -14.2526 
-2.3615 -4.6205 -5.3895 -1.7695 -8.065001 -1.934 -6.848001 -2.9705 -4.4565 -1.7695 -3.091 -4.436 -2.5195 -3.0365 -1.756 -3.9535 -1.8085 -2.688 -3.6825 -4.281 0 -5.1845 -12.16972 -7.073 0 -1.934 -4.82 0 
-6.0985 -9.403 -6.912 -10.523 -10.276 -9.1225 -9.414001 -5.862 -4.9325 -4.458 -7.1185 -6.093 -5.2895 -4.927 -5.4855 -5.581 -3.642 -6.4915 -7.601501 -4.281 -5.1845 -18.64862 -19.24272 -7.073 -1.934 -6.055 -4.82 
-11.5294 -11.1591 -16.4681 -12.734 -17.4645 -11.8599 -12.4959 -6.033501 -7.6985 -8.807 -7.6805 -8.990001 -6.817 -7.955501 -6.748 -6.443 -7.13 -9.6555 -7.601501 -9.72 -18.64862 -25.72162 -19.24272 -9.208501 -6.055 -6.055 
-13.2855 -20.7152 -18.6791 -19.9225 -20.2019 -14.9418 -12.6674 -8.5325 -10.688 -9.3855 -11.1879 -10.494 -9.711 -9.422001 -7.7085 -9.676001 -9.818001 -9.6555 -13.6231 -23.51272 -25.72162 -25.72162 -21.37822 -13.6655 -6.055 
-22.8416 -22.9262 -25.8676 -22.6599 -23.2838 -15.1133 -15.1664 -11.5506 -10.7735 -13.1579 -12.6919 -13.388 -11.1579 -10.397 -10.163 -12.5404 -9.818001 -15.8299 -27.41582 -30.58572 -25.72162 -27.85712 -25.83522 -13.6655 
