-4.759 
n/a 
n/a 
n/a 
n/a 
-4.759 
n/a 
n/a 
n/a 
n/a 
-4.759 
n/a 
n/a 
n/a 
n/a 
-4.759 
n/a 
n/a 
n/a 
n/a 
-2.872 0 -3.034 -4.176 -4.3035 -1.7695 -3.859 -2.985 -4.5605 -1.7695 -4.152 -6.009 -2.229 -4.5605 0 -6.009 -4.164 -3.1435 -4.2215 0 
-2.872 -3.034 -7.644501 -9.416 -4.6755 -4.462 -5.9655 -7.5965 -6.6505 -5.515 -10.4425 -7.826 -5.6175 -4.5605 -6.009 -10.7665 -6.077 -7.1215 -4.2215 
-4.870501 -7.644501 -13.2863 -9.587501 -7.121 -6.283 -10.4265 -9.217001 -10.107 -12.5935 -12.2595 -11.5367 -5.6175 -9.692 -10.7665 -12.6795 -9.345 -7.1215 
-9.684001 -13.2863 -13.4578 -12.1138 -9.071 -10.6595 -12.047 -12.7705 -17.3525 -14.4105 -15.9702 -11.5367 -11.3742 -15.0815 -12.6795 -15.9475 -9.345 
-15.3782 -13.4578 -15.9841 -14.0638 -13.5713 -12.28 -15.6005 -20.016 -19.1695 -18.1212 -15.9702 -17.2934 -16.7637 -16.9945 -15.9475 -15.9475 
-2.872 -3.034 -3.982 -4.4665 -1.7695 -4.0545 -2.985 -4.5605 -4.257 -1.7695 -4.048 -2.356 -4.065 0 -2.925 -4.164 -2.985 -4.0515 0 
-4.870501 -7.4965 -7.811501 -5.5575 -4.4685 -5.7375 -7.5965 -7.113501 -6.2085 -5.053 -5.607501 -6.432 -4.065 -2.925 -6.336 -5.965 -6.649 -4.0515 
-9.411 -10.66 -7.890501 -7.877001 -6.011 -11.3658 -10.7347 -10.4675 -9.734 -7.089 -10.085 -6.432 -7.844501 -6.336 -7.101501 -8.580501 -6.649 
-12.6451 -10.739 -12.0872 -10.259 -11.7369 -14.504 -14.0887 -13.993 -11.7112 -12.1349 -10.085 -10.76 -11.3595 -7.101501 -9.4875 -8.580501 
-12.7241 -14.9357 -14.4692 -15.9849 -14.8751 -17.858 -17.6142 -15.9702 -16.7571 -12.1349 -14.5248 -14.275 -12.125 -9.4875 -9.4875 
-3.433 -2.872 0 -3.982 -3.74 -1.7695 -4.152 -3.1435 -5.4805 -1.7695 -1.4985 -8.9475 -5.4805 0 -3.0415 -12.16972 -3.4625 -3.091 -4.2215 
-7.707 -2.872 -3.982 -8.64 -4.2995 -5.515 -7.436001 -8.34 -7.5815 -2.7955 -11.5398 -14.781 -5.4805 -3.0415 -16.30202 -15.63222 -6.061 -6.924 
-7.707 -7.672501 -8.64 -9.221 -8.010501 -7.8755 -13.0127 -10.8668 -8.568501 -13.072 -17.3733 -14.781 -8.656 -16.30202 -19.76452 -18.23072 -9.3745 
-12.8843 -12.9919 -9.221 -13.0456 -10.389 -13.6478 -15.5395 -11.8538 -19.142 -18.9055 -17.3733 -17.9565 -22.22192 -19.76452 -22.36302 -21.54422 
-18.2037 -13.5729 -13.0456 -15.4241 -16.1613 -16.1746 -16.5265 -22.4273 -24.9755 -18.9055 -20.5488 -31.52242 -25.68442 -22.36302 -25.67652 
-2.872 -3.7015 -12.16972 -2.229 -4.5605 -3.9665 -4.176 -3.9535 -5.118 -2.985 -4.5605 -3.9665 0 -12.16972 -4.164 -2.985 -3.992 0 
-6.77 -16.86122 -14.39872 -5.6175 -8.303 -8.158501 -9.1005 -10.674 -6.889 -7.5965 -8.303 -3.9665 -12.16972 -16.33372 -5.965 -6.144 -3.992 
-20.41432 -19.09022 -17.78722 -9.6815 -12.9416 -13.7686 -16.0796 -12.445 -12.3121 -11.9242 -8.303 -17.14282 -16.33372 -18.13472 -8.4135 -6.144 
-22.64332 -22.47872 -21.85122 -14.3821 -18.5517 -20.7477 -17.8506 -17.8681 -16.6398 -11.9242 -21.92592 -21.30682 -18.13472 -20.58322 -8.4135 
-26.03182 -26.54272 -26.55182 -19.9922 -25.5308 -22.5187 -23.2737 -22.1958 -16.6398 -25.54712 -26.08992 -23.10782 -20.58322 -20.58322 
