-4.759 
n/a 
n/a 
n/a 
n/a 
-4.759 
n/a 
n/a 
n/a 
n/a 
-4.759 
n/a 
n/a 
n/a 
n/a 
-4.759 
n/a 
n/a 
n/a 
n/a 
-6.864 -4.795 -5.0595 -8.045501 0 -6.971 0 -7.243001 -12.16972 -1.756 -3.3715 -3.535 -5.709 0 -1.756 -4.101 -2.264 -1.4985 -3.973 -5.6305 -4.0965 0 
-12.4468 -8.530001 -14.0392 -8.045501 -6.971 -6.971 -7.243001 -19.93672 -13.92572 -4.6545 -6.0235 -8.144501 -5.709 -1.756 -5.32 -5.091001 -2.9195 -5.697001 -10.223 -10.6475 -4.0965 
-16.1818 -18.1809 -14.0392 -15.7193 -6.971 -14.9092 -19.93672 -21.69272 -16.82422 -7.455 -9.216001 -8.144501 -7.0615 -5.32 -6.172 -6.309 -7.3605 -12.3216 -15.24 -10.6475 
-25.8327 -18.1809 -21.713 -15.7193 -14.9092 -27.60292 -21.69272 -24.59122 -19.62472 -10.7585 -9.216001 -9.1295 -11.2275 -6.172 -7.7095 -8.904501 -14.2411 -17.3386 -15.24 
-25.8327 -25.8547 -21.713 -23.6575 -27.60292 -29.35892 -24.59122 -27.39172 -22.92822 -10.7585 -10.0015 -13.5323 -12.0795 -7.7095 -9.753 -16.4437 -19.2581 -17.3386 
-6.864 -4.348 -5.2725 -1.4985 -12.16972 0 -8.755501 0 -7.243001 -9.738001 -1.756 -3.135 -3.535 -7.27 -3.074 -2.4265 -5.2725 -1.4985 -5.891 -4.1265 0 
-10.1855 -8.101501 -6.1685 -14.76202 -12.16972 -8.755501 -8.755501 -7.243001 -17.505 -11.5496 -4.5755 -5.962501 -11.9858 -10.233 -5.653 -7.79 -6.1685 -7.996 -10.7335 -4.1265 
-13.939 -8.417 -19.99982 -14.76202 -20.92522 -8.755501 -16.3395 -17.505 -19.3166 -14.3691 -7.264 -14.6767 -14.9488 -12.812 -12.0115 -8.5135 -13.2338 -13.1017 -10.7335 
-14.2545 -22.61672 -19.99982 -23.51752 -20.92522 -16.3395 -26.6015 -19.3166 -22.1361 -17.0576 -16.1136 -17.6397 -17.5278 -19.1705 -12.735 -15.6988 -18.3395 -13.1017 
-28.45422 -22.61672 -28.75532 -23.51752 -28.50922 -26.6015 -28.4131 -22.1361 -24.8246 -25.9072 -19.0766 -20.2187 -23.8863 -19.894 -19.9203 -20.8045 -18.3395 
-8.342 0 -12.16972 0 -12.16972 -3.45 0 -3.9955 -3.7015 -3.3715 -3.535 -5.6655 0 -1.756 -3.4765 -3.9955 -3.7015 -4.756 -6.864 -3.9665 0 
-8.342 -12.16972 -12.16972 -12.16972 -15.61972 -3.45 -3.9955 -7.1425 -6.924 -6.0235 -9.4995 -5.6655 -1.756 -4.5775 -7.2805 -7.1425 -7.6545 -12.8916 -11.6183 -3.9665 
-20.85632 -12.16972 -24.33944 -15.61972 -15.61972 -7.845 -7.1425 -10.1265 -9.9405 -12.562 -9.4995 -6.7545 -4.5775 -8.077001 -10.134 -10.688 -16.4533 -17.6459 -11.6183 
-20.85632 -24.33944 -27.78944 -15.61972 -20.01472 -11.6552 -10.1265 -13.143 -16.5498 -12.562 -10.288 -9.347 -8.077001 -11.1297 -13.6795 -19.4868 -21.2076 -17.6459 
-33.02604 -27.78944 -27.78944 -20.01472 -23.82492 -14.6392 -13.143 -19.7523 -16.5498 -13.3505 -13.0713 -12.9505 -11.1297 -14.6752 -22.4783 -24.2411 -21.2076 
-6.864 -4.795 -5.2725 -7.982501 0 -8.755501 0 -7.243001 -6.393 -1.756 -3.3715 -2.8965 -3.535 -4.6805 -1.934 -2.3615 -3.8275 
-12.4468 -8.46 -11.1415 -7.982501 -8.755501 -8.755501 -7.243001 -14.16 -7.2855 -4.6545 -4.827001 -5.9405 -8.8915 -6.663 -3.539 -5.965 
-16.1118 -14.7602 -11.1415 -17.4706 -8.755501 -16.3395 -14.16 -15.0525 -10.66 -5.28 -7.481501 -11.9244 -10.5645 -8.558001 -6.813 
-22.412 -14.7602 -20.6296 -17.4706 -16.3395 -23.2565 -15.0525 -18.427 -11.2855 -7.9715 -13.707 -13.5974 -12.4595 -12.0982 
-22.412 -24.2483 -20.6296 -25.0546 -23.2565 -24.149 -18.427 -19.0525 -13.977 -14.4548 -15.38 -15.4924 -15.9997 
