-4.759 
n/a 
n/a 
n/a 
n/a 
-4.759 
n/a 
n/a 
n/a 
n/a 
-4.759 
n/a 
n/a 
n/a 
n/a 
-4.759 
n/a 
n/a 
n/a 
n/a 
-5.847 -6.2405 -4.685 -2.5195 -4.9295 -1.4985 -4.0995 -4.1225 -3.355 -1.7565 -3.8735 0 -2.9805 -3.251 -3.9595 -3.2295 -1.4985 -4.142 -3.814 -1.7565 -6.6585 -1.756 -4.941 0 
-9.229 -11.7049 -5.093 -7.796 -6.333 -4.357 -7.654 -6.331501 -3.725 -5.112 -3.8735 -2.9805 -4.429 -5.561 -5.7385 -3.844 -5.0295 -9.696001 -6.5695 -8.343 -8.549 -7.785 -4.941 
-14.8206 -12.1129 -9.803 -8.700001 -9.126 -7.7095 -8.933001 -6.3795 -7.186501 -5.112 -6.729 -4.429 -6.548 -7.040501 -6.3995 -7.249001 -10.304 -10.752 -13.5104 -9.714001 -10.115 -7.785 
-15.2286 -16.8229 -11.1694 -10.7575 -12.6991 -8.941501 -9.022 -8.234501 -7.186501 -7.627 -8.380501 -6.548 -8.368 -7.4705 -9.9245 -12.9377 -11.36 -17.6929 -14.8814 -11.3044 -10.115 
-19.9386 -18.1893 -13.2269 -14.3306 -13.9311 -9.024501 -10.9852 -8.234501 -9.348001 -9.285001 -10.5535 -8.368 -8.830001 -10.5325 -15.714 -13.9937 -18.3009 -19.0639 -16.4718 -11.3044 
-3.2615 -5.9085 -2.5685 -1.4985 -4.088 -1.934 -3.502 -3.8735 -3.074 -2.925 -5.7715 -4.941 -1.7565 -3.5455 -3.7575 -1.7565 -1.4985 -3.502 -6.6585 0 
-9.899 -7.773 -3.7015 -5.6785 -5.429501 -4.8155 -6.2275 -7.0925 -6.184 -7.636001 -10.862 -9.080001 -4.8635 -5.799001 -4.4575 -2.4195 -4.5955 -10.575 -6.6585 
-11.9123 -8.4245 -6.683 -7.061 -7.795501 -6.9265 -9.3455 -9.6355 -11.1254 -12.9987 -15.001 -12.4992 -8.228001 -6.1545 -4.7 -5.5145 -11.9887 -10.575 
-12.5638 -11.63 -7.7475 -9.648001 -9.339001 -9.712001 -11.9477 -14.9677 -16.4881 -17.1377 -18.4202 -15.8637 -8.987 -6.498001 -7.993001 -13.0085 -11.9887 
-15.7693 -12.6945 -10.7575 -11.3549 -12.2255 -12.3142 -17.2799 -20.3304 -20.6271 -20.5569 -21.7847 -16.6227 -10.181 -9.1195 -15.691 -13.0085 
-2.645 -3.1575 -6.0965 -1.4985 -5.709 -1.7565 -4.1225 -3.8735 -12.16972 -5.8285 -6.982501 -6.6585 -1.934 -3.502 -1.756 -4.1455 -3.8745 
-3.72 -8.8205 -6.706501 -6.593 -6.4935 -5.2875 -6.836501 -17.03522 -17.99822 -13.866 -14.4318 -8.461 -4.8155 -5.513 -6.169 -10.4115 
-9.998001 -9.519 -10.1505 -6.6805 -9.368 -7.6095 -20.44902 -22.86372 -26.03572 -21.3153 -16.2343 -11.9601 -6.947001 -10.8216 -12.8356 
-10.6965 -13.0198 -10.201 -9.823501 -9.993 -21.43162 -26.27752 -30.90122 -33.48502 -23.1178 -19.7334 -14.0916 -13.3666 -17.4882 
-14.1973 -13.0703 -13.344 -10.3915 -23.90532 -27.26012 -34.31502 -38.35052 -35.28752 -26.6169 -21.8649 -20.5112 -20.0332 
-8.035001 -3.251 -5.9085 -2.6165 -3.098 -3.962 -1.7565 -3.502 -3.8735 0 -3.074 -1.934 -3.502 -4.142 -4.743 -1.756 -4.941 0 
-12.1436 -7.283 -8.6525 -4.283 -7.301 -5.5025 -4.9855 -6.2275 -3.8735 -3.074 -4.93 -4.8155 -7.710501 -9.689001 -6.5275 -7.785 -4.941 
-16.1756 -9.928 -9.288 -8.886001 -9.683001 -7.9505 -7.1955 -6.2275 -7.0925 -4.93 -7.949501 -10.2085 -13.8263 -11.8301 -8.450001 -7.785 
-18.8206 -10.3205 -14.0914 -11.4284 -12.4012 -9.4315 -7.1955 -9.3455 -8.874001 -7.949501 -13.4805 -16.3243 -15.9674 -13.7526 -8.450001 
-19.2131 -15.2657 -16.6338 -14.1466 -13.8822 -9.4315 -10.0535 -11.1862 -12.0339 -13.4805 -19.5963 -18.4654 -17.8899 -13.7526 
