-4.759 
n/a 
n/a 
n/a 
n/a 
-4.759 
n/a 
n/a 
n/a 
n/a 
-4.759 
n/a 
n/a 
n/a 
n/a 
-4.759 
n/a 
n/a 
n/a 
n/a 
-3.091 -3.554 -2.0935 -3.091 -4.121 -4.4455 -2.847 -5.2355 -3.2615 -4.4525 -3.332 -9.117001 -2.3345 -3.091 -4.235 
-5.7865 -5.2705 -4.5345 -5.304 -7.632501 -6.868001 -6.827001 -8.179001 -5.912 -6.411 -10.0865 -8.7005 -4.9475 -5.1065 
-6.38 -6.908 -6.988501 -8.4515 -10.051 -7.737 -9.388 -11.1097 -7.2545 -12.901 -11.027 -10.2515 -6.477 
-7.437 -8.472 -10.4318 -11.153 -10.92 -9.935 -12.3723 -12.4522 -14.1831 -13.7195 -12.421 -10.7025 
-8.953 -12.0689 -13.1333 -12.022 -13.118 -12.9193 -13.7148 -19.3808 -15.0016 -15.1135 -13.4505 
-2.9805 -4.5445 -3.6245 -3.4915 -5.5995 -2.264 -3.091 -4.121 -3.4985 -4.5075 -3.091 -4.235 -2.229 -4.613 -4.558 0 
-6.026 -8.1665 -4.5955 -7.7805 -7.631001 -4.534 -5.304 -7.296 -6.157001 -6.658 -5.1065 -5.0915 -6.5495 -7.9115 -4.558 
-9.3785 -8.4475 -8.885 -9.887501 -9.162001 -7.25 -8.0165 -10.1595 -8.130501 -8.1265 -5.8285 -8.864 -10.6154 -7.9115 
-9.6525 -12.9584 -11.1636 -11.4775 -12.1216 -10.0095 -11.0484 -12.2562 -9.26 -9.2395 -9.1295 -13.1533 -10.6154 
-14.177 -15.237 -12.7536 -14.4371 -14.8811 -13.1846 -13.1451 -13.3857 -10.2755 -12.6013 -13.777 -13.1533 
-3.433 -1.7565 -3.091 -4.235 -2.229 -5.634 -1.756 -3.091 -4.121 0 -5.598 -2.0935 -2.3335 0 -3.091 -3.554 -2.0935 -3.332 -4.157 0 
-4.1845 -4.0655 -5.1065 -5.0915 -8.1035 -6.6255 -4.2995 -5.304 -4.121 -5.598 -7.9825 -4.488501 -2.3335 -3.091 -5.7865 -5.2705 -4.7045 -8.0425 -4.157 
-5.7165 -6.108 -5.8285 -10.228 -9.322001 -9.887501 -6.3055 -5.304 -10.7962 -7.9825 -10.4185 -4.488501 -4.9605 -5.7865 -6.38 -6.8665 -9.2335 -8.0425 
-7.991 -6.7035 -10.586 -11.4465 -12.6684 -11.8935 -6.3055 -12.3576 -13.1807 -10.4185 -10.4185 -8.044001 -7.650001 -6.38 -7.547 -10.3955 -9.2335 
-8.177501 -11.558 -11.8045 -14.7929 -14.6744 -11.8935 -13.4305 -14.7421 -15.6167 -10.4185 -13.974 -10.8569 -8.151 -7.547 -10.553 -10.3955 
-3.091 -4.235 -5.7205 -4.121 
-5.1065 -9.447001 -9.532501 
-10.115 -13.4834 
-14.2572 
n/a 
