-4.759 
n/a 
n/a 
n/a 
n/a 
-4.759 
n/a 
n/a 
n/a 
n/a 
-4.759 
n/a 
n/a 
n/a 
n/a 
-4.759 
n/a 
n/a 
n/a 
n/a 
-12.16972 -2.9705 -2.186 -2.871 -1.7565 -1.4985 -4.951 -3.8745 -2.4265 -2.7415 -1.4985 -3.0835 -2.95 -1.934 -8.633 -2.664 -4.219 -3.325 -4.4225 -4.1175 -2.7415 -4.005 0 
-15.14022 -3.89 -4.247 -3.5385 -2.4195 -5.96 -9.728001 -7.000501 -3.681 -4.063 -3.535 -4.3945 -4.54 -11.5734 -11.889 -5.6055 -6.688001 -7.566 -8.199 -7.0345 -5.236 -4.005 
-16.05972 -6.034 -4.411 -3.7675 -6.679 -10.4035 -13.07 -7.9585 -4.946 -5.12 -4.569 -5.361 -14.7102 -14.8294 -14.8305 -7.005 -11.93 -12.0927 -11.2144 -9.796 -5.236 
-18.20372 -6.16 -4.5655 -9.061001 -11.2605 -14.0163 -14.028 -9.156501 -5.932 -6.003 -5.404 -16.1948 -17.9662 -17.7709 -16.23 -12.7836 -16.4567 -15.1081 -13.9759 -9.796 
-18.32972 -6.2675 -10.3345 -13.9639 -14.8733 -14.9743 -15.226 -9.84 -6.3665 -7.0745 -16.3116 -19.4508 -20.9077 -19.1704 -22.0086 -17.3103 -19.4721 -17.8696 -13.9759 
-3.5195 -2.6615 -1.934 -10.039 -3.8375 -3.0835 -2.95 -3.1385 -4.645 -4.5345 -2.9705 -4.0875 -3.5015 -3.0365 0 
-5.427001 -5.2545 -12.9794 -14.1633 -7.422 -4.3945 -6.3365 -7.428501 -6.342 -7.446 -5.8935 -5.143 -6.191 -3.0365 
-7.763 -16.7153 -17.1037 -17.7478 -9.028 -7.771 -11.1723 -9.364501 -9.241001 -9.814 -6.199 -7.4335 -6.191 
-20.023 -20.8396 -20.6882 -19.3538 -12.9173 -12.9446 -13.1083 -12.5521 -11.6942 -10.031 -8.7775 -7.4335 
-24.1473 -24.4241 -22.2942 -23.2431 -18.0909 -14.8806 -16.2959 -15.0053 -11.9112 -12.6947 -8.7775 
-3.5195 -2.6615 0 -2.0935 -1.4985 -3.0835 -2.95 -1.934 -1.4985 -4.4225 -4.412 -4.219 -2.7415 -4.005 -1.934 -4.951 -3.8375 -1.7565 -6.5105 0 
-5.427001 -2.6615 -2.0935 -2.9725 -3.535 -4.3945 -4.54 -2.6125 -5.0975 -7.91 -9.737 -6.3585 -5.236 -4.808 -7.2055 -8.835001 -5.3875 -7.771501 -6.5105 
-5.427001 -5.4515 -2.9725 -4.594501 -4.569 -5.361 -5.2215 -6.208 -9.961 -13.409 -11.8765 -7.305501 -5.8105 -10.111 -11.6469 -10.468 -12.4251 -7.771501 
-8.627001 -6.396 -4.594501 -4.791 -5.404 -6.2845 -9.304 -10.3605 -15.632 -15.5485 -12.8235 -8.043 -11.3087 -14.695 -13.2799 -17.5056 -12.4251 
-9.223001 -7.561 -4.791 -5.4575 -6.3195 -10.1425 -13.3623 -16.0315 -17.7715 -16.4955 -13.561 -13.8872 -15.8927 -16.328 -20.3175 -17.5056 
-3.5195 -2.6615 0 -2.0935 -1.4985 -3.0835 -2.95 -4.4225 -4.519 -4.005 -1.934 -2.871 -1.7565 -1.4985 -3.8375 -1.934 -3.955 -3.8745 0 -6.5345 -3.8375 0 
-5.427001 -2.6615 -2.0935 -2.9725 -3.535 -4.3945 -7.981501 -6.8715 -6.944 -4.808 -4.2805 -3.5385 -2.4195 -5.0225 -5.7375 -6.526 -5.6765 -3.8745 -6.5345 -9.309 -3.8375 
-5.427001 -5.4515 -2.9725 -4.594501 -4.569 -9.175501 -10.2755 -8.6685 -7.3665 -7.363 -5.057 -3.7675 -5.7285 -6.664001 -9.796 -7.873 -5.6765 -8.391001 -9.309 -9.309 
-8.627001 -6.396 -4.594501 -4.791 -9.535001 -10.3895 -12.1423 -8.814 -10.5993 -7.781 -5.335001 -7.494 -7.27 -11.0563 -9.951501 -7.873 -8.397 -10.4675 -9.309 
-9.223001 -7.561 -4.791 -9.6815 -10.6355 -12.2563 -12.2878 -12.5628 -11.0173 -8.038 -8.7925 -9.9635 -11.8199 -11.2118 -9.951501 -11.0319 -10.5225 -10.4675 
