-4.759 
n/a 
n/a 
n/a 
n/a 
-4.759 
n/a 
n/a 
n/a 
n/a 
-4.759 
n/a 
n/a 
n/a 
n/a 
-4.759 
n/a 
n/a 
n/a 
n/a 
-2.7295 -2.7765 -2.6165 -3.8905 -2.5685 -3.9035 -1.7565 -3.8735 -1.4985 -6.231 -3.2895 -2.186 -2.6165 -1.934 -3.486 -4.4195 0 
-4.065 -4.9255 -5.9085 -6.1415 -5.716 -4.616 -5.112 -5.752 -7.6265 -8.540501 -6.002 -3.5105 -4.552 -5.8505 -7.403501 -4.4195 
-6.0195 -7.218 -8.463 -10.4945 -5.9055 -7.109 -6.533501 -12.343 -9.687 -11.6928 -7.265 -5.3075 -8.1495 -9.651501 -7.403501 
-8.4135 -9.964001 -13.2186 -10.6625 -8.2505 -8.288 -13.4597 -14.4035 -12.9687 -12.9558 -8.949 -9.367001 -12.4393 -9.651501 
-11.3725 -14.8188 -13.3866 -13.0075 -9.5425 -15.2752 -15.5202 -17.6852 -14.2317 -14.6398 -13.3403 -13.7662 -12.4393 
-1.4985 -3.618 -1.7565 -3.5485 -2.186 -2.6165 -1.4985 -3.486 -1.934 -2.5685 -1.4985 -3.8195 -1.7565 -1.4985 -3.8735 0 
-5.099 -4.561501 -4.837 -6.063 -3.5105 -4.2225 -3.5655 -5.6995 -4.244 -3.7015 -5.146501 -4.542 -2.4195 -6.3715 -3.8735 
-5.6515 -7.8795 -6.9655 -7.4345 -4.8535 -5.523 -5.735001 -6.922 -5.3815 -6.977 -5.399 -5.285 -7.186501 -6.3715 
-8.475 -10.503 -8.251 -8.842 -5.88 -7.3475 -6.9405 -8.0125 -7.5715 -7.516 -6.72 -10.434 -7.186501 
-11.2133 -11.7885 -9.6315 -9.4795 -7.759501 -8.166 -8.037001 -10.0245 -8.123 -8.1285 -11.8458 -10.434 
-2.7295 -3.581 -5.651501 -3.6785 -2.3335 -1.4985 -3.7095 -1.7565 -3.5485 -3.152 -3.486 -1.934 -2.5685 -3.9035 -1.7565 -3.8735 0 
-7.683001 -8.243 -7.3335 -4.529 -3.3515 -4.89 -4.7465 -4.837 -5.807 -7.956 -5.6995 -4.244 -5.716 -4.616 -5.112 -3.8735 
-10.1375 -11.8755 -9.533001 -5.4365 -6.897 -5.0975 -6.241 -7.292 -11.0954 -9.456501 -6.922 -6.513 -5.9055 -7.109 -5.112 
-11.3605 -11.541 -11.021 -9.064 -7.2955 -6.4125 -9.3685 -12.7216 -12.5959 -10.554 -8.909 -6.54 -8.2505 -7.109 
-13.116 -12.8372 -14.8199 -9.42 -8.7995 -9.498001 -14.8035 -14.2221 -13.6934 -12.541 -8.9545 -8.7395 -8.2505 
-2.4265 -2.7765 -2.6165 -2.489 -3.264 -2.3335 -1.4985 -3.8685 -1.7565 -3.5485 -2.186 -1.4985 -3.486 -1.934 -2.5685 -3.9035 -1.7565 -3.8735 0 
-4.346 -4.9255 -3.82 -5.406 -4.533 -3.3515 -4.916 -4.9575 -4.837 -6.063 -3.339 -3.5655 -5.6995 -4.244 -5.716 -4.616 -5.112 -3.8735 
-6.474 -5.4595 -7.0905 -6.1485 -5.32 -6.7325 -5.2745 -7.208001 -6.9655 -7.3145 -5.074 -5.735001 -6.922 -6.513 -5.9055 -7.109 -5.112 
-6.7735 -7.796501 -7.7285 -6.727 -8.768001 -7.1175 -7.387501 -8.839001 -8.2225 -8.686501 -6.7 -6.9405 -8.909 -6.54 -8.2505 -7.109 
-8.572001 -8.844001 -8.278001 -9.998 -9.109 -9.0085 -8.978001 -10.322 -9.880501 -10.138 -7.5725 -8.915501 -8.9545 -8.7395 -8.2505 
