-4.759 
n/a 
n/a 
n/a 
n/a 
-4.759 
n/a 
n/a 
n/a 
n/a 
-4.759 
n/a 
n/a 
n/a 
n/a 
-4.759 
n/a 
n/a 
n/a 
n/a 
-3.6705 0 -2.3615 -6.153 -1.7565 -1.4985 -3.5035 -1.7695 -4.052 -1.4985 -5.832 -1.7565 -1.4985 -4.923 -2.186 -3.845 -2.3345 -1.4985 -3.931 -1.7565 -5.636 -2.915 -4.413 -2.3345 -6.8005 -5.4025 -2.0935 -3.668 0 0 -9.261001 0 -3.2645 -2.489 -5.0735 -2.5045 0 -4.1195 -5.081 0 0 -4.764 0 -9.179001 0 -3.2645 -2.489 -5.0735 -2.5045 0 -3.6975 -3.3195 0 0 -3.0365 -2.186 -2.847 -3.77 -3.3755 -1.7695 -4.221 -2.9705 -3.9515 -4.1395 -3.2645 -4.375 -5.686 -2.5045 -1.8085 -3.777 0 -3.3715 -5.4085 -3.1015 -2.674 0 -3.046 -4.761 0 -3.3425 -5.16 0 -1.756 -3.135 -4.8095 -6.8005 -2.3345 -3.9025 0 
-3.6705 -2.3615 -8.92 -7.1675 -2.4195 -4.5645 -4.134501 -4.393 -4.752 -6.941501 -6.7295 -2.4195 -6.022 -6.941501 -5.132 -5.4995 -3.233 -5.055 -4.616 -7.324501 -8.900001 -7.873501 -4.6955 -8.8225 -10.5535 -7.4455 -3.995 -3.668 0 -9.261001 -9.261001 -3.2645 -3.7195 -6.005 -6.5465 -2.5045 -4.1195 -6.724 -5.081 0 -4.764 -4.764 -9.179001 -9.179001 -3.2645 -3.7195 -6.005 -6.5465 -2.5045 -3.6975 -5.782001 -3.3195 0 -3.0365 -3.66 -4.1045 -5.993 -5.318501 -3.992 -4.436 -5.5905 -7.408 -6.184 -6.9525 -6.034 -9.280001 -7.320001 -3.3625 -4.3955 -3.777 -3.3715 -8.154 -8.539001 -5.179 -2.674 -3.046 -7.878501 -4.761 -3.3425 -8.036 -5.16 -1.756 -4.5755 -7.960001 -8.764 -9.938001 -4.937 -3.9025 
-5.211 -8.92 -10.143 -8.155001 -6.098001 -5.315001 -7.378 -4.9985 -7.806 -7.128 -7.1135 -7.020501 -7.528501 -10.1345 -6.245 -6.045001 -6.616 -5.2355 -9.995001 -10.238 -10.543 -8.006001 -10.543 -10.5535 -10.5925 -9.2705 -3.995 -3.668 -9.261001 -9.261001 -10.564 -3.7195 -7.2135 -7.194 -6.5465 -6.745501 -6.724 -6.724 -5.081 -4.764 -4.764 -10.564 -9.179001 -10.564 -3.7195 -7.2135 -7.194 -6.5465 -6.388 -5.782001 -5.782001 -3.3195 -3.0365 -3.66 -4.256001 -6.4975 -6.704 -5.4685 -6.476501 -5.818 -9.7535 -9.414001 -8.8935 -9.881001 -9.908 -10.2765 -8.315001 -4.4445 -4.3955 -6.631001 -8.154 -10.322 -10.089 -5.179 -6.0605 -7.878501 -7.878501 -8.0035 -8.036 -8.036 -6.3675 -4.5755 -8.738001 -10.543 -10.543 -10.4985 -4.937 
-10.459 -10.143 -10.4495 -10.553 -7.554501 -9.617001 -9.576 -8.0465 -7.939 -7.491001 -10.5525 -8.6225 -10.4105 -10.466 -6.5515 -9.392 -6.678 -10.194 -10.4235 -10.551 -10.56 -10.543 -10.5705 -10.5925 -10.611 -9.2705 -3.995 -10.564 -9.261001 -10.564 -10.582 -7.2135 -8.068001 -7.194 -10.553 -9.041 -6.724 -6.724 -9.923 -4.764 -10.564 -10.564 -10.564 -10.582 -7.2135 -8.068001 -7.194 -10.5225 -8.1545 -5.782001 -5.782001 -6.616 -3.66 -4.256001 -6.8365 -7.1065 -6.89 -7.692 -7.680501 -9.9375 -10.556 -10.5445 -10.553 -10.3515 -10.5465 -10.5745 -9.0775 -4.4445 -6.66 -10.459 -10.322 -10.5635 -10.089 -7.9085 -10.553 -7.878501 -10.564 -10.553 -8.036 -8.9805 -9.177501 -8.738001 -10.553 -10.56 -10.56 -10.4985 
-10.5675 -10.4495 -10.574 -10.5705 -10.403 -10.405 -10.524 -8.181001 -8.321 -10.5525 -10.57 -10.5225 -10.5655 -10.5345 -9.808001 -9.506001 -10.4175 -10.426 -10.5605 -10.568 -10.577 -10.5705 -10.6095 -10.611 -10.611 -9.2705 -10.5645 -10.564 -10.564 -10.582 -10.6 -8.068001 -8.068001 -10.564 -10.581 -9.041 -6.724 -10.564 -9.923 -10.564 -10.564 -10.582 -10.582 -10.6 -8.068001 -8.068001 -10.564 -10.58 -8.1545 -5.782001 -8.670501 -7.2465 -4.256001 -6.8365 -7.114 -7.2375 -8.405001 -8.835501 -10.5535 -10.557 -10.5845 -10.583 -10.5815 -10.59 -10.5955 -10.6035 -9.0775 -6.6625 -10.459 -10.5675 -10.5635 -10.5635 -10.5925 -10.575 -10.553 -10.564 -10.593 -10.553 -8.9805 -10.5755 -10.5755 -10.553 -10.5705 -10.577 -10.56 
-3.6705 0 -2.3345 -6.153 -1.4985 -3.4095 -1.7695 -4.052 -1.4985 -4.923 -5.832 -2.742 -2.489 -3.845 -2.3345 -1.4985 -3.931 -1.7565 -6.8005 -3.319 -5.636 -2.915 -7.496 -3.668 0 0 -12.16972 0 -3.2645 -2.489 -4.351 -2.5045 0 -4.1195 -5.081 0 0 -5.858 0 -9.179001 0 -3.2645 -2.489 -4.351 -2.5045 0 -3.6975 -3.3195 0 -3.0365 -2.186 -2.847 -3.77 -3.3755 -1.7695 -4.221 -2.9705 -3.9515 -4.0245 -3.2645 -2.489 -1.934 -7.8025 -1.7695 -2.3615 0 -3.3715 -5.4085 -2.9645 -5.16 -1.756 -3.0465 0 -3.046 -3.4095 0 -1.756 -3.135 -4.8095 -6.8005 -2.3345 -3.9025 0 
-3.6705 -2.3345 -8.288501 -7.77 -5.0055 -4.448 -4.393 -4.752 -6.022 -11.6964 -8.866 -3.301 -5.3295 -5.4995 -3.233 -5.055 -4.616 -8.554 -10.3815 -9.948501 -8.900001 -11.1935 -9.347 -3.668 0 -12.16972 -12.16972 -3.2645 -3.7195 -5.209 -6.179501 -2.5045 -4.1195 -6.724 -5.081 0 -5.858 -5.858 -9.179001 -9.179001 -3.2645 -3.7195 -5.209 -6.179501 -2.5045 -3.6975 -5.782001 -3.3195 -3.0365 -3.66 -4.1045 -5.993 -5.318501 -3.992 -4.436 -5.5905 -7.408 -5.903 -6.368001 -3.7195 -4.348 -9.628501 -7.9015 -3.736 -2.3615 -3.3715 -8.154 -6.712 -7.899 -6.3675 -4.477 -3.0465 -3.046 -6.7015 -3.4095 -1.756 -4.5755 -7.960001 -8.764 -9.938001 -4.937 -3.9025 
-6.048 -8.288501 -9.086 -11.5592 -6.007501 -8.186501 -4.9985 -10.159 -13.4492 -14.7304 -9.448 -6.086 -6.477 -6.045001 -6.616 -5.2355 -12.2439 -12.6992 -17.011 -13.2125 -18.0061 -13.6051 -9.2705 -3.668 -12.16972 -12.16972 -15.43422 -3.7195 -6.3325 -6.8815 -6.179501 -6.745501 -6.724 -6.724 -5.081 -5.858 -5.858 -16.6862 -9.179001 -10.564 -3.7195 -6.3325 -6.8815 -6.179501 -6.388 -5.782001 -5.782001 -6.616 -3.66 -4.256001 -6.4975 -6.704 -5.4685 -6.476501 -5.818 -9.7535 -10.564 -9.662001 -6.7675 -5.5955 -11.4355 -9.216001 -9.9805 -3.736 -6.2255 -8.154 -10.31 -13.8757 -8.808001 -9.767 -4.477 -5.1145 -6.7015 -6.7015 -5.0475 -4.5755 -8.738001 -10.543 -10.543 -10.4985 -4.937 
-12.9258 -9.086 -13.0538 -12.5612 -10.2535 -9.052 -10.609 -17.5862 -16.4832 -15.3124 -12.2882 -7.4135 -6.924 -9.392 -6.678 -12.955 -16.3891 -19.3287 -20.275 -22.3186 -19.8311 -13.6051 -9.2705 -16.50812 -12.16972 -15.43422 -15.88922 -6.3325 -8.002001 -6.8815 -11.0979 -9.041 -6.724 -6.724 -11.7038 -5.858 -16.6862 -16.6862 -10.564 -10.582 -6.3325 -8.002001 -6.8815 -10.7404 -8.1545 -5.782001 -8.670501 -7.2465 -4.256001 -6.8365 -7.1065 -6.89 -7.692 -7.680501 -9.9375 -13.1037 -14.323 -9.8525 -8.9875 -13.2875 -12.5095 -11.2375 -9.9175 -7.7 -11.2532 -10.31 -17.4737 -14.7847 -12.7749 -9.767 -6.166 -8.573501 -6.7015 -8.4405 -7.901 -8.738001 -10.553 -10.56 -10.56 -10.4985 
-13.7233 -13.0538 -14.0558 -16.8072 -11.119 -14.9281 -18.0362 -20.6202 -17.0652 -18.1526 -13.6157 -7.711 -10.3095 -9.506001 -14.5973 -17.1002 -23.0186 -22.5927 -29.3811 -24.1436 -19.8311 -13.6051 -22.33062 -16.50812 -15.43422 -15.88922 -18.50222 -8.002001 -8.002001 -12.2071 -13.3934 -9.041 -6.724 -13.8966 -11.7038 -16.6862 -16.6862 -18.0712 -10.582 -14.5798 -8.002001 -8.002001 -11.8496 -12.5069 -8.1545 -8.670501 -9.234501 -7.994 -6.8365 -7.114 -7.2375 -8.405001 -8.835501 -10.5535 -13.2967 -16.8627 -14.5135 -12.4197 -16.9441 -13.3623 -14.639 -11.2915 -12.468 -12.8543 -13.4092 -17.4737 -18.3827 -18.7516 -12.7749 -11.4612 -10.243 -8.573501 -8.4405 -10.085 -12.3541 -10.553 -10.5705 -10.577 -10.56 
-3.7925 -1.7695 -4.0545 -3.867 0 -2.4265 -2.186 -4.3035 -1.7695 -3.8095 -1.934 -3.9515 -6.118001 -4.7545 -4.1195 -5.081 -2.186 -3.881 -2.5045 0 -4.1195 -5.081 0 -2.5045 -1.4985 -3.486 -2.95 -1.4985 -3.6975 -3.3195 -2.186 -1.7695 -2.489 -3.881 -3.6975 -3.3195 -3.0365 -2.186 -2.6165 -3.77 -3.3755 -1.7695 -3.8095 -1.934 -3.6135 -3.4905 0 
-5.066 -4.4685 -7.673 -3.867 -2.4265 -3.292 -5.1255 -5.2725 -4.549 -5.543 -5.829 -7.946 -10.782 -9.399501 -6.724 -7.271 -5.3 -5.817 -2.5045 -4.1195 -6.724 -5.081 -2.5045 -3.1915 -3.5655 -4.563 -4.514 -5.259501 -5.782001 -5.3525 -3.8745 -3.1405 -5.4125 -8.742001 -5.782001 -6.616 -3.66 -3.5105 -5.629 -5.318501 -3.992 -4.549 -5.543 -5.716 -6.9235 -3.4905 
-7.5305 -8.035001 -7.673 -5.6815 -3.292 -5.7075 -5.618 -9.0135 -6.357501 -8.5325 -10.9955 -12.6225 -15.5102 -12.0722 -8.969501 -10.8148 -6.7515 -5.817 -6.745501 -6.724 -6.724 -7.5115 -3.1915 -4.538 -4.577 -5.6 -8.465 -7.472 -7.820001 -7.414001 -4.7485 -6.022 -10.7963 -11.1947 -8.670501 -7.2465 -5.4545 -6.028501 -9.0035 -5.4685 -6.8 -6.357501 -8.814 -8.3575 -6.9235 
-11.4418 -8.035001 -10.647 -7.1895 -5.7075 -6.1425 -9.3625 -10.831 -9.181001 -12.5495 -12.542 -16.3061 -18.8953 -14.3177 -12.6565 -12.2663 -6.7515 -9.787001 -9.041 -6.724 -9.358 -8.404 -4.538 -4.615 -5.6055 -9.601501 -10.5745 -9.945001 -9.940001 -8.251 -7.429 -11.3812 -13.249 -14.0832 -9.234501 -8.997001 -8.8645 -9.3085 -9.226001 -8.099 -8.984501 -9.6855 -12.1525 -8.3575 
-11.4418 -11.0256 -10.71 -9.514501 -6.1425 -9.4835 -11.2126 -13.6545 -13.4976 -14.539 -19.3136 -19.8258 -21.1408 -18.0047 -14.108 -12.2663 -10.9345 -12.5105 -9.041 -9.358 -9.7875 -10.204 -4.615 -5.6315 -9.602501 -11.7724 -13.0475 -12.065 -10.737 -11.1975 -13.0544 -13.8339 -16.1375 -14.6472 -11.1944 -12.63 -9.486501 -9.483001 -12.0031 -10.523 -12.4465 -13.1352 -12.1525 
-2.872 -4.0745 -4.293 -2.7765 -3.4625 -1.4985 -6.8005 -3.668 -12.16972 -2.5045 -1.4985 -3.99 -2.95 -3.6975 -3.3195 0 -1.756 -3.0465 -3.046 -4.7505 -6.965 -2.3615 0 
-7.172 -9.3475 -7.0605 -5.1675 -4.474 -8.087501 -10.2185 -16.50812 -14.67422 -3.1915 -5.182 -5.8535 -6.412 -5.782001 -3.3195 -1.756 -4.477 -5.1145 -8.1 -12.9207 -9.1835 -2.3615 
-13.1498 -12.3446 -10.2485 -5.6785 -11.7822 -12.4523 -23.19442 -19.01262 -15.36122 -7.2615 -6.169001 -10.0109 -9.3485 -5.782001 -4.768 -4.477 -6.166 -11.1835 -16.925 -15.1392 -9.1835 
-16.1469 -15.5326 -10.7265 -13.4699 -16.147 -25.42822 -25.69892 -19.69962 -19.43122 -8.4895 -10.886 -12.9474 -9.3485 -7.165501 -7.6425 -6.166 -13.2128 -20.0085 -19.1435 -15.1392 
-19.3349 -16.0106 -18.5179 -17.8347 -29.12292 -27.93272 -26.38592 -23.76962 -20.65922 -13.3269 -13.8225 -12.9474 -10.435 -10.4242 -9.596001 -13.2128 -22.0378 -22.227 -19.1435 
