-4.759 
n/a 
n/a 
n/a 
n/a 
-4.759 
n/a 
n/a 
n/a 
n/a 
-4.759 
n/a 
n/a 
n/a 
n/a 
-4.759 
n/a 
n/a 
n/a 
n/a 
-3.511 -3.4605 0 -3.188 -3.518 -3.9285 -3.4605 -2.915 -3.5125 
-6.889 -3.4605 -3.188 -7.135 -7.9045 -8.1945 -6.2065 -6.4215 
-6.889 -7.193501 -7.135 -11.8199 -12.2207 -10.586 -10.054 
-11.3134 -11.8505 -11.8199 -16.1361 -14.6122 -14.4335 
-15.9704 -16.5354 -16.1361 -18.5276 -18.4597 
-3.511 -10.879 -3.5125 -1.7565 -3.5025 -3.5005 -4.1865 -3.16 
-15.4176 -13.3741 -4.312 -5.2375 -6.824 -7.9345 -6.669 
-17.7109 -13.6306 -7.940001 -9.4785 -11.8908 -10.4855 
-17.9674 -17.4548 -12.4726 -14.6015 -14.4418 
-21.7916 -21.9874 -17.5956 -17.1525 
-4.657 -3.432 0 -3.188 -4.0005 -3.16 -1.756 -3.5125 -1.7565 -3.5025 0 
-9.717001 -3.432 -3.188 -4.969501 -5.2365 -5.1995 -5.334 -4.312 -5.2375 -3.5025 
-9.717001 -7.014501 -4.969501 -5.246 -5.969 -10.259 -6.051 -7.940001 -5.2375 
-13.6397 -8.375 -5.246 -5.97 -12.2025 -10.976 -9.8865 -7.940001 
-15.0002 -8.63 -5.97 -12.2173 -12.9195 -14.8115 -9.8865 
-3.8245 -6.348001 -4.0005 -3.432 
-11.1055 -8.482 -7.203 
-12.9808 -11.353 
-17.2402 
n/a 
