-4.759 
n/a 
n/a 
n/a 
n/a 
-4.759 
n/a 
n/a 
n/a 
n/a 
-4.759 
n/a 
n/a 
n/a 
n/a 
-4.759 
n/a 
n/a 
n/a 
n/a 
-4.4715 -2.7765 -3.074 -4.474 -2.7835 -1.4985 -3.518 -1.7565 -3.599 0 -4.237 -1.756 -3.4715 -2.3335 -2.8705 -3.7435 -4.116 -2.186 -3.858 -3.7515 -2.4285 -3.6845 -2.985 -3.8585 
-6.9195 -4.359 -6.2795 -6.021 -3.7575 -4.77 -4.302 -5.282 -3.599 -4.237 -5.4575 -4.8875 -5.884501 -4.897 -6.1775 -8.351 -6.929501 -5.3095 -7.420001 -5.687 -5.6635 -6.559 -6.399 
-8.297001 -6.7925 -7.475 -6.5555 -7.052001 -4.885 -7.784 -5.282 -6.9465 -5.4575 -7.48 -7.3745 -9.0535 -7.736001 -10.028 -11.3339 -10.107 -8.657001 -7.589001 -6.37 -7.990001 -9.998 
-10.2535 -7.880001 -7.953 -9.4165 -7.2465 -8.2255 -7.784 -9.068501 -8.401501 -7.48 -9.835501 -10.1855 -10.533 -12.1389 -13.0109 -14.5114 -13.6047 -8.827001 -7.643001 -8.331 -11.6872 
-11.431 -8.341001 -11.0168 -9.6215 -10.6595 -8.2255 -12.2225 -9.559 -9.903501 -9.835501 -12.7601 -11.665 -14.9359 -15.1218 -16.1884 -18.0091 -13.7747 -8.871 -9.8275 -12.2316 
-1.934 -2.8705 -3.7435 -3.4625 -1.7565 -4.033 -1.7565 -3.599 0 -4.237 -1.756 -3.4715 -2.186 -3.858 -3.922 -2.4285 -4.7075 -2.742 -4.0195 -4.05 
-4.1055 -6.1775 -7.4905 -4.9855 -6.2305 -4.5795 -5.282 -3.599 -4.237 -5.4575 -4.8875 -5.35 -5.3095 -7.218 -5.9445 -6.026 -7.918001 -5.431 -6.8315 
-7.008501 -9.906 -9.724501 -9.0175 -6.8655 -7.4595 -5.282 -6.9465 -5.4575 -7.48 -6.995 -8.4055 -9.6075 -7.575 -6.0975 -8.931001 -9.770501 -9.017 
-10.532 -12.2672 -13.7565 -9.9645 -9.995 -7.4595 -9.068501 -8.401501 -7.48 -9.27 -10.426 -12.8871 -9.747001 -7.654 -8.938001 -11.0549 -13.5541 
-12.8932 -16.2992 -14.7035 -13.263 -9.995 -10.622 -9.559 -9.903501 -9.27 -13.2826 -14.9076 -13.0266 -9.759501 -10.5201 -11.0709 -14.8385 
-2.8705 -7.0905 -3.4715 0 -4.237 0 -3.599 -3.1495 -3.54 -5.864 -4.1555 -1.7695 -3.644 0 -2.4285 -2.925 -1.7695 -3.383 -3.299 -3.1435 -2.3585 -3.7435 -4.4465 -1.7695 -4.05 
-8.64 -10.348 -3.4715 -4.237 -4.237 -3.599 -7.279 -5.4585 -10.1305 -10.451 -4.988501 -5.0855 -3.644 -2.4285 -6.087501 -3.71 -5.849 -5.179 -7.625 -7.068 -7.2165 -7.578501 -6.836 -6.296501 
-12.0747 -10.348 -6.821 -4.237 -6.8785 -7.279 -9.7215 -12.363 -14.8123 -11.284 -8.627001 -5.0855 -6.040501 -6.087501 -6.267 -7.7205 -6.8715 -8.844001 -11.7899 -10.757 -11.4405 -10.31 -11.9566 
-12.0747 -13.6975 -6.821 -6.8785 -11.2973 -9.7215 -16.626 -17.0448 -15.6453 -14.9225 -8.627001 -7.5435 -9.347501 -6.267 -10.6735 -8.267 -10.8601 -13.3095 -15.4789 -14.981 -14.172 -15.6894 
-15.4242 -13.6975 -9.197001 -11.2973 -13.7398 -16.626 -21.3078 -17.8778 -19.2838 -14.9225 -11.4986 -11.2835 -10.0954 -10.6735 -11.22 -12.5354 -15.3256 -16.9985 -19.7029 -17.7125 -19.5514 
-2.8705 -3.7435 -4.238 0 -3.7685 0 -3.4715 -2.186 -3.383 -4.4525 -1.7695 -4.809 -1.7565 -4.05 0 
-6.1775 -8.7025 -4.238 -3.7685 -3.7685 -3.4715 -5.35 -4.438 -8.5185 -5.610001 -7.049001 -5.7605 -5.521 -4.05 
-10.281 -8.7025 -8.536001 -3.7685 -5.323 -5.35 -7.3935 -9.327001 -9.4975 -11.4415 -9.228001 -10.2985 -5.521 
-10.281 -13.4103 -8.536001 -5.323 -7.205 -7.3935 -12.8205 -9.839001 -15.3196 -13.6205 -13.8534 -10.2985 
-16.4358 -13.4103 -10.3225 -7.205 -9.491501 -12.8205 -13.3325 -15.7153 -17.4986 -18.2459 -13.8534 
