-4.759 
n/a 
n/a 
n/a 
n/a 
-4.759 
n/a 
n/a 
n/a 
n/a 
-4.759 
n/a 
n/a 
n/a 
n/a 
-4.759 
n/a 
n/a 
n/a 
n/a 
-3.0365 -2.7415 -1.8085 -4.0205 -4.53 -4.335 -3.458 -3.691 -4.559 0 -3.9465 
-4.2225 -3.891 -4.688 -7.7775 -7.3145 -7.5655 -6.753 -7.421 -4.559 -3.9465 
-4.725 -6.4555 -8.019 -9.6975 -8.0585 -10.426 -10.2755 -7.421 -6.723 
-6.866 -9.6355 -9.9635 -10.216 -10.9868 -13.9769 -10.2755 -8.7635 
-9.6505 -12.136 -10.557 -13.1443 -14.5377 -13.9769 -11.8066 
-3.691 -2.229 -4.2235 -4.883 -2.356 -4.559 -1.756 -3.9465 -2.186 -3.5725 -4.0205 0 
-5.0855 -6.25 -7.639 -5.896 -6.835501 -5.633 -5.895 -6.3385 -4.471 -6.612 -4.0205 
-8.93 -8.7805 -8.469001 -8.363001 -7.744501 -6.8895 -7.910001 -8.316501 -6.9825 -6.612 
-11.5927 -9.144501 -10.3675 -9.267501 -8.4505 -9.1885 -9.812501 -10.66 -6.9825 
-11.9567 -11.3494 -11.272 -10.3485 -10.5125 -11.2122 -12.156 -10.66 
-3.691 -1.756 -6.2365 -6 -3.9785 -3.959 -3.5125 -1.756 -2.674 -4.0205 -4.53 -4.4605 0 
-5.176 -7.9485 -13.1203 -10.8717 -9.086 -7.655 -4.7915 -4.3315 -6.0445 -7.7775 -7.555 -4.4605 
-12.4301 -15.0899 -17.992 -15.9792 -12.8542 -8.814 -7.631001 -7.4175 -9.922501 -9.779501 -7.555 
-19.5715 -19.9616 -23.0995 -19.7474 -14.0132 -11.9645 -10.8738 -11.4785 -12.2771 -9.779501 
-24.4432 -25.0691 -26.8677 -20.9064 -17.1637 -15.2073 -14.9348 -13.8331 -12.2771 
-3.691 0 -6.982501 -1.756 -3.9465 -3.959 -5.3795 -3.5125 -4.885 -2.186 -3.383 -4.5735 0 
-3.691 -6.982501 -8.593 -5.895 -8.4975 -10.4851 -10.411 -9.051001 -7.5745 -4.438 -6.207 -4.5735 
-11.1165 -8.593 -9.663501 -9.3955 -15.4534 -15.5166 -15.9495 -11.9469 -9.531501 -7.0935 -6.207 
-12.727 -9.663501 -14.095 -16.7382 -20.4849 -21.0551 -18.8454 -13.9039 -12.188 -7.0935 
-13.7975 -14.095 -21.4377 -21.7697 -26.0234 -23.951 -20.8024 -16.5604 -12.188 
