-4.759 
n/a 
n/a 
n/a 
n/a 
-4.759 
n/a 
n/a 
n/a 
n/a 
-4.759 
n/a 
n/a 
n/a 
n/a 
-4.759 
n/a 
n/a 
n/a 
n/a 
-7.1915 -3.3715 -4.293 0 -3.4765 -4.2655 -1.756 -5.891 -2.186 -3.383 -4.4525 -1.7695 -3.59 0 
-9.129001 -8.5235 -4.293 -3.4765 -8.016001 -5.291 -7.419 -7.7695 -4.438 -8.5185 -5.610001 -5.8715 -3.59 
-14.77 -8.5235 -7.689 -8.016001 -9.261001 -8.5745 -9.547501 -9.964001 -9.327001 -9.4975 -9.711 -5.8715 
-14.77 -12.3297 -12.8905 -9.261001 -12.6471 -10.564 -11.7206 -14.853 -9.839001 -13.5891 -9.711 
-18.5762 -17.5312 -14.1355 -12.6471 -14.6366 -12.7371 -16.6096 -15.365 -13.9848 -13.5891 
-3.929 -3.0365 -2.186 -3.845 -1.7565 -3.3825 -4.4825 -3.1015 0 -5.891 -4.4605 -2.664 -3.699 -3.9825 -3.97 -1.756 -1.934 -3.3715 -3.564 -4.9835 -3.5005 -5.2695 0 
-5.627 -3.66 -7.268001 -4.13 -5.1565 -8.6455 -7.153501 -3.1015 -5.891 -9.6285 -5.931 -4.654 -5.406 -8.805 -5.137 -4.0205 -4.622 -6.6225 -7.711 -7.723 -8.7535 -5.2695 
-6.2205 -7.586 -7.64 -7.5835 -10.1765 -11.4159 -7.153501 -9.911 -9.6285 -10.4365 -6.114 -5.551 -10.5975 -9.7795 -7.5135 -5.948 -7.882501 -10.6215 -10.304 -13.401 -8.7535 
-9.974501 -7.731 -10.5325 -13.2175 -12.9755 -11.4159 -14.6912 -13.6485 -10.4365 -10.569 -6.175 -11.0313 -11.572 -12.2576 -9.612 -9.673 -12.2539 -13.2145 -15.982 -13.401 
-10.0785 -10.574 -16.1665 -16.0165 -12.9755 -18.9536 -18.4287 -14.4565 -10.569 -10.6425 -11.7307 -12.0058 -14.0501 -14.3561 -13.3846 -14.1588 -14.8469 -18.8925 -15.982 
-3.4765 -3.929 -3.0365 -3.152 -3.845 -1.7565 -4.6505 -1.934 -1.4985 -3.8475 0 -3.5725 -5.891 -4.4605 -2.664 -3.699 -3.9825 -1.934 -4.371 0 -3.97 -1.756 -2.8965 -3.564 -4.9835 
-4.589 -5.627 -4.453 -8.276 -4.13 -6.1155 -5.227 -2.6125 -5.09 -3.8475 -3.5725 -10.204 -9.6285 -5.931 -4.654 -5.406 -4.624 -6.089 -4.371 -3.97 -5.137 -3.751 -5.870501 -7.711 
-6.1375 -6.739 -8.456 -8.536 -8.490001 -6.29 -5.698 -6.397 -5.09 -7.471 -10.204 -13.9415 -10.4365 -6.114 -5.551 -5.6055 -8.573501 -6.089 -7.9665 -5.137 -6.661 -6.316 -10.2485 
-7.1955 -10.7495 -8.5725 -13.0062 -9.085 -6.394001 -9.437 -6.397 -8.653501 -14.3889 -13.9415 -14.7495 -10.569 -6.175 -5.68 -10.138 -8.573501 -9.93 -8.795 -6.661 -9.261001 -10.434 
-11.2676 -10.866 -13.0561 -13.6012 -9.416 -10.7495 -9.437 -9.975 -15.7048 -18.1264 -14.7495 -14.882 -10.6425 -6.259 -10.227 -10.138 -12.6289 -10.8889 -9.276501 -9.261001 -13.6872 

n/a 
n/a 
n/a 
n/a 
