-4.759 
n/a 
n/a 
n/a 
n/a 
-4.759 
n/a 
n/a 
n/a 
n/a 
-4.759 
n/a 
n/a 
n/a 
n/a 
-4.759 
n/a 
n/a 
n/a 
n/a 
-10.9935 0 -1.756 -7.174 -7.993001 -3.152 -3.074 -3.8755 
-10.9935 -1.756 -9.082001 -9.3085 -11.6796 -5.0635 -6.1925 
-12.7495 -9.082001 -11.3327 -13.0463 -13.5911 -7.844 
-20.0755 -11.3327 -15.0705 -14.9578 -16.3716 
-22.3262 -15.0705 -16.982 -17.7383 
-10.9935 0 -7.174 -7.993001 -2.7415 -3.074 -3.881 -1.934 -2.3615 -3.8405 
-10.9935 -7.174 -9.3085 -10.513 -4.727 -6.303 -5.05 -3.539 -5.371 
-18.1675 -9.3085 -11.8797 -12.4985 -7.791 -7.579 -7.033 -6.410501 
-20.302 -11.8797 -13.8652 -15.5625 -8.6075 -9.4635 -9.131001 
-22.8732 -13.8652 -16.9292 -16.379 -10.329 -10.317 
-10.9935 -7.528 0 -9.382501 -7.993001 -3.074 -5.355 -2.3345 -2.3615 -2.95 0 
-18.5215 -7.528 -9.382501 -11.0145 -11.046 -7.280001 -7.53 -4.499 -4.4645 -2.95 
-18.5215 -17.6207 -11.0145 -14.0675 -15.252 -9.8125 -9.853001 -6.0265 -4.4645 
-28.6142 -19.2527 -14.0675 -18.2735 -17.7845 -12.1459 -11.9379 -6.0265 
-30.2462 -22.3057 -18.2735 -20.806 -20.1179 -14.2308 -11.9379 
-11.0555 0 -7.174 -7.993001 -3.152 -3.074 -3.881 -3.5455 -2.3615 -3.8405 0 
-11.0555 -7.174 -9.3085 -11.6796 -5.0635 -6.303 -6.8415 -5.013 -5.371 -3.8405 
-18.2295 -9.3085 -13.0463 -13.5911 -8.2395 -9.2945 -8.313001 -5.726 -5.371 
-20.364 -13.0463 -14.9578 -16.7671 -9.867001 -9.9045 -8.707001 -5.726 
-24.1018 -14.9578 -18.1338 -18.3946 -10.3445 -10.28 -8.707001 
