-4.759 
n/a 
n/a 
n/a 
n/a 
-4.759 
n/a 
n/a 
n/a 
n/a 
-4.759 
n/a 
n/a 
n/a 
n/a 
-4.759 
n/a 
n/a 
n/a 
n/a 
-3.2615 -4.0035 -2.3335 -3.669 0 -9.299001 -4.101 -1.7695 -3.676 0 
-5.828 -6.4445 -6.3405 -3.669 -9.299001 -13.9014 -4.6905 -5.5605 -3.676 
-8.303 -10.328 -6.3405 -14.075 -13.9014 -14.4909 -7.7275 -5.5605 
-12.4709 -10.328 -17.3435 -18.6774 -14.4909 -17.5279 -7.7275 
-12.4709 -21.331 -21.9459 -19.2669 -17.5279 -17.5279 
-9.299001 -4.3285 -2.3615 -1.756 -5.6495 -1.7695 -3.676 
-14.1289 -6.601 -4.8045 -7.066 -6.244 -5.5605 
-16.4014 -8.384501 -10.5325 -7.713 -8.6335 
-18.1849 -14.2123 -11.1795 -9.779 
-24.0127 -14.8593 -13.2455 
-6.920001 -4.101 -1.7695 -3.676 -2.264 -4.9735 -2.985 -3.669 
-10.01 -4.6905 -5.5605 -6.081 -7.238001 -7.354 -6.4735 
-10.259 -7.7275 -7.699 -11.9028 -9.638 -9.812 
-13.296 -9.4925 -13.9296 -14.3028 -12.096 
-15.061 -15.9855 -16.3296 -16.7608 
-4.9735 -2.3335 -6.920001 -5.2635 -1.7695 -3.676 0 
-6.723001 -9.493 -10.523 -5.826 -5.5605 -3.676 
-14.2635 -13.215 -10.7765 -8.3765 -5.5605 
-17.9855 -13.4685 -13.327 -8.3765 
-18.239 -16.019 -13.327 
