-4.759 
n/a 
n/a 
n/a 
n/a 
-4.759 
n/a 
n/a 
n/a 
n/a 
-4.759 
n/a 
n/a 
n/a 
n/a 
-4.759 
n/a 
n/a 
n/a 
n/a 
-2.925 -4.0555 -1.7695 -3.3785 -2.3335 -2.186 -3.8665 -3.5855 
-5.4845 -4.7475 -4.1685 -4.4185 -3.7085 -6.099 -6.0415 
-6.1675 -6.7225 -5.311501 -6.541501 -7.456 -9.1905 
-8.154501 -7.535 -7.696501 -10.6215 -10.0505 
-8.943501 -10.286 -12.0431 -13.216 
-3.1435 -4.379 -2.5045 -1.8085 -3.8665 -3.5855 0 
-7.7005 -7.0765 -3.3625 -5.0775 -6.0415 -3.5855 
-9.16 -7.594501 -6.303 -7.7145 -6.0415 
-9.344 -10.757 -8.4475 -7.7145 
-12.9183 -12.9015 -8.4475 
-3.1015 -2.4265 -2.186 -4.5385 -2.5045 -3.8665 -3.5855 0 
-4.9345 -3.292 -5.6515 -5.369 -6.224 -6.0415 -3.5855 
-5.716 -6.578001 -6.1495 -9.150001 -8.685 -6.0415 
-9.080501 -7.486001 -10.4945 -11.7204 -8.685 
-9.661 -12.035 -13.0649 -11.7204 
-3.1495 -2.186 -3.8665 -3.5855 0 
-5.903 -6.099 -6.0415 -3.5855 
-9.869 -9.1905 -6.0415 
-13.0171 -9.1905 
-13.0171 
