-4.759 
n/a 
n/a 
n/a 
n/a 
-4.759 
n/a 
n/a 
n/a 
n/a 
-4.759 
n/a 
n/a 
n/a 
n/a 
-4.759 
n/a 
n/a 
n/a 
n/a 
-6.694 -4.38 -3.8825 -3.452 -3.8015 0 
-12.7212 -8.8985 -7.434 -6.752501 -3.8015 
-17.2397 -12.6166 -11.1843 -6.752501 
-20.9578 -16.3669 -11.1843 
-24.7081 -16.3669 
-5.1845 -3.432 -4.168 -3.485 -5.0905 -4.545 0 
-7.6925 -7.4575 -8.501 -6.7605 -10.5151 -4.545 
-12.5804 -12.8025 -11.9773 -13.0023 -10.5151 
-17.9254 -16.2788 -18.2191 -13.0023 
-21.4017 -22.5206 -18.2191 
-6.557 -4.38 -3.485 -3.452 -3.8625 
-11.6264 -7.6095 -7.0435 -6.445 
-14.8559 -11.835 -10.5681 
-19.0814 -15.3596 
-22.606 
-5.1845 -3.432 -4.38 -1.4985 -3.8625 -1.7565 -3.8825 -4.126 
-7.6925 -7.5935 -5.1675 -5.431 -5.847 -6.153501 -7.3245 
-12.7164 -8.745 -10.3165 -6.8485 -10.8866 -10.396 
-13.8679 -14.2364 -11.734 -12.3621 -15.1291 
-19.3593 -15.6539 -17.2476 -16.6046 
