-4.759 
n/a 
n/a 
n/a 
n/a 
-4.759 
n/a 
n/a 
n/a 
n/a 
-4.759 
n/a 
n/a 
n/a 
n/a 
-4.759 
n/a 
n/a 
n/a 
n/a 
-4.365 -7.3765 -2.7415 -3.7555 -2.5195 -3.7075 -4.201 0 
-13.2217 -10.523 -7.466001 -6.037 -6.1755 -7.4705 -4.201 
-16.3682 -15.2475 -9.0515 -9.2155 -9.7815 -7.4705 
-21.0927 -16.833 -12.3746 -13.1695 -9.7815 
-22.6782 -20.1561 -16.3286 -13.1695 
-3.4625 -1.7565 -5.346 0 -3.7075 -1.7565 -4.392 -1.7695 -4.201 -1.7565 -5.2595 0 
-4.9855 -7.432001 -5.346 -3.7075 -6.572001 -6.451001 -6.5895 -6.3155 -5.451 -6.942501 -5.2595 
-11.6596 -7.432001 -8.974001 -6.572001 -11.9751 -8.597501 -11.7243 -8.5455 -11.4784 -6.942501 
-11.6596 -10.586 -10.718 -11.9751 -14.1216 -13.9177 -13.9543 -14.7629 -11.4784 
-14.8136 -10.776 -17.0189 -14.1216 -19.4418 -16.1477 -20.1717 -14.7629 
-1.4985 -3.784 -4.625 -1.7565 -4.365 -4.7195 -4.617 -4.0435 -3.995 -2.229 -4.6985 -2.186 -3.849 -4.365 -4.5105 
-4.6165 -6.835 -5.575 -5.782001 -6.261001 -8.332001 -8.286 -8.188001 -5.324 -6.2995 -6.187 -4.8565 -7.895 -7.793 
-7.5865 -6.948 -9.231 -7.144501 -9.2255 -10.4265 -12.9017 -8.614501 -6.49 -7.533501 -8.9165 -8.865 -9.9455 
-7.8315 -11.2894 -9.7375 -10.071 -11.4 -15.3912 -13.3282 -9.051001 -7.841001 -9.633 -13.1804 -11.1143 
-12.5769 -11.7959 -12.8172 -12.3091 -16.3647 -15.8177 -13.7647 -10.6615 -9.790001 -14.0465 -15.4297 
-4.449 -4.4865 -3.7015 -1.4985 -3.9115 -1.7565 -1.4985 -4.7885 -4.8515 0 -4.617 -1.4985 -4.729 -3.6395 -1.756 -5.512 -1.4985 -5.9755 
-8.431001 -7.9375 -4.3435 -5.244 -5.1855 -2.4195 -5.282001 -7.0105 -4.8515 -4.617 -5.18 -6.1425 -8.142 -5.162 -6.5815 -6.379 -6.861501 
-9.9755 -8.227 -7.837501 -5.598 -5.659 -6.1885 -7.335501 -7.0105 -9.144 -5.18 -9.7995 -8.748 -9.222 -9.814001 -7.442 -9.9355 
-9.98 -9.989501 -7.89 -5.9415 -9.094501 -8.196001 -7.335501 -9.9805 -9.502 -9.7995 -10.004 -9.546 -10.0015 -9.972501 -10.0005 
-10.0105 -10 -8.054001 -9.3385 -9.6885 -8.196001 -9.997001 -9.9965 -10.003 -10.004 -10.009 -10.002 -10.0065 -10.0085 
