-4.759 
n/a 
n/a 
n/a 
n/a 
-4.759 
n/a 
n/a 
n/a 
n/a 
-4.759 
n/a 
n/a 
n/a 
n/a 
-4.759 
n/a 
n/a 
n/a 
n/a 
-1.934 -5.2765 -3.959 -3.8565 -2.7415 -3.6135 0 
-6.488 -10.3285 -6.4485 -8.877001 -6.502501 -3.6135 
-12.1104 -13.0566 -12.8676 -12.6802 -6.502501 
-14.8385 -19.4757 -16.6708 -12.6802 
-21.2576 -23.2789 -16.6708 
-1.934 -5.2765 -3.4075 -3.8565 -3.9875 -1.7695 -3.6135 -3.4625 0 
-6.488 -9.064 -6.325001 -8.9505 -4.6185 -5.829 -6.472 -3.4625 
-10.1855 -12.3221 -12.2608 -10.4595 -7.56 -8.7565 -6.472 
-13.7946 -18.2579 -13.7698 -13.401 -9.445001 -8.7565 
-19.7304 -19.7669 -16.7113 -15.286 -9.445001 
-3.5455 -1.4985 -5.2765 -2.229 0 -3.4075 -4.042 -2.7415 -1.4985 -4.4665 -1.934 -3.188 0 
-3.91 -6.971001 -6.882 -2.229 -3.4075 -6.272 -6.323 -4.063 -4.729 -6.8135 -5.387 -3.188 
-8.3955 -7.304 -6.882 -5.1175 -6.272 -8.3405 -7.769001 -6.414001 -6.9355 -9.302 -5.387 
-8.500501 -7.304 -10.1553 -7.916 -8.3405 -9.701 -9.435 -8.1975 -9.679501 -9.302 
-8.500501 -10.8897 -12.9538 -10.316 -9.701 -11.7322 -11.6593 -11.0585 -9.679501 
-3.5455 -6.381001 0 -1.4985 -3.4075 -4.042 -4.8635 -1.7695 -2.489 -1.4985 -4.4665 -1.934 -1.4985 -3.188 
-9.921 -6.381001 -1.4985 -4.118 -6.272 -7.891001 -6.8365 -3.1405 -3.9675 -4.729 -6.8135 -2.6125 -3.619 
-9.921 -7.563001 -4.118 -6.512 -9.903501 -10.6095 -7.214 -4.568 -6.2955 -6.9355 -7.194 -4.377 
-11.1284 -9.708001 -6.512 -9.969001 -12.649 -10.987 -8.9965 -6.6995 -8.064 -7.284 -7.6575 
-13.2734 -9.940501 -9.969001 -12.7267 -13.0265 -12.7695 -11.2678 -8.4095 -8.441501 -7.757501 
