-4.759 
n/a 
n/a 
n/a 
n/a 
-4.759 
n/a 
n/a 
n/a 
n/a 
-4.759 
n/a 
n/a 
n/a 
n/a 
-4.759 
n/a 
n/a 
n/a 
n/a 
-3.842 0 -9.2235 -4.7685 0 -5.1645 0 0 -5.3565 0 0 -1.8085 0 0 -2.7275 0 
-3.842 -9.2235 -14.3906 -4.7685 -5.1645 -5.1645 0 -5.3565 -5.3565 0 -1.8085 -1.8085 0 -2.7275 -2.7275 
-13.5185 -14.3906 -14.3906 -9.764 -5.1645 -5.1645 -5.3565 -5.3565 -5.3565 -1.8085 -1.8085 -1.8085 -2.7275 -2.7275 
-18.6856 -14.3906 -19.3861 -9.764 -5.1645 -11.6174 -5.3565 -5.3565 -7.2535 -1.8085 -1.8085 -4.324 -2.7275 
-18.6856 -19.3861 -19.3861 -9.764 -11.6174 -11.6174 -5.3565 -7.2535 -7.2535 -1.8085 -4.324 -4.324 
-1.934 -3.842 -7.115 0 -4.7685 0 0 -5.1645 0 0 -2.701 0 0 -1.8085 0 0 -2.7275 0 
-5.18 -10.8625 -7.115 -4.7685 -4.7685 0 -5.1645 -5.1645 0 -2.701 -2.701 0 -1.8085 -1.8085 0 -2.7275 -2.7275 
-12.7323 -10.8625 -12.7377 -4.7685 -4.7685 -5.1645 -5.1645 -5.1645 -2.701 -2.701 -2.701 -1.8085 -1.8085 -1.8085 -2.7275 -2.7275 
-12.7323 -16.4852 -12.7377 -4.7685 -9.764 -5.1645 -5.1645 -8.720501 -2.701 -2.701 -4.458 -1.8085 -1.8085 -4.324 -2.7275 
-18.355 -16.4852 -12.7377 -9.764 -9.764 -5.1645 -8.720501 -8.720501 -2.701 -4.458 -4.458 -1.8085 -4.324 -4.324 
-3.842 0 -7.027 -4.7685 0 -5.1645 0 0 -5.3565 0 0 -4.79 0 0 -5.0825 0 
-3.842 -7.027 -12.4019 -4.7685 -5.1645 -5.1645 0 -5.3565 -5.3565 0 -4.79 -4.79 0 -5.0825 -5.0825 
-11.322 -12.4019 -12.4019 -9.764 -5.1645 -5.1645 -5.3565 -5.3565 -5.3565 -4.79 -4.79 -4.79 -5.0825 -5.0825 
-16.6969 -12.4019 -17.3974 -9.764 -5.1645 -11.6174 -5.3565 -5.3565 -9.231001 -4.79 -4.79 -8.185501 -5.0825 
-16.6969 -17.3974 -17.3974 -9.764 -11.6174 -11.6174 -5.3565 -9.231001 -9.231001 -4.79 -8.185501 -8.185501 
-4.377 0 -8.064 -4.7685 0 -5.1645 0 0 -5.3565 0 0 -1.8085 0 0 -2.7275 0 
-4.377 -8.064 -13.4105 -4.7685 -5.1645 -5.1645 0 -5.3565 -5.3565 0 -1.8085 -1.8085 0 -2.7275 -2.7275 
-12.8 -13.4105 -13.4105 -9.764 -5.1645 -5.1645 -5.3565 -5.3565 -5.3565 -1.8085 -1.8085 -1.8085 -2.7275 -2.7275 
-18.1465 -13.4105 -18.406 -9.764 -5.1645 -11.6174 -5.3565 -5.3565 -7.2535 -1.8085 -1.8085 -4.324 -2.7275 
-18.1465 -18.406 -18.406 -9.764 -11.6174 -11.6174 -5.3565 -7.2535 -7.2535 -1.8085 -4.324 -4.324 
