-4.759 
n/a 
n/a 
n/a 
n/a 
-4.759 
n/a 
n/a 
n/a 
n/a 
-4.759 
n/a 
n/a 
n/a 
n/a 
-4.759 
n/a 
n/a 
n/a 
n/a 
-3.5085 -4.798 -4.1395 -1.934 -5.1845 -8.4925 -12.16972 -2.846 0 -5.5555 -11.0555 -3.106 0 -8.4925 -5.5555 -11.0555 -4.668 -1.756 -8.92 -9.979 -2.1715 0 
-8.0275 -9.204 -5.912 -6.564 -10.3545 -20.87442 -15.01572 -2.846 -5.5555 -17.2774 -14.1615 -3.106 -8.4925 -10.5035 -17.2774 -15.7235 -7.197001 -10.884 -10.5135 -12.1923 -2.1715 
-12.4635 -11.4651 -10.159 -12.3462 -23.56922 -23.72042 -15.01572 -8.0065 -17.2774 -20.3834 -14.1615 -12.1285 -10.5035 -22.2254 -21.9454 -18.2525 -16.7054 -12.4775 -12.7268 -12.1923 
-14.7246 -15.7121 -15.9412 -25.56092 -26.41522 -23.72042 -20.17622 -20.3154 -20.3834 -20.3834 -23.184 -14.1395 -22.2254 -26.8934 -24.4744 -27.7609 -18.2989 -14.6908 -12.7268 
-18.9716 -21.4943 -29.15592 -28.40692 -26.41522 -28.88092 -32.48512 -23.4214 -20.3834 -29.4059 -25.195 -25.8614 -26.8934 -29.4224 -33.9828 -29.3544 -20.5122 -14.6908 
-3.1495 -8.4925 -12.16972 -2.846 0 -12.16972 -3.106 0 -8.653501 -12.16972 0 -3.1495 -5.5555 -3.2495 -4.168 -1.7695 -4.668 0 -1.756 -9.939 -2.186 -4.798 -4.1395 0 -3.849 -5.1845 -4.1395 0 
-12.9372 -20.87442 -15.01572 -2.846 -12.16972 -15.27572 -3.106 -8.653501 -22.26442 -12.16972 -3.1495 -9.967 -9.739 -8.070001 -6.5035 -7.224 -4.668 -1.756 -12.7036 -12.3308 -8.1625 -9.204 -4.1395 -3.849 -8.881001 -9.258501 -4.1395 
-25.31912 -23.72042 -15.01572 -15.64192 -15.27572 -15.27572 -12.2895 -22.26442 -22.26442 -15.31922 -9.967 -14.1505 -14.6903 -10.5083 -12.7966 -7.224 -7.197001 -12.7036 -15.0954 -18.3073 -12.6913 -9.204 -8.437 -8.881001 -13.1946 -9.258501 
-28.16512 -23.72042 -27.81164 -18.74792 -15.27572 -24.45922 -25.90042 -22.26442 -25.41392 -22.13672 -14.1505 -19.1018 -17.1286 -16.8014 -12.7966 -9.085501 -18.525 -15.0954 -21.0719 -22.8361 -12.6913 -13.9901 -13.5742 -13.1946 -13.1946 
-28.16512 -36.51634 -30.91764 -18.74792 -24.45922 -38.07014 -25.90042 -25.41392 -32.23142 -26.32022 -19.1018 -21.5401 -23.4217 -16.8014 -14.6581 -20.6753 -20.9168 -21.0719 -25.6007 -22.8361 -17.4774 -19.1273 -17.8878 -13.1946 
-2.3615 0 -8.4925 -9.979 -2.846 0 -5.5555 -9.979 -3.106 0 -8.4925 -5.5555 0 -4.3325 0 -4.668 0 -3.0415 -4.5925 -4.798 
-2.3615 -8.4925 -18.6837 -12.8668 -2.846 -5.5555 -16.2009 -13.1268 -3.106 -8.4925 -10.5035 -5.5555 -4.3325 -4.3325 -4.668 -4.668 -3.0415 -6.8885 -10.4855 
-12.1422 -18.6837 -21.5715 -12.8668 -8.0065 -16.2009 -19.3487 -13.1268 -12.1285 -10.5035 -10.5035 -10.575 -4.3325 -9.58 -4.668 -8.366 -6.8885 -13.0551 
-22.3334 -21.5715 -21.5715 -18.0273 -19.2389 -19.3487 -19.3487 -22.1493 -14.1395 -10.5035 -15.523 -10.575 -9.58 -9.58 -8.366 -12.3134 -13.0551 
-25.2212 -21.5715 -26.732 -29.2597 -22.3867 -19.3487 -28.3712 -24.1603 -14.1395 -15.523 -15.523 -15.8225 -9.58 -13.3456 -12.3134 -18.48 
-1.4985 -3.485 -5.1845 -4.1785 -4.6805 -1.7565 -2.846 -6.0825 0 -3.106 -6.319 -1.756 -2.871 -3.4865 -4.116 0 -1.4985 -12.16972 -1.4985 -6.0825 -1.756 -6.319 -4.8185 -1.7695 -3.519 -4.668 -4.8705 -4.114 0 -4.1685 -1.8085 -3.5085 -1.7565 -4.798 -4.114 
-4.147 -9.513 -8.34 -8.399 -4.722 -5.0045 -9.302501 -6.0825 -3.106 -9.5845 -7.3305 -4.514 -6.494 -6.471001 -4.116 -1.4985 -14.76202 -13.66822 -7.0585 -7.0955 -7.6355 -9.9895 -6.089 -4.951 -8.7295 -10.254 -8.769 -4.114 -4.1685 -5.508501 -4.6755 -4.8005 -7.08 -8.994501 
-9.908001 -12.7039 -12.8707 -8.469501 -7.226 -10.348 -9.302501 -9.7045 -9.5845 -10.1695 -9.434501 -7.787001 -8.219 -6.471001 -6.009501 -14.76202 -16.26052 -19.22822 -8.145 -7.712501 -10.316 -10.7075 -7.0625 -10.4105 -10.688 -10.683 -8.769 -8.349001 -5.508501 -7.288001 -4.927 -8.412001 -10.361 
-13.0989 -17.2346 -12.9412 -10.76 -10.6735 -10.348 -10.622 -10.545 -10.1695 -12.2735 -13.0637 -8.7565 -8.219 -8.2255 -19.57462 -16.26052 -21.82052 -20.31472 -8.788 -10.597 -10.77 -10.787 -10.647 -10.7 -10.712 -10.683 -13.2242 -9.4025 -7.288001 -7.534 -8.4655 -10.609 
-17.6296 -17.3051 -15.2317 -14.2075 -10.6735 -11.6675 -10.6425 -10.7525 -12.2735 -15.9027 -14.0332 -8.7565 -9.3435 -22.05542 -21.07312 -21.82052 -22.90702 -20.95772 -11.8535 -10.7785 -10.8495 -14.3715 -10.7245 -10.724 -10.712 -15.1382 -14.2777 -10.42 -7.534 -10.702 -10.6085 
