-4.759 
n/a 
n/a 
n/a 
n/a 
-4.759 
n/a 
n/a 
n/a 
n/a 
-4.759 
n/a 
n/a 
n/a 
n/a 
-4.759 
n/a 
n/a 
n/a 
n/a 
-2.925 -2.4945 -4.9375 -7.2155 -3.6385 -4.712 0 
-3.7675 -6.431 -13.1212 -10.66 -9.3715 -4.712 
-7.823501 -15.3611 -16.5657 -16.393 -9.3715 
-17.0418 -18.8056 -22.2987 -16.393 
-20.4863 -24.5386 -22.2987 
-1.4985 -3.6115 -3.193 -1.7565 -3.5315 0 -5.661 0 -2.742 -2.489 -1.4985 -3.17 -4.9845 -5.6445 -1.934 -1.4985 -3.5125 -1.7565 -3.676 -2.3085 -3.0805 -5.1255 -1.7695 -3.9765 -2.3335 -2.4265 -2.742 -2.489 -5.1805 -2.3345 -5.6135 -4.9715 -2.5045 -1.4985 -3.4155 -4.5225 -4.179 -2.4265 -5.0885 -1.7695 -2.489 -6.5005 -2.5045 -1.4985 -3.193 -1.7565 -6.0145 0 -2.3345 -5.9185 -4.4275 -1.7565 -5.547 -1.7695 -3.8905 -5.699 
-4.081 -5.811 -4.5615 -5.2425 -3.5315 -5.661 -5.661 -2.742 -3.301 -3.9675 -3.7115 -5.893 -8.995501 -7.22 -2.6125 -4.7015 -4.312 -4.4345 -6.134 -3.7245 -8.079 -6.116 -4.9295 -4.531 -3.913 -4.095 -3.301 -6.4485 -6.612 -7.778 -7.167 -6.9995 -3.583 -4.4155 -8.012501 -7.8795 -6.7965 -6.319 -5.1695 -3.1405 -7.6225 -8.116 -3.583 -4.136 -4.5615 -6.772501 -6.0145 -2.3345 -8.0835 -8.736 -5.2555 -6.643001 -6.0445 -5.2345 -6.67 
-6.091001 -6.318501 -6.74 -5.2425 -8.3765 -5.661 -9.581501 -3.301 -4.8715 -5.41 -6.1505 -9.5325 -9.321001 -7.712501 -5.4205 -4.846 -6.952 -6.900001 -7.255 -8.162 -8.157001 -8.234 -5.3135 -5.894001 -5.1505 -4.601 -6.8365 -7.641 -9.0325 -8.4615 -8.619 -8.015501 -6.439 -8.885 -8.997001 -9.047 -9.092001 -6.3815 -5.5485 -7.995 -8.7145 -8.539001 -6.374001 -5.328 -8.382501 -6.772501 -7.623 -8.0835 -8.989 -8.826501 -8.1145 -7.3995 -7.4775 -7.9835 
-6.477 -8.632001 -6.74 -9.503 -8.3765 -9.581501 -10.4285 -4.8715 -6.4355 -7.9545 -9.561001 -9.5535 -9.382501 -8.26 -5.48 -7.414 -8.8925 -7.955 -9.2095 -8.1805 -8.813001 -8.666 -6.6545 -7.082 -5.627501 -8.516001 -7.9635 -9.035 -9.0365 -9.002 -8.9865 -9.021501 -9.041 -9.005 -9.085 -9.0985 -9.092501 -6.547 -8.967 -8.8835 -8.9535 -8.9505 -7.441 -8.698501 -8.382501 -8.620501 -9.009501 -8.989 -9.001 -8.979501 -8.8585 -8.43 -8.9945 
-8.803 -8.632001 -10.0315 -9.503 -12.5726 -10.4285 -11.999 -6.4355 -8.575001 -9.6155 -9.5835 -9.5605 -9.456501 -8.264501 -7.8325 -8.994 -9.1955 -9.2115 -9.211 -8.8195 -9.007501 -9.1165 -7.82 -7.600501 -9.056001 -9.0205 -9.06 -9.037001 -9.0415 -9.0395 -9.045 -9.048501 -9.045001 -9.088 -9.099501 -9.0995 -9.0935 -9.096001 -9.015 -9.001 -9.0055 -8.978001 -8.988001 -8.698501 -8.9975 -9.011001 -9.012 -9.001 -9.01 -8.993001 -8.9875 -9.012501 
-3.7285 -3.6385 -4.712 -5.221 -3.1435 -4.3115 -1.756 -2.8965 -3.72 -3.614 -3.5035 -2.7415 -3.9535 -1.934 -5.661 
-6.1355 -9.3715 -10.8415 -9.4245 -7.384501 -5.466 -3.751 -6.642 -5.909 -7.393001 -5.9375 -5.83 -5.3325 -7.003 
-12.6865 -15.9036 -15.045 -13.8975 -8.354 -7.323 -7.081 -7.982 -9.7305 -10.6908 -9.844 -6.376501 -9.840501 
-19.2186 -20.1071 -19.518 -14.867 -10.5225 -9.7965 -8.3 -11.9825 -13.6717 -14.5973 -10.351 -10.634 
-23.4221 -24.5801 -20.4875 -17.0355 -13.5888 -11.3963 -12.4001 -15.9237 -17.5782 -15.1043 -14.6085 
-2.871 -3.6385 -4.248 -3.7875 -3.7745 -4.8925 -5.4945 -1.756 -3.3715 -3.9755 -1.7565 -5.501 -6.63 -5.5505 -3.2895 -3.9955 -3.152 -4.662 -2.5045 -1.4985 -3.158 -5.661 0 
-5.371 -8.307501 -8.387501 -7.939 -9.933001 -10.862 -7.714 -4.6545 -5.96 -4.312 -6.888501 -13.5078 -10.564 -9.557001 -5.96 -7.116 -6.5785 -6.4925 -3.1915 -4.178 -8.3605 -5.661 
-10.028 -12.7492 -12.5886 -14.6905 -15.9025 -13.0815 -10.647 -7.579 -6.003 -9.602 -15.5401 -17.4418 -15.4623 -12.3665 -9.118 -10.9105 -8.1195 -7.0115 -6.7915 -8.502001 -8.3605 
-14.7555 -16.9503 -19.3401 -20.66 -18.122 -16.0145 -13.5715 -7.5975 -11.5004 -18.2536 -19.4741 -22.3401 -18.2718 -15.5245 -12.9229 -12.4515 -8.685 -10.3475 -12.1847 -8.502001 
-18.9566 -23.7018 -25.3096 -22.8795 -21.055 -18.939 -13.59 -13.2949 -20.152 -22.1876 -24.3724 -25.1496 -21.4298 -19.3294 -14.4639 -13.017 -12.006 -16.2421 -12.1847 
