-4.759 
n/a 
n/a 
n/a 
n/a 
-4.759 
n/a 
n/a 
n/a 
n/a 
-4.759 
n/a 
n/a 
n/a 
n/a 
-4.759 
n/a 
n/a 
n/a 
n/a 
-2.664 -5.4075 -1.756 -4.4755 -2.8645 -3.1125 -5.7475 -1.934 -5.1845 -5.74 -2.9705 -3.5745 -2.6165 -4.474 -1.934 -3.814 -3.533 -3.277 0 
-9.8505 -6.64 -5.821 -7.2415 -3.5345 -9.053501 -6.765 -6.564 -5.7465 -8.55 -6.014501 -4.114 -5.674 -5.244 -5.544 -7.811 -6.4985 -3.277 
-11.2356 -11.6004 -8.727 -7.8385 -9.293 -10.0415 -11.918 -6.819 -8.565001 -11.8688 -6.1555 -6.453 -6.462 -9.889501 -10.19 -8.0395 -6.4985 
-16.196 -14.5064 -9.2795 -14.0384 -10.5435 -15.2109 -12.173 -9.073001 -11.8884 -12.0098 -8.096001 -7.308001 -10.586 -14.5715 -10.3055 -8.0395 
-19.102 -15.0589 -15.482 -15.2889 -15.7129 -15.4659 -14.427 -12.4278 -12.0294 -13.9503 -8.639501 -10.674 -15.268 -14.687 -10.3055 
-3.228 -3.2495 -4.6945 -3.277 -1.7565 -5.1845 -5.74 -4.567 -3.013 -4.8395 -3.1015 -3.5185 0 
-5.2515 -5.97 -5.913001 -4.296 -6.580501 -5.7465 -11.2496 -6.625 -8.3465 -7.448001 -6.3045 -3.5185 
-8.105 -6.7335 -6.851 -9.762 -6.961501 -11.2979 -13.3076 -9.5425 -11.2896 -11.6774 -6.3045 
-8.132501 -7.64 -12.8024 -10.4098 -12.7805 -13.3559 -16.2251 -13.3882 -15.519 -11.6774 
-9.3885 -13.951 -13.4502 -16.2288 -14.8385 -16.2734 -20.0708 -17.6176 -15.519 
-4.6225 -3.43 -3.2615 -3.533 -3.277 
-8.022501 -6.04 -7.028 -6.4985 
-10.8845 -9.1495 -8.371 
-13.994 -10.5655 
-15.41 
-3.814 -3.2495 -4.6945 -3.277 -1.934 -6.557 -3.013 -5.651501 -5.0335 -2.872 0 -3.1015 -2.4265 -2.186 
-5.493 -5.97 -5.913001 -4.8125 -7.536 -10.2335 -8.529501 -11.36 -7.9165 -2.872 -3.1015 -4.9345 -3.292 
-8.272501 -6.7335 -7.546501 -10.757 -10.66 -15.1858 -14.5031 -14.5394 -7.9165 -5.068501 -4.9345 -5.716 
-8.288501 -8.4445 -13.8828 -13.881 -15.6123 -22.1628 -17.6763 -14.5394 -10.1945 -6.129 -5.716 
-9.826 -14.9792 -17.0068 -18.8333 -22.5893 -25.1056 -17.6763 -16.8174 -11.255 -6.8725 
