-4.759 
n/a 
n/a 
n/a 
n/a 
-4.759 
n/a 
n/a 
n/a 
n/a 
-4.759 
n/a 
n/a 
n/a 
n/a 
-4.759 
n/a 
n/a 
n/a 
n/a 
-3.5025 -3.402 -3.5855 -1.756 -3.433 -6.856 -1.7565 -4.215 -2.915 -2.7455 -1.4985 -3.522 -1.934 -1.4985 -3.432 0 
-5.7215 -6.846001 -4.5585 -4.5825 -9.797501 -7.56 -5.9715 -5.1665 -4.0865 -3.637 -4.7705 -5.1765 -2.6125 -4.829 -3.432 
-9.1255 -8.035501 -5.0205 -12.1498 -11.3668 -11.3665 -7.18 -5.6875 -4.7255 -6.959001 -6.285 -5.747 -6.345 -4.829 
-10.7035 -8.63 -13.3321 -13.4441 -15.9831 -13.6173 -7.8245 -6.289001 -8.459001 -8.482 -6.664 -9.885 -6.345 
-11.298 -17.8656 -14.5184 -18.0604 -17.6141 -14.2178 -8.436001 -10.335 -10.1895 -8.857 -11.143 -9.885 
-4.4295 -1.7695 -3.5855 -1.7565 -2.7455 -2.915 -4.0865 -1.7695 -3.5025 -5.2785 0 
-5.6705 -5.989 -5.385 -4.9365 -6.374001 -5.957 -5.577 -5.664001 -9.883501 -5.2785 
-10.634 -8.370501 -10.228 -10.025 -8.891001 -7.462501 -9.2395 -12.4356 -9.883501 
-13.0155 -13.4603 -15.3165 -12.542 -10.7217 -11.489 -16.5215 -12.4356 
-18.1053 -18.5488 -17.8335 -14.3727 -14.7482 -18.771 -16.5215 
-1.4985 -5.428 -1.7565 -3.5855 -1.756 -3.433 -2.5195 -3.5025 0 -1.4985 -6.0585 -1.7565 -3.509 -1.7565 -1.4985 -3.1065 -3.8445 -4.954 0 
-6.741 -6.962 -4.6335 -4.5585 -4.5825 -5.9375 -6.0285 -3.5025 -1.4985 -7.755501 -7.275001 -6.2685 -4.762 -2.4195 -4.783 -5.7375 -7.76 -4.954 
-7.4605 -10.272 -5.386 -5.0205 -6.685 -9.2605 -6.0285 -5.693501 -7.755501 -8.870501 -12.3098 -7.3415 -5.2285 -5.9155 -6.71 -10.793 -7.76 
-11.0803 -11.0245 -5.6845 -6.818 -10.86 -9.2605 -8.554 -12.4249 -8.870501 -13.9553 -13.3828 -7.941 -8.509501 -8.7935 -12.5713 -10.793 
-11.8328 -11.323 -6.867 -11.7706 -10.86 -12.1172 -15.4012 -13.5399 -13.9553 -15.0283 -13.9823 -11.3168 -11.9351 -13.7146 -12.5713 
-3.432 -3.5855 -1.756 -4.922 -4.048 -3.254 -2.356 -3.432 -3.64 -4.215 -5.2785 0 
-7.364 -4.5585 -5.7385 -8.206501 -6.709001 -5.665501 -6.3725 -6.837501 -7.592 -6.834001 -5.2785 
-7.6915 -7.496 -8.302 -11.4875 -9.027 -10.115 -10.7406 -11.3633 -11.0888 -6.834001 
-12.1506 -10.7643 -11.8354 -13.8055 -13.7147 -14.5997 -15.2664 -14.8601 -11.0888 
-15.4189 -14.2977 -14.1534 -18.4932 -18.1994 -19.1255 -18.7632 -14.8601 
