-4.759 
n/a 
n/a 
n/a 
n/a 
-4.759 
n/a 
n/a 
n/a 
n/a 
-4.759 
n/a 
n/a 
n/a 
n/a 
-4.759 
n/a 
n/a 
n/a 
n/a 
-1.4985 -5.2755 -3.6835 -1.7565 -1.4985 -3.882 -4.181 -4.4915 -1.756 -1.4985 -5.301 -1.7565 -5.089 -4.6365 -2.5195 -6.890501 -1.756 -4.9875 0 
-6.2415 -8.328001 -5.1885 -2.4195 -5.587 -8.6125 -6.2095 -5.7295 -3.0405 -6.0555 -5.718 -6.774001 -9.088 -4.8875 -8.3625 -7.951001 -6.4295 -4.9875 
-9.141001 -9.289001 -6.066 -6.561 -9.7585 -10.259 -7.603001 -7.058001 -7.3275 -6.1495 -9.920501 -10.1995 -9.1215 -10.6215 -8.745501 -9.4455 -6.4295 
-9.7655 -9.765 -9.109501 -10.233 -10.3005 -11.6525 -8.4645 -11.7222 -7.386 -10.476 -13.346 -10.207 -14.9373 -11.0045 -10.7575 -9.4455 
-10.074 -12.8543 -12.9859 -10.8798 -11.694 -12.514 -13.2409 -11.7807 -11.8597 -13.9015 -13.3535 -16.183 -15.3203 -13.0165 -10.7575 
-4.205 -1.7565 -7.4885 -2.4945 -4.129 -3.7865 -1.7565 -8.171 
-5.689001 -9.320001 -9.8615 -5.712 -9.1625 -6.1105 -9.535501 
-13.8551 -11.8468 -13.079 -11.7667 -11.6585 -14.6589 
-16.3819 -15.0643 -19.1337 -14.2627 -20.2069 
-19.5994 -21.119 -21.6297 -22.8111 
-7.4885 -3.729 -4.205 -2.186 -1.4985 -3.6835 -3.9535 -2.3345 -8.171 0 
-11.8447 -7.1785 -6.054 -3.339 -5.321 -8.441501 -5.226501 -10.051 -8.171 
-15.2942 -9.2735 -7.151 -7.2845 -9.687 -8.975501 -12.8212 -10.051 
-17.3892 -10.5335 -10.4185 -11.9321 -10.7515 -16.6382 -12.8212 
-18.6492 -13.801 -15.3647 -12.9966 -18.4142 -16.6382 
-7.4885 -4.3895 -1.4985 -4.3625 -4.4895 -2.3345 -8.171 -1.934 -2.985 -3.729 -3.594 
-11.0805 -5.4965 -6.1145 -8.744501 -5.5805 -10.051 -9.703501 -4.111 -6.811 -7.616 
-12.1875 -9.774 -10.1225 -9.545501 -13.741 -11.5835 -12.1171 -7.6255 -11.118 
-16.465 -14.0208 -10.9701 -17.783 -15.2735 -13.9971 -15.6316 -12.0803 
-20.7118 -14.8684 -19.2076 -19.3155 -17.6871 -17.5116 -20.0864 
