-4.759 
n/a 
n/a 
n/a 
n/a 
-4.759 
n/a 
n/a 
n/a 
n/a 
-4.759 
n/a 
n/a 
n/a 
n/a 
-4.759 
n/a 
n/a 
n/a 
n/a 
-3.4605 -3.4775 -4.0095 -3.098 
-7.3955 -6.7495 -5.8865 
-11.4047 -8.361 
-13.0162 
n/a 
-3.473 -3.5005 -4.96 
-6.489 -8.094501 
-11.6884 
n/a 
n/a 
-1.4985 -4.5865 -4.0505 -3.9285 -1.934 -1.4985 -3.473 -2.3345 -1.4985 0 -3.098 0 
-6.655001 -10.1636 -7.982 -4.3695 -2.6125 -4.624001 -6.0655 -3.233 -1.4985 -3.098 -3.098 
-12.9947 -14.0951 -8.2115 -4.6845 -5.738 -6.875 -7.355 -3.233 -4.3095 -3.098 
-16.9262 -14.3246 -8.477501 -7.9205 -7.830501 -7.939001 -7.355 -5.8835 -4.3095 
-17.1557 -14.5906 -12.2179 -10.6465 -9.030001 -7.939001 -9.953501 -5.8835 
-3.3425 -1.7565 -3.275 -1.934 -1.8085 -3.308 0 -3.098 0 
-4.712 -5.536 -5.386 -3.2685 -4.9475 -3.308 -3.098 -3.098 
-8.3465 -8.214001 -6.572001 -6.491 -4.9475 -6.711 -3.098 
-11.6859 -9.3935 -8.373 -6.491 -8.456 -6.711 
-12.8654 -11.5305 -8.373 -10.074 -8.456 
