-4.759 
n/a 
n/a 
n/a 
n/a 
-4.759 
n/a 
n/a 
n/a 
n/a 
-4.759 
n/a 
n/a 
n/a 
n/a 
-4.759 
n/a 
n/a 
n/a 
n/a 
-1.934 -3.539 -3.1255 -3.0365 -2.4945 -4.1055 -4.9225 -2.7415 -4.19 -2.5195 -5.478 0 
-5.011 -5.476 -6.8465 -3.688 -7.1705 -9.564501 -7.802 -6.03 -6.5665 -7.958 -5.478 
-7.930501 -9.333 -7.4925 -7.657501 -12.9727 -12.5852 -11.2257 -8.366 -12.6354 -7.958 
-12.2351 -10.139 -11.598 -13.6991 -15.9934 -16.0089 -13.5617 -14.6385 -12.6354 
-13.0411 -14.2445 -17.6396 -16.7198 -19.4171 -18.3449 -19.8342 -14.6385 
-3.539 -7.5495 -4.1055 -7.549 
-10.39 -12.8415 -12.1503 
-14.7373 -21.4931 
-23.7179 
n/a 
-3.539 -3.1255 0 -1.934 -1.8085 -4.7225 -12.16972 -2.688 -12.16972 -5.619 -3.1715 -2.7455 -4.1055 -3.1385 -4.424 0 
-5.476 -3.1255 -1.934 -3.2685 -5.9775 -18.08442 -14.85772 -15.93152 -17.78872 -8.345501 -6.633 -6.1415 -6.618 -6.278501 -4.424 
-5.476 -5.776 -3.2685 -6.994 -20.01502 -20.77242 -28.10124 -21.55052 -20.51522 -13.48 -9.276001 -7.515 -8.7725 -6.278501 
-8.361 -7.313 -6.994 -21.37412 -22.70302 -34.01594 -33.72024 -24.27702 -25.64972 -16.123 -11.2433 -10.1675 -8.7725 
-9.800501 -11.3045 -21.37412 -24.06212 -35.94654 -39.63494 -36.44674 -29.41152 -28.29272 -18.0903 -13.8958 -10.1675 
-3.539 -3.1255 0 -4.1055 -3.1385 -4.424 -1.934 -1.4985 -4.3125 -4.433 -2.3335 -4.4825 -1.934 -5.3765 -2.688 -4.4045 
-5.476 -3.1255 -4.1055 -6.618 -6.278501 -5.195 -2.6125 -5.5105 -7.7475 -6.5775 -5.798 -5.5625 -7.9035 -7.9575 -4.9465 
-5.476 -7.0325 -6.618 -8.7725 -6.8605 -6.055501 -7.059 -8.798 -8.988501 -9.3135 -6.679 -12.2066 -9.325001 -8.132501 
-10.2585 -10.733 -8.7725 -9.389 -7.352 -10.2805 -10.396 -9.5745 -11.8173 -10.082 -13.4967 -13.6281 -9.339001 
-14.4916 -12.8875 -9.389 -9.957001 -11.9488 -13.6175 -11.1725 -12.4885 -12.5858 -16.8997 -14.9182 -13.6421 
