-4.759 
n/a 
n/a 
n/a 
n/a 
-4.759 
n/a 
n/a 
n/a 
n/a 
-4.759 
n/a 
n/a 
n/a 
n/a 
-4.759 
n/a 
n/a 
n/a 
n/a 
-1.934 -1.4985 -3.1385 -2.229 -4.5585 -3.986 -2.186 -3.809 -5.4135 -3.6065 -2.5195 -3.0695 -1.4985 -4.9725 -2.4945 -1.934 -1.4985 -3.7375 
-2.6125 -4.2575 -4.6125 -6.317 -9.6595 -5.405 -6.445001 -8.1415 -9.933001 -4.897 -6.5175 -5.409 -6.092 -6.254001 -4.2645 -2.6125 -4.9415 
-6.285501 -5.5035 -10.434 -12.1716 -11.1223 -8.830501 -11.2755 -12.848 -11.4157 -8.553 -8.228001 -9.359001 -7.328 -8.09 -4.935 -5.999001 
-6.6105 -12.0694 -16.2886 -13.6344 -14.5478 -13.9776 -15.982 -14.3307 -15.0717 -9.634501 -12.2808 -9.877001 -9.008 -8.750001 -8.598001 
-13.9526 -17.924 -17.7514 -17.0599 -19.6949 -18.6841 -17.4647 -17.9867 -16.1532 -14.5237 -12.7988 -11.616 -9.726001 -12.7294 
-3.237 -4.838 -2.3335 -3.034 -4.2815 -1.7695 -2.5685 -3.9655 -3.1385 -1.934 -3.7375 0 -3.986 -2.186 -5.408 0 
-7.4385 -5.781 -4.8415 -5.568 -4.4915 -4.2305 -6.392 -7.580501 -4.522 -4.882 -3.7375 -3.986 -5.405 -8.186501 -5.408 
-8.429001 -8.305 -7.7025 -5.7335 -6.7575 -7.775001 -9.818501 -8.863001 -7.265501 -4.882 -7.608 -5.405 -12.4071 -8.186501 
-11.0172 -11.3442 -7.9095 -7.984001 -11.068 -11.5837 -11.153 -10.4945 -7.265501 -8.078501 -9.099501 -12.4071 -12.4071 
-14.0564 -11.5512 -10.044 -12.4835 -14.8767 -12.9182 -12.7845 -10.4945 -10.8028 -9.409 -16.1662 -12.4071 
-2.3345 -1.4985 -2.9635 -1.7565 -3.237 0 -2.9805 -2.7415 -1.4985 -5.408 -5.4135 -3.1575 -2.8965 -5.4135 -1.934 -3.7375 
-3.233 -4.761 -4.6005 -4.57 -3.237 -2.9805 -4.004 -4.063 -5.725 -9.894501 -8.125501 -5.4505 -7.6 -6.858 -4.882 
-7.2345 -5.786 -7.6505 -4.57 -6.809501 -4.004 -5.390501 -6.814 -10.111 -12.7861 -10.7889 -10.5246 -8.536501 -8.411 
-8.186501 -8.72 -7.6505 -8.8985 -7.9665 -5.390501 -7.447001 -11.8192 -13.11 -15.4495 -15.863 -11.4611 -9.643001 
-11.3349 -8.72 -12.392 -10.3163 -9.2945 -7.447001 -12.6356 -14.8182 -15.7734 -20.5236 -16.7995 -12.5676 
-3.986 -2.186 -1.8085 -3.809 -5.4135 -1.934 -1.4985 -4.877 -1.7565 -3.237 0 -2.264 -1.4985 -4.978 -1.7695 -1.4985 -4.9725 -1.934 -3.7375 0 
-5.405 -3.164 -4.9205 -8.1415 -6.858 -2.6125 -5.773001 -5.731501 -4.57 -3.237 -2.264 -2.9195 -5.3245 -5.3075 -2.7955 -6.092 -6.434 -4.882 -3.7375 
-6.261001 -6.3525 -8.6035 -9.526501 -7.4375 -6.193501 -5.8675 -9.081 -4.57 -5.8935 -2.9195 -5.719501 -7.231501 -5.768 -7.381001 -7.3785 -7.554501 -4.882 
-9.307501 -9.684 -9.84 -10.161 -11.5857 -6.217 -9.186501 -9.081 -8.818501 -6.413 -5.719501 -7.619 -8.0415 -10.442 -8.601501 -8.162001 -7.554501 
-12.8338 -10.4205 -10.4375 -14.3092 -11.6092 -9.4565 -9.186501 -13.6615 -9.540501 -9.059 -7.619 -8.4875 -13.0259 -11.6625 -9.337501 -8.162001 
