-4.759 
n/a 
n/a 
n/a 
n/a 
-4.759 
n/a 
n/a 
n/a 
n/a 
-4.759 
n/a 
n/a 
n/a 
n/a 
-4.759 
n/a 
n/a 
n/a 
n/a 
-2.4265 -2.882 -3.6845 -1.8085 -4.3885 -4.1035 -1.7695 -1.4985 -4.0615 
-4.4545 -5.8175 -4.7885 -4.904 -6.2705 -4.643001 -2.7955 -5.094501 
-7.159 -6.9575 -6.6685 -6.428 -6.548501 -5.3595 -6.1785 
-8.360001 -9.212501 -7.8655 -6.641 -6.9905 -9.103001 
-10.7575 -10.5535 -8.076 -7.0585 -10.9374 
-3.135 -3.5215 -3.535 -4.1035 -3.7855 -1.7695 -1.4985 -4.31 
-6.2085 -7.6285 -8.0775 -8.007501 -4.793 -2.7955 -5.7285 
-9.597 -12.4842 -12.3153 -9.64 -5.356501 -6.8155 
-14.6215 -16.722 -13.9478 -10.377 -9.215 
-18.8593 -18.3545 -14.6848 -14.2355 
-1.8085 -3.535 -4.1035 -2.742 -2.489 -3.7855 -1.7695 -3.895 0 
-4.294 -8.0775 -7.472501 -3.301 -4.789001 -4.793 -5.3535 -3.895 
-8.198 -10.3815 -8.0255 -5.34 -5.3715 -7.873001 -5.3535 
-10.7565 -10.7295 -9.056001 -5.9595 -8.479501 -7.873001 
-11.1045 -11.76 -9.454 -9.047 -8.479501 
-3.535 -4.1035 -2.742 -2.489 -3.7855 -1.7695 -1.4985 -3.664 -2.0935 -1.8085 -3.535 -4.313 -1.7565 -2.95 
-8.0775 -7.472501 -3.301 -4.789001 -4.793 -2.7955 -5.285501 -5.909 -3.385 -4.294 -7.797 -5.391 -4.3865 
-10.3815 -8.0255 -5.34 -5.3715 -5.356501 -6.3565 -7.533501 -7.262001 -5.721001 -8.152 -8.4665 -7.2205 
-10.7295 -9.056001 -5.9595 -5.9095 -8.734501 -8.294001 -8.929001 -9.288501 -8.7775 -8.784 -9.887 
-11.76 -9.454 -6.603 -9.387501 -10.503 -9.804501 -11.1191 -12.6306 -10.419 -10.1675 
