-4.759 
n/a 
n/a 
n/a 
n/a 
-4.759 
n/a 
n/a 
n/a 
n/a 
-4.759 
n/a 
n/a 
n/a 
n/a 
-4.759 
n/a 
n/a 
n/a 
n/a 
-1.934 -3.4075 -3.518 -3.2495 -2.9195 -3.7425 -2.4945 -4.0225 -2.9905 0 
-5.572001 -5.618501 -6.443501 -7.0275 -6.618 -6.095 -5.396 -5.2715 -2.9905 
-8.0445 -8.818001 -10.6275 -10.264 -9.440001 -9.915501 -6.614501 -5.2715 
-11.3758 -13.0968 -13.864 -13.086 -13.4841 -11.3054 -6.614501 
-15.6546 -16.3333 -16.686 -17.1301 -14.874 -11.3054 
-3.0365 -2.4945 -3.2495 -4.578 -3.793 -2.264 -1.4985 -3.4075 -3.518 0 
-3.688 -4.891 -7.356 -7.1195 -4.9295 -2.9195 -4.118 -5.618501 -3.518 
-5.0435 -9.504001 -9.089001 -8.783 -5.7585 -5.6915 -6.0135 -5.618501 
-9.6095 -10.3115 -10.9677 -9.863501 -8.601501 -7.007 -6.0135 
-10.5655 -12.366 -12.0482 -12.7065 -10.7495 -7.007 
-3.2495 -4.378 -4.0225 -1.7695 -3.4075 -3.518 
-7.7815 -9.0935 -4.9235 -5.4725 -5.618501 
-13.2088 -9.954 -8.868 -7.749001 
-14.0693 -13.9711 -11.5289 
-18.0864 -16.632 
-3.2495 -2.688 -4.005 -3.152 -4.0225 -1.934 -3.4075 -3.518 
-5.3175 -6.4525 -6.483 -6.166 -5.3785 -5.572001 -5.618501 
-8.4575 -9.291 -9.918 -7.2415 -10.004 -8.0445 
-10.0675 -12.8374 -11.1475 -12.1594 -12.5751 
-14.0507 -14.0669 -16.0654 -14.7305 
