-4.759 
n/a 
n/a 
n/a 
n/a 
-4.759 
n/a 
n/a 
n/a 
n/a 
-4.759 
n/a 
n/a 
n/a 
n/a 
-4.759 
n/a 
n/a 
n/a 
n/a 
-5.005 -1.7695 -4.218 -3.291 -4.0615 0 
-7.076 -6.4665 -8.0205 -7.477 -4.0615 
-12.3828 -9.7755 -12.7939 -7.477 
-15.6918 -14.9573 -12.7939 
-20.8736 -14.9573 
-3.867 -3.291 -4.2255 -2.871 -2.3345 -2.871 -2.3345 -5.3175 
-7.3825 -8.149 -7.598001 -5.35 -4.9425 -5.35 -8.1075 
-12.7349 -11.7121 -9.309501 -5.8075 -7.5205 -11.7626 
-16.298 -13.4236 -9.316501 -7.6125 -14.1881 
-18.0095 -13.4306 -11.2147 -14.3035 
-3.333 -2.186 -5.7035 0 -3.291 -3.867 -2.9905 -1.4985 -4.4265 -4.4525 -2.0935 -1.4985 -3.333 0 
-5.3435 -6.399 -5.7035 -3.291 -7.5585 -6.766 -4.143 -4.9985 -8.6215 -6.035501 -2.9725 -4.6905 -3.333 
-9.5515 -6.399 -9.881001 -7.5585 -10.8915 -7.417 -7.487 -8.877501 -9.446 -6.850501 -6.57 -4.6905 
-9.5515 -10.4035 -14.6053 -10.8915 -11.5425 -11.264 -11.6242 -9.580001 -10.1285 -10.064 -6.57 
-13.5264 -15.0748 -17.9383 -11.5425 -15.3895 -15.4012 -12.3267 -10.3 -13.342 -10.064 
-3.322 -1.7695 -3.291 -3.333 -4.433 -1.7695 -4.387 
-5.841001 -5.402 -6.4595 -7.941 -6.7945 -6.860001 
-9.637501 -9.139001 -11.8955 -11.3051 -12.9388 
-13.7569 -14.7942 -15.2596 -17.4494 
-19.4121 -18.1583 -21.4039 
