-4.759 
n/a 
n/a 
n/a 
n/a 
-4.759 
n/a 
n/a 
n/a 
n/a 
-4.759 
n/a 
n/a 
n/a 
n/a 
-4.759 
n/a 
n/a 
n/a 
n/a 
-3.539 -3.0605 -8.110001 0 -3.539 -3.13 -8.0625 -3.1495 -4.9225 -2.4945 -4.784 -3.333 -2.3345 -3.299 -3.7455 
-5.469 -11.7191 -8.110001 -3.539 -5.452001 -11.7153 -11.9462 -7.203501 -6.9525 -6.634501 -8.838501 -4.8495 -5.8 -5.544001 
-15.3292 -11.7191 -12.0954 -5.452001 -15.1877 -15.599 -16.0002 -8.478001 -11.4105 -11.31 -11.5788 -9.498501 -7.946 
-15.3292 -15.7045 -14.0084 -15.1877 -19.0714 -19.653 -17.2747 -13.0694 -16.086 -14.0503 -16.2278 -10.128 
-19.3146 -17.6175 -23.7441 -19.0714 -23.1254 -20.9275 -21.8661 -17.7449 -18.8263 -18.6993 -16.8573 
-8.110001 -2.7415 -4.784 -2.264 -3.539 -4.767 -1.756 -7.2935 -2.7415 -4.784 -2.264 -3.539 -4.684 -1.756 -2.7415 -4.0925 -3.882 -2.3345 -1.8085 -3.7455 -3.333 0 
-9.8325 -5.6175 -5.958 -4.87 -6.355 -6.563 -9.374001 -9.242001 -5.6175 -5.958 -4.87 -6.3255 -6.2585 -4.4655 -5.328 -6.941 -6.134 -3.8605 -5.171 -5.7705 -3.333 
-12.7897 -6.55 -8.320001 -7.219501 -8.457001 -15.1632 -11.3791 -10.6345 -6.55 -8.320001 -7.1615 -8.441001 -9.158 -6.9155 -7.9875 -9.2045 -7.3035 -6.0525 -6.164001 -5.7705 
-13.7222 -8.554501 -11.1321 -8.9095 -17.117 -17.1683 -12.7716 -11.567 -8.554501 -11.0741 -8.8065 -10.6735 -11.6478 -9.285501 -10.119 -10.675 -10.0855 -7.574 -6.164001 
-15.7267 -11.3928 -12.8221 -17.6521 -19.1221 -18.5608 -13.7041 -13.5715 -11.3348 -12.7191 -11.1116 -13.1633 -14.0178 -11.5558 -11.6851 -13.457 -11.607 -7.574 
-1.934 -3.539 -3.0605 -8.110001 0 -1.756 -1.934 -3.539 -3.13 -7.2935 -2.7415 -4.784 -1.756 -3.321 -3.539 -4.807 -4.0925 -2.3345 -1.4985 -3.333 -1.7565 -3.299 -3.7455 0 
-5.011 -5.469 -11.7191 -8.110001 -1.756 -4.0205 -5.011 -5.452001 -11.046 -9.242001 -5.6175 -5.998001 -4.0055 -8.114 -6.3995 -9.9645 -5.414001 -3.233 -4.6905 -4.76 -4.7685 -5.544001 -3.7455 
-7.9085 -15.3292 -11.7191 -9.463501 -4.0205 -7.126 -7.9045 -14.5184 -12.9945 -10.6345 -6.566 -8.057501 -8.889 -10.6735 -12.3944 -10.6515 -5.9585 -6.612 -5.216 -8.4965 -7.514 -5.544001 
-18.2271 -15.3292 -13.0726 -11.9654 -7.126 -10.2545 -17.3731 -16.4669 -14.387 -11.583 -8.6195 -13.3178 -11.5871 -16.6684 -13.0814 -11.9816 -9.6855 -7.097 -9.104 -9.462501 -7.514 
-18.2271 -16.6827 -15.5745 -15.0709 -10.2545 -19.7231 -19.3216 -17.8594 -15.3355 -13.6365 -14.091 -16.0159 -17.582 -17.3554 -14.4115 -15.7086 -10.015 -10.7585 -10.0785 -9.462501 
-8.110001 -2.7415 -4.784 -2.264 -3.539 -3.0605 -1.756 -7.2935 -2.7415 -4.784 -2.264 -3.539 -3.13 -3.5155 -1.7565 -3.277 -3.152 -4.0925 -2.264 -3.539 -3.133 -3.4635 -1.4985 -3.333 -1.7565 -3.299 -3.7455 0 
-9.8325 -5.6175 -5.958 -4.87 -5.469 -5.424 -9.374001 -9.242001 -5.6175 -5.958 -4.87 -5.452001 -7.6035 -4.8955 -4.25 -5.6945 -5.9985 -5.427 -4.87 -5.5345 -7.515 -4.6325 -4.6905 -4.76 -4.7685 -5.544001 -3.7455 
-12.7897 -6.55 -8.320001 -6.4005 -7.972 -13.705 -11.3791 -10.6345 -6.55 -8.320001 -6.386001 -9.998 -8.418 -5.762 -5.802001 -8.415501 -7.01 -7.143001 -6.467501 -10.0815 -8.292001 -7.8155 -5.216 -8.4965 -7.514 -5.544001 
-13.7222 -8.554501 -9.956 -8.4125 -16.7344 -15.7101 -12.7716 -11.567 -8.554501 -9.753501 -10.5125 -10.8125 -9.961 -7.1955 -8.452001 -9.269 -8.887501 -8.809 -10.418 -10.5695 -11.567 -8.127501 -9.104 -9.462501 -7.514 
-15.7267 -10.107 -11.968 -17.2457 -18.7395 -17.1026 -13.7041 -13.5715 -10.078 -13.9112 -11.327 -12.3555 -11.3945 -9.875501 -9.288501 -11.3137 -10.6735 -12.6845 -10.906 -13.8445 -11.879 -12.3015 -10.0785 -9.462501 
