-4.759 
n/a 
n/a 
n/a 
n/a 
-4.759 
n/a 
n/a 
n/a 
n/a 
-4.759 
n/a 
n/a 
n/a 
n/a 
-4.759 
n/a 
n/a 
n/a 
n/a 
-2.5685 -2.4945 -4.5385 -2.0935 -3.8975 0 -4.7605 0 -3.4635 -1.7695 -3.7435 0 -4.0335 0 -1.756 -4.877 0 -2.186 -4.0535 -3.2615 -3.8255 -1.4985 -4.033 -5.09 -2.186 -3.8225 -2.872 -3.2615 -3.8255 -3.932 -4.2865 -5.09 -2.5685 -3.2645 -3.74 -1.7695 -2.911 -2.0935 -3.914 -1.7565 -4.903 -1.7695 -5.5055 -5.5435 -2.3615 -4.339 -2.186 -4.6505 -3.325 -6.4155 0 -4.1585 0 0 
-5.3665 -5.863501 -4.9375 -6.1315 -3.8975 -4.7605 -4.7605 -3.4635 -4.2045 -6.272 -3.7435 -4.0335 -4.0335 -1.756 -6.0345 -4.877 -2.186 -5.8495 -6.9665 -5.910501 -4.982 -5.005 -7.915 -6.828 -5.589 -6.4135 -5.3645 -5.910501 -6.349 -8.2185 -8.1975 -7.6265 -6.2835 -5.7505 -4.2995 -4.603 -4.1005 -6.06 -4.677 -6.5505 -7.413001 -5.7815 -7.9025 -7.798 -5.805 -5.8175 -6.0075 -7.4945 -10.2815 -6.4155 -4.1585 -4.1585 0 
-8.910501 -5.947001 -8.496501 -6.1315 -10.361 -4.7605 -8.646001 -4.2045 -7.816 -6.272 -6.0365 -4.0335 -5.2485 -6.0345 -6.0345 -7.254001 -5.8495 -8.192 -9.699 -6.8455 -8.809 -9.208501 -9.2225 -10.564 -7.524 -9.27 -7.651 -9.049001 -10.2035 -12.2759 -11.0562 -12.0853 -8.418 -6.0815 -7.199501 -5.17 -7.519001 -7.431001 -9.4905 -8.361501 -10.4765 -8.197001 -9.781 -11.4763 -6.562 -8.455 -8.403501 -14.7518 -10.2815 -11.2338 -4.1585 -4.1585 
-9.001 -9.940001 -8.496501 -13.317 -10.361 -8.646001 -9.620001 -7.816 -7.816 -8.304 -6.0365 -5.2485 -8.458 -6.0345 -8.318501 -9.5255 -8.192 -11.1997 -10.742 -10.4345 -13.1819 -10.9836 -13.2295 -12.499 -10.564 -11.7605 -11.0775 -13.0963 -14.5123 -15.1346 -15.515 -14.2198 -8.835501 -9.3795 -7.601 -8.853001 -9.068501 -12.4877 -11.3769 -11.5216 -12.892 -10.0605 -13.5263 -12.2333 -9.061001 -10.9438 -15.9454 -14.7518 -15.0998 -11.2338 -4.1585 
-13.2918 -9.940001 -16.0918 -13.317 -14.2465 -9.620001 -13.2351 -7.816 -9.7165 -8.304 -6.4835 -8.458 -8.458 -8.318501 -10.6432 -12.2986 -11.1997 -12.2427 -14.331 -15.1562 -14.957 -14.9906 -15.1645 -15.539 -13.0545 -15.187 -15.1248 -17.4051 -17.371 -19.5934 -17.6495 -14.6373 -12.3471 -9.731501 -11.782 -10.459 -14.3966 -14.3741 -14.537 -13.9371 -14.7555 -13.8058 -14.2833 -14.7323 -11.7932 -18.4857 -15.9454 -19.5701 -15.0998 -11.2338 
-2.5685 -3.6835 -5.164 -3.681 0 -4.065 0 -3.7435 0 -4.394 0 -1.756 -8.9825 0 -2.5685 -1.934 -4.5385 -2.186 -3.8665 0 -4.5385 -2.186 -4.246 -3.4635 -3.644 -3.9335 
-6.053 -5.399 -8.8485 -3.681 -4.065 -4.065 -3.7435 -3.7435 -4.394 -4.394 -1.756 -10.155 -8.9825 -2.5685 -4.606 -6.5195 -6.884501 -6.099 -3.8665 -4.5385 -6.884501 -5.2935 -9.83 -8.082001 -6.9335 
-6.668 -9.443001 -8.8485 -7.692501 -4.065 -8.241501 -3.7435 -6.154 -4.394 -5.7635 -10.155 -10.155 -11.8952 -4.606 -9.8105 -9.264501 -11.4073 -6.099 -9.818501 -6.884501 -10.1555 -11.3037 -14.5281 -11.7605 
-11.0684 -9.443001 -13.2788 -7.692501 -8.241501 -8.241501 -6.154 -6.154 -5.7635 -15.0939 -10.155 -13.0677 -13.9327 -9.8105 -12.5577 -13.9197 -11.4073 -12.6564 -12.0383 -10.1555 -16.1657 -16.0018 -18.2066 
-11.0684 -14.0625 -13.2788 -12.3978 -8.241501 -10.0375 -6.154 -7.475 -15.0939 -15.0939 -13.0677 -15.1052 -19.1372 -12.5577 -17.2129 -13.9197 -17.9647 -14.8762 -15.3093 -16.1657 -20.8638 -19.6803 
-1.934 -2.5685 -3.8245 -3.681 -1.4985 -4.0905 -4.126 -4.331 -3.89 0 -4.9505 0 -3.7435 0 -3.9195 -1.756 -4.495 0 -2.3345 -4.5385 -3.1495 -2.4945 -6.8465 -3.034 -2.925 -3.7905 -3.5905 -4.126 -2.925 -4.4385 -2.985 -3.3435 -2.3345 -4.5385 -1.756 -4.077 -4.6335 -3.89 0 
-4.244 -6.176 -6.1385 -5.5 -5.3885 -8.363001 -9.349001 -9.64 -3.89 -4.9505 -4.9505 -3.7435 -3.7435 -3.9195 -5.2245 -5.976 -4.495 -2.3345 -5.949 -7.6355 -4.459 -9.7095 -8.3295 -4.4 -5.532001 -7.39 -7.427 -6.805501 -7.3005 -6.681001 -5.5965 -5.503 -5.949 -6.0305 -6.1935 -8.106501 -7.974 -3.89 
-7.4375 -6.757 -7.6875 -9.264501 -9.172501 -13.8926 -14.779 -9.64 -8.9325 -4.9505 -9.1255 -3.7435 -7.502 -5.2245 -8.714001 -5.976 -7.079 -5.949 -8.05 -9.2545 -11.906 -12.1965 -9.645 -6.5865 -8.502501 -11.9289 -10.674 -11.3764 -8.656501 -9.067 -7.769 -9.578501 -8.2005 -11.456 -10.4508 -12.7614 -7.974 
-8.1415 -8.2815 -11.6672 -13.1333 -14.9109 -19.3226 -14.779 -14.8579 -8.9325 -9.1255 -9.1255 -7.502 -7.999001 -8.714001 -8.714001 -8.7565 -11.0943 -8.05 -10.6642 -17.0925 -14.0633 -13.7005 -12.0295 -8.913 -13.2834 -15.1759 -15.2449 -12.7324 -10.9579 -11.4009 -12.1795 -12.046 -13.9996 -15.7133 -15.1057 -12.7614 
-9.425501 -12.3146 -15.536 -18.8717 -20.3409 -19.3226 -19.9969 -14.8579 -13.4005 -9.1255 -13.4036 -7.999001 -12.5379 -8.714001 -10.76 -12.9038 -13.1953 -10.6642 -18.5022 -19.051 -15.5673 -16.0179 -14.3219 -13.8253 -16.5304 -19.7468 -16.6009 -15.0338 -13.2918 -15.8114 -14.647 -17.8451 -18.2569 -20.3682 -15.1057 
-2.5685 -5.966 -7.7925 -1.934 -4.7405 -8.869 0 -3.7435 0 -4.0335 0 -5.359 0 -4.6525 -1.4985 -4.2125 
-8.7825 -14.9567 -9.992001 -6.6195 -14.7147 -8.869 -3.7435 -3.7435 -4.0335 -4.0335 -5.359 -5.359 -4.6525 -5.5135 -4.9175 
-18.158 -17.1562 -14.6755 -17.3503 -14.7147 -12.7575 -3.7435 -6.0365 -4.0335 -9.417 -5.359 -9.436001 -5.5135 -10.6095 
-20.3575 -21.8397 -25.4063 -17.3503 -18.6032 -12.7575 -6.0365 -6.0365 -9.417 -9.417 -9.436001 -10.187 -10.6095 
-25.041 -32.5705 -25.4063 -21.2388 -18.6032 -15.0505 -6.0365 -12.4866 -9.417 -13.6884 -10.187 -15.674 
