-4.759 
n/a 
n/a 
n/a 
n/a 
-4.759 
n/a 
n/a 
n/a 
n/a 
-4.759 
n/a 
n/a 
n/a 
n/a 
-4.759 
n/a 
n/a 
n/a 
n/a 
-2.3615 -2.7415 -4.321 -5.0515 -2.3345 -3.1385 -1.7565 -3.691 -1.756 -4.373 -1.7565 -3.9675 -3.6215 -1.7565 -4.2085 -3.5435 0 
-4.455 -6.7015 -8.627001 -6.0075 -5.443501 -4.861 -4.930501 -5.176 -6.0775 -4.726 -5.5405 -7.386001 -3.936 -5.6585 -6.275001 -3.5435 
-8.672501 -11.2371 -9.9615 -9.5845 -6.941 -7.4775 -6.218501 -9.4945 -6.706501 -6.493 -8.908 -7.712501 -6.5695 -8.040501 -6.275001 
-13.4053 -12.5716 -13.5489 -11.1098 -10.702 -8.484501 -10.459 -9.5175 -8.594001 -9.4145 -9.130501 -9.851501 -11.6665 -8.040501 
-14.7398 -16.159 -15.0742 -14.8708 -12.4738 -12.9488 -10.482 -11.6688 -11.7283 -9.639501 -11.2695 -14.5755 -11.6665 
-2.3615 -2.186 -1.4985 -4.2085 -3.97 -1.756 -3.564 -4.5735 0 
-3.5005 -3.339 -4.987 -6.547 -5.137 -4.562 -5.74 -4.5735 
-4.3105 -7.216 -9.428 -7.955501 -7.238501 -6.6235 -5.74 
-8.5725 -11.8968 -11.1215 -10.265 -9.209001 -6.6235 
-13.4639 -13.5903 -13.431 -12.8153 -9.209001 
-2.3615 -2.186 -4.321 -5.52 -2.3345 -1.4985 -4.2085 -3.1385 -1.756 -4.2085 -3.5435 -2.229 -4.2465 -3.326 -4.373 0 
-3.5005 -5.955501 -8.896 -6.808001 -3.233 -4.987 -7.394501 -4.6325 -5.882 -6.275001 -4.973001 -6.122 -6.9765 -7.491 -4.373 
-7.578001 -10.7025 -10.504 -7.846001 -6.23 -7.652 -8.543501 -9.416 -7.8525 -7.579501 -8.4615 -9.842001 -10.3605 -7.491 
-12.7858 -12.3105 -11.542 -11.0626 -9.2305 -8.651501 -10.5535 -11.5795 -9.705501 -10.7335 -12.6201 -13.4212 -10.3605 
-14.3938 -13.3485 -14.7586 -14.0631 -10.3345 -10.7439 -12.717 -13.4325 -13.0785 -14.8921 -16.1993 -13.4212 
-3.1495 -3.7695 -2.674 -4.4715 -4.463 -2.3345 -3.691 -4.9225 
-7.8605 -6.971001 -6.777 -8.552501 -6.173 -6.556001 -9.272 
-10.6465 -11.9288 -9.7655 -10.2485 -10.5035 -12.965 
-15.6043 -14.9173 -11.7035 -14.579 -16.9125 
-18.5928 -16.8553 -16.034 -20.988 
