-4.759 
n/a 
n/a 
n/a 
n/a 
-4.759 
n/a 
n/a 
n/a 
n/a 
-4.759 
n/a 
n/a 
n/a 
n/a 
-4.759 
n/a 
n/a 
n/a 
n/a 
0 -3.7925 0 -5.697001 -4.1975 0 -4.055 0 -2.688 -3.586 -3.4465 -3.559 -2.186 -3.188 -4.4665 -2.871 
-3.7925 -3.7925 -5.697001 -11.4293 -4.1975 -4.055 -4.055 -2.688 -3.615 -7.962001 -6.662 -5.321 -6.3455 -7.297501 -6.8655 
-3.7925 -11.08 -11.4293 -11.4293 -8.652 -4.055 -7.1555 -3.615 -8.003 -11.5435 -8.399 -9.451 -10.4765 -10.7575 
-11.08 -16.8123 -11.4293 -15.8838 -8.652 -7.1555 -7.856501 -8.003 -11.6081 -13.2805 -12.768 -14.0412 -13.9365 
-16.8123 -16.8123 -15.8838 -15.8838 -12.4675 -7.856501 -12.7397 -11.6081 -13.3451 -17.6495 -17.3582 -17.5012 
-6.0845 -3.4465 -3.559 -2.186 -1.8085 -3.6135 -2.871 -2.0935 -4.369 -3.0435 0 
-10.443 -6.662 -5.321 -3.164 -4.4545 -6.0005 -4.9555 -6.524 -6.913501 -3.0435 
-13.9455 -8.399 -6.5245 -5.4355 -6.463 -7.3865 -10.249 -10.6345 -6.913501 
-15.6825 -9.446501 -8.588 -7.1615 -7.552001 -12.8376 -14.3595 -10.6345 
-16.73 -11.7346 -9.599001 -8.146 -13.0269 -16.9481 -14.3595 
-6.0845 -3.7275 -3.559 -2.186 -1.4985 -3.188 -2.229 -4.4665 -1.934 -4.369 -3.8355 
-9.102 -5.039001 -5.321 -3.339 -3.619 -4.279 -5.278501 -6.8135 -6.794 -7.889501 
-11.5067 -6.7335 -6.6505 -4.9385 -4.3695 -5.936501 -8.4405 -10.485 -11.3421 
-13.2012 -8.2405 -8.042001 -4.97 -6.0715 -9.073 -12.2932 -15.3735 
-14.7082 -9.8625 -8.067 -7.313 -9.141001 -13.1443 -17.1817 
-1.934 -4.369 -4.1975 -6.0845 -3.7275 -3.559 -2.186 -1.4985 -3.188 -2.229 -3.264 -2.871 0 
-6.794 -7.979001 -11.5962 -9.102 -5.039001 -5.321 -3.339 -3.619 -4.279 -5.7735 -5.1405 -2.871 
-9.863001 -15.9903 -14.6137 -11.5067 -6.7335 -6.6505 -4.9385 -4.3695 -6.950001 -6.244 -5.1405 
-18.2131 -19.0078 -17.0184 -13.2012 -8.2405 -8.042001 -4.97 -6.9835 -7.075001 -6.244 
-21.2306 -21.4125 -18.7129 -14.7082 -9.8625 -8.067 -7.704 -7.1045 -7.075001 
