-4.759 
n/a 
n/a 
n/a 
n/a 
-4.759 
n/a 
n/a 
n/a 
n/a 
-4.759 
n/a 
n/a 
n/a 
n/a 
-4.759 
n/a 
n/a 
n/a 
n/a 
-12.16972 -3.9955 -1.4985 -3.8275 -2.872 -9.040501 -9.228001 -4.424 -1.934 -1.8085 -3.5015 -3.849 -9.6265 
-16.16522 -5.0175 -4.726 -6.095 -13.2095 -19.2891 -13.8498 -5.195 -3.2685 -4.642 -6.303 -13.6361 
-17.18722 -6.986 -6.7405 -16.7043 -23.4581 -23.9109 -14.6208 -6.338 -5.982 -6.456 -16.2089 
-19.15572 -8.4265 -17.4286 -26.9529 -28.0799 -24.6819 -15.7638 -9.405001 -7.358 -16.4029 
-20.59622 -19.371 -27.6772 -31.5747 -28.8509 -25.8249 -18.8308 -10.397 -17.3153 
-4.013 -7.4885 -3.7555 -4.6335 -11.0555 -2.7415 -4.424 -1.934 -1.4985 -3.8275 -1.7565 -9.456 
-12.2915 -11.8712 -8.953 -16.7352 -13.797 -8.262 -5.195 -2.6125 -4.726 -5.4695 -12.1617 
-16.6742 -17.0687 -21.2817 -19.4767 -19.3175 -9.086 -6.055501 -5.815001 -6.01 -17.1769 
-21.8717 -29.3974 -24.0232 -24.9972 -20.1415 -9.695001 -7.726501 -6.858 -18.1014 
-34.2004 -32.1389 -29.5437 -25.8212 -20.7505 -11.5004 -9.185 -19.1482 
-3.4765 -3.929 -10.4705 -3.7555 -4.6335 0 -11.0555 -4.424 -1.934 -1.8085 -3.8275 -4.005 -2.5045 -1.8085 -3.5015 -3.849 -9.6265 0 
-4.589 -15.1691 -14.3766 -8.953 -4.6335 -11.0555 -15.4795 -5.195 -3.2685 -5.421 -8.038 -5.0615 -3.913 -4.642 -6.303 -13.6361 -9.6265 
-16.1723 -19.0752 -19.5741 -8.953 -16.7352 -15.4795 -16.2505 -6.338 -6.396 -10.322 -9.0425 -6.6465 -6.3695 -6.456 -16.2089 -13.6361 
-20.0784 -24.2727 -19.5741 -21.2817 -21.1592 -16.2505 -17.3935 -8.652 -11.7174 -11.3265 -10.758 -8.381001 -7.1195 -16.4029 -16.2089 
-25.2759 -24.2727 -31.9028 -25.7057 -21.9302 -17.3935 -19.7075 -14.1314 -12.7219 -13.042 -12.4925 -9.491501 -17.1028 -16.4029 
-3.929 -9.196501 -2.229 -2.7415 -5.8885 -3.9725 -6.845 -4.424 -1.934 -3.8275 -4.005 -1.934 -9.6265 0 
-13.8951 -11.1415 -5.767 -7.313001 -8.3955 -11.7605 -12.1184 -5.195 -5.911 -8.038 -4.808 -12.5669 -9.6265 
-15.8401 -14.6795 -9.951 -10.5434 -16.5069 -17.0339 -12.8894 -8.2375 -10.1035 -8.6785 -16.1013 -12.5669 
-19.3781 -18.8635 -13.206 -18.6548 -21.7803 -17.8049 -15.9319 -12.5872 -10.381 -20.14 -16.1013 
-23.5621 -22.1185 -21.3174 -23.9282 -22.5513 -20.8474 -20.2816 -12.8647 -22.0787 -20.14 
