-4.759 
n/a 
n/a 
n/a 
n/a 
-4.759 
n/a 
n/a 
n/a 
n/a 
-4.759 
n/a 
n/a 
n/a 
n/a 
-4.759 
n/a 
n/a 
n/a 
n/a 
-3.5455 -5.3425 -7.410501 -1.8085 -4.8675 -3.892 -2.7415 -4.06 -3.458 -3.83 -1.756 -6.04 
-9.059 -9.2735 -9.670501 -6.596001 -8.0985 -6.3605 -5.9455 -6.071001 -7.3275 -5.7745 -7.482 
-13.2248 -11.9551 -10.6625 -9.015501 -10.586 -9.002001 -7.9855 -10.228 -7.633501 -8.085501 
-15.9064 -12.9471 -13.6796 -11.5596 -13.2275 -10.2335 -12.2549 -10.3365 -8.9685 
-16.8984 -15.9642 -16.2237 -14.2011 -14.459 -14.5029 -12.3634 -10.5415 
-3.5455 -5.371 0 -1.4985 -3.5015 -3.557 -3.458 -3.83 -1.756 -6.04 -3.849 -2.5045 -10.462 -2.186 -1.8085 -4.575 0 
-9.0965 -5.371 -1.4985 -4.737 -7.8345 -6.315001 -7.3275 -5.7745 -7.482 -9.753501 -6.305 -13.8839 -12.648 -3.164 -6.269 -4.575 
-9.0965 -7.1285 -4.737 -9.011001 -10.9033 -10.3905 -7.633501 -8.085501 -11.5307 -12.3479 -17.788 -16.0699 -13.626 -7.615 -6.269 
-10.4195 -10.688 -9.011001 -12.3318 -14.9788 -10.6965 -8.9685 -12.3736 -14.1251 -23.8309 -19.974 -17.0479 -18.077 -7.615 
-13.979 -14.962 -12.3318 -16.4073 -15.2848 -12.0315 -13.4892 -14.968 -25.6081 -26.0169 -20.952 -21.4989 -18.077 
-1.934 -5.3425 -1.4985 -3.83 -8.001 -3.8195 -2.4945 -3.115 -9.304001 0 
-6.6075 -7.1285 -5.294001 -13.0284 -12.4329 -5.551 -5.505 -13.1946 -9.304001 
-7.5475 -11.2256 -15.8536 -17.4603 -14.1644 -8.723001 -15.9718 -13.1946 
-11.8048 -21.7852 -20.2855 -19.1918 -17.3364 -19.418 -15.9718 
-22.3644 -26.2171 -22.017 -22.3638 -28.0314 -19.418 
-1.934 -5.3425 -3.158 -3.83 -9.9545 -3.979 -1.7565 -12.16972 -3.5015 0 
-6.6075 -9.367001 -8.278501 -14.9819 -14.0593 -6.138 -14.87542 -15.67122 -3.5015 
-11.245 -14.7411 -19.8892 -19.0867 -16.2183 -20.09792 -18.37692 -15.67122 
-16.6191 -26.3518 -23.994 -21.2457 -30.17822 -23.59942 -18.37692 
-28.2298 -30.4566 -26.153 -35.20562 -33.67972 -23.59942 
