-4.759 
n/a 
n/a 
n/a 
n/a 
-4.759 
n/a 
n/a 
n/a 
n/a 
-4.759 
n/a 
n/a 
n/a 
n/a 
-4.759 
n/a 
n/a 
n/a 
n/a 
-1.934 -5.311 -10.005 -1.756 -9.6215 -6.946 -2.8645 -1.8085 -3.7535 -2.7455 -2.3615 -3.685 0 
-6.1935 -16.2386 -11.7998 -12.3861 -10.907 -9.8225 -3.9785 -5.071 -5.507 -4.1635 -4.9725 -3.685 
-17.5505 -18.0334 -22.4299 -13.6716 -13.7835 -10.48 -7.832 -6.2295 -6.7745 -8.2535 -4.9725 
-19.3453 -28.6635 -23.7154 -16.5481 -14.441 -14.3335 -9.068001 -7.245 -11.5409 -8.2535 
-29.9754 -29.949 -26.5919 -17.2056 -18.2945 -15.5695 -10.1995 -12.5442 -11.5409 
-4.431 -3.152 -4.005 -3.458 -8.819 -6.946 -1.756 -5.5785 -1.934 -5.311 -1.934 -2.3615 -4.6495 
-6.919001 -5.6565 -6.658 -13.0492 -9.091001 -8.731501 -7.555501 -7.410501 -6.1935 -7.369 -3.539 -5.5385 
-7.979001 -7.742001 -16.8174 -13.3212 -10.451 -10.6215 -9.063001 -10.674 -8.0105 -9.432501 -5.543 
-8.841001 -17.9618 -17.0894 -14.6812 -12.341 -12.129 -12.5085 -12.491 -9.8735 -11.4801 
-19.3374 -18.2338 -18.4494 -16.5712 -13.8485 -15.5745 -14.3255 -14.354 -11.9211 
-4.2275 -3.152 -4.005 -1.934 -5.311 -3.458 -6.946 -1.756 -5.5785 -4.154 -2.3615 -4.0505 0 
-6.345 -5.6565 -4.808 -6.1935 -9.344501 -10.468 -8.731501 -7.555501 -9.911 -5.435 -5.51 -4.0505 
-6.7155 -6.2615 -7.979001 -9.765 -16.3279 -12.2535 -10.6215 -12.1958 -11.3288 -7.022501 -5.51 
-7.334001 -10.0005 -10.5635 -16.7558 -18.1134 -14.1435 -15.2618 -13.6136 -12.9163 -7.022501 
-11.2698 -12.67 -17.5543 -18.5413 -20.0034 -18.7838 -16.6796 -15.2011 -12.9163 
-1.934 -2.3615 -4.6495 -8.819 -6.946 -1.756 -5.5785 -4.463 
-3.539 -5.5385 -14.6127 -9.091001 -8.731501 -7.555501 -9.834001 
-5.543 -15.3505 -14.8847 -10.451 -10.6215 -12.1188 
-15.3556 -15.6225 -16.2447 -12.341 -15.1848 
-15.6276 -16.9825 -18.1347 -16.9043 
