-4.759 
n/a 
n/a 
n/a 
n/a 
-4.759 
n/a 
n/a 
n/a 
n/a 
-4.759 
n/a 
n/a 
n/a 
n/a 
-4.759 
n/a 
n/a 
n/a 
n/a 
-3.5125 
n/a 
n/a 
n/a 
n/a 
-3.6085 -2.186 -4.1205 -2.5045 -3.188 -3.6885 -3.433 -3.6085 -3.1385 -1.934 -1.4985 -3.188 -3.518 -2.8645 -5.111 -3.3715 -3.959 -2.5045 -2.985 -5.4435 0 
-5.869 -5.007 -5.3175 -6.2815 -6.6785 -7.021501 -7.495 -6.699 -4.522 -2.6125 -3.619 -7.135 -6.352 -7.7085 -9.165001 -5.699 -5.9545 -5.065001 -7.482501 -5.4435 
-8.713 -6.317 -9.239 -9.363001 -9.748501 -9.434501 -9.599501 -8.301001 -5.087501 -4.377 -7.6745 -9.5625 -11.6996 -10.523 -11.6707 -7.4875 -8.4345 -9.693001 -7.482501 
-9.883501 -10.085 -12.5079 -12.4858 -10.0875 -11.9004 -11.3353 -8.8205 -6.071001 -9.1745 -9.943001 -14.9509 -14.5141 -13.0287 -13.4592 -9.925 -13.2057 -9.693001 
-13.8571 -13.6199 -15.6307 -12.8248 -13.6684 -13.6362 -11.8548 -10.0594 -11.4287 -11.6296 -15.2974 -17.7654 -17.0198 -14.8172 -15.8967 -14.774 -13.2057 
-3.5065 -3.17 -1.7565 -1.4985 -3.959 -1.934 -3.188 -2.7415 -5.1605 -2.3345 -1.4985 -3.6085 -3.1385 -3.325 -2.985 -4.3665 0 -3.6085 -4.3195 -1.4985 -4.3925 -3.6885 0 
-5.9515 -4.179 -2.4195 -5.5 -5.2625 -5.387 -5.910501 -6.64 -6.162 -3.233 -5.023 -6.699 -6.1955 -5.788 -6.996 -4.3665 -3.6085 -8.116501 -5.1515 -5.483 -6.837001 -3.6885 
-6.4015 -4.497 -6.073501 -6.4555 -8.123 -9.133 -8.814 -7.081 -6.7815 -6.659 -7.278 -10.071 -8.217001 -9.5045 -6.996 -8.7705 -8.116501 -8.695001 -8.7735 -7.2805 -6.837001 
-6.6905 -7.1395 -6.942501 -10.1185 -12.2948 -12.3081 -8.972501 -7.702001 -9.466001 -8.981501 -10.354 -12.0693 -12.3175 -9.5045 -12.1926 -13.5907 -8.695001 -12.661 -9.824 -7.2805 
-9.385501 -7.8355 -10.513 -14.4065 -15.4699 -12.4666 -9.8015 -10.1035 -11.9129 -12.2655 -12.3523 -16.1698 -12.3175 -14.8511 -17.0128 -14.1692 -12.661 -13.7115 -9.824 
-1.4985 -3.6085 -4.9225 -5.1605 -3.17 -1.7565 -1.4985 -3.188 -3.59 -2.229 -3.0415 -2.3335 -3.6085 -3.6885 -2.7415 -3.7905 -3.188 -3.6885 0 
-5.023 -8.9635 -9.4865 -8.2145 -4.179 -2.4195 -3.619 -6.3105 -4.966 -5.07 -4.132 -6.667001 -5.021 -6.3815 -7.684 -7.0815 -6.6785 -3.6885 
-9.503 -13.5967 -13.0679 -8.2765 -4.497 -4.4095 -7.2145 -8.859501 -8.6155 -7.0065 -8.6575 -8.099001 -7.9655 -11.7916 -10.6215 -11.7734 -6.6785 
-14.1584 -17.1781 -13.1299 -8.6825 -6.488 -7.927001 -10.2035 -12.5736 -10.6885 -11.6338 -9.6785 -10.5745 -13.5978 -14.7291 -15.3134 -11.7734 
-17.7398 -17.2401 -13.5359 -9.8275 -10.5739 -11.7148 -13.9176 -14.6466 -15.3158 -12.6548 -12.4164 -16.2068 -16.5353 -19.421 -15.3134 
