-4.759 
n/a 
n/a 
n/a 
n/a 
-4.759 
n/a 
n/a 
n/a 
n/a 
-4.759 
n/a 
n/a 
n/a 
n/a 
-4.759 
n/a 
n/a 
n/a 
n/a 
-3.8275 -1.756 -2.985 -4.526 -4.537 -1.4985 -3.4225 -3.519 -1.7695 -1.8085 -4.0005 -3.5015 0 
-5.1855 -4.2025 -7.3745 -9.23 -5.6315 -3.9655 -7.6495 -4.761 -3.41 -4.751 -7.049 -3.5015 
-7.6745 -8.4165 -12.5813 -10.1235 -9.131001 -8.7275 -9.448 -6.8595 -5.7665 -7.084001 -7.049 
-12.0937 -13.7755 -13.4748 -13.623 -13.772 -10.6605 -11.8483 -9.2705 -7.9115 -7.084001 
-17.4527 -14.669 -16.9743 -18.264 -15.705 -13.0608 -14.2593 -11.6037 -7.9115 
-4.2815 -4.196 -4.1865 -3.519 -1.756 -4.4525 -2.5195 -1.4985 -3.5215 -1.7565 -1.4985 -4.29 -4.6825 -1.7695 -3.4625 -1.4985 -4.1735 -1.756 -4.0885 -5.468 -1.7565 -1.4985 -4.948 -4.0375 0 -1.4985 -3.188 -2.229 
-8.303 -8.0415 -7.962 -4.9065 -5.829 -6.282001 -3.1695 -4.9375 -5.1615 -2.4195 -5.2375 -6.846001 -6.7485 -5.1915 -4.914 -4.445 -5.5705 -5.873 -9.286501 -6.5295 -2.4195 -5.4175 -5.375 -4.0375 -1.4985 -3.619 -4.279 
-10.147 -10.1265 -9.186001 -6.7445 -8.139501 -7.205 -6.399 -5.95 -5.999 -5.812 -7.054 -8.766001 -9.725 -6.4525 -7.0865 -5.817 -7.925 -10.111 -9.7285 -7.147 -6.014501 -5.654 -5.375 -5.835001 -3.619 -4.3695 
-10.158 -10.133 -9.899501 -8.956 -8.627001 -10.0885 -7.52 -6.9975 -9.524 -7.425 -8.877001 -10.177 -10.114 -8.377001 -8.2945 -8.3395 -10.1895 -10.1965 -9.7825 -9.983001 -6.225501 -5.654 -6.774001 -7.847501 -4.3695 
-10.165 -10.1435 -10.143 -9.318001 -10.13 -10.1055 -8.1975 -9.6805 -9.877501 -9.236501 -10.1765 -10.189 -10.2085 -9.524501 -10.0775 -10.19 -10.2015 -10.2085 -10.2005 -10.086 -6.225501 -6.9365 -8.823001 -8.625501 
-3.8275 -1.756 -2.8965 -3.772 -2.4945 -4.603 
-5.1855 -3.751 -5.588 -5.468 -8.7115 
-7.348001 -6.1445 -7.410501 -12.4468 
-10.228 -7.908 -14.5855 
-11.9915 -15.1834 
-3.8275 -1.756 -2.3335 -4.6645 -1.7565 -3.875 -3.776 -3.644 
-5.1855 -4.016 -6.5675 -5.5015 -5.1745 -8.213 -8.862 
-7.116 -8.605 -8.7015 -10.4185 -9.723001 -13.8178 
-11.8884 -10.5535 -13.6811 -14.967 -15.3964 
-13.8369 -15.5331 -18.2296 -20.6404 
