-4.759 
n/a 
n/a 
n/a 
n/a 
-4.759 
n/a 
n/a 
n/a 
n/a 
-4.759 
n/a 
n/a 
n/a 
n/a 
-4.759 
n/a 
n/a 
n/a 
n/a 
-12.16972 0 -3.772 -1.7565 -12.16972 0 -1.756 -4.284 -1.7565 -12.16972 -3.772 0 -1.756 -1.7695 -4.267 -1.7565 -3.0755 -5.035 -1.7695 -4.029 0 -4.122 
-12.16972 -3.772 -5.153 -14.87542 -12.16972 -1.756 -5.681 -5.501501 -14.87542 -15.94172 -3.772 -1.756 -3.963 -6.4535 -6.9535 -5.4055 -8.7585 -7.0105 -6.882 -4.029 -4.122 
-15.94172 -5.153 -18.84232 -14.87542 -13.92572 -5.681 -7.148 -19.43622 -18.64742 -15.94172 -4.9105 -3.963 -8.686501 -9.715 -11.2649 -10.4345 -10.9088 -12.5622 -6.882 -7.952001 
-17.32272 -18.84232 -18.84232 -16.63142 -17.85072 -7.148 -21.06692 -23.20822 -18.64742 -17.08022 -6.652 -8.686501 -12.1738 -14.1004 -16.2939 -13.3838 -16.4605 -12.5622 -11.634 
-31.01204 -18.84232 -20.59832 -20.55642 -19.31772 -21.06692 -24.83892 -23.20822 -19.78592 -18.82172 -11.8217 -12.1738 -16.5592 -19.1294 -19.2432 -18.9355 -16.4605 -17.3142 
-12.16972 0 -3.5395 -4.004 0 0 -4.7595 -3.5395 -4.004 -3.772 0 -5.258 -3.772 0 -3.3755 -1.7695 -4.7995 -2.356 -4.253 -5.035 
-12.16972 -3.5395 -6.946 -4.004 0 -4.7595 -9.411 -6.946 -8.351501 -3.772 -5.258 -9.9405 -3.772 -3.3755 -3.992 -5.770501 -7.925001 -6.469501 -9.7605 
-15.70922 -6.946 -6.946 -4.004 -4.7595 -9.411 -12.9499 -11.8579 -8.351501 -10.2385 -9.9405 -9.9405 -8.795 -3.992 -7.606 -8.9405 -12.2085 -12.1752 
-19.11572 -6.946 -6.946 -9.469501 -9.411 -12.9499 -17.8618 -11.8579 -15.1812 -15.0618 -9.9405 -15.0309 -9.705 -7.606 -11.2344 -13.3032 -17.9142 
-19.11572 -6.946 -12.9759 -14.0066 -12.9499 -17.8618 -17.8618 -18.6876 -20.0045 -15.0618 -15.0309 -15.9409 -13.971 -11.2344 -15.5971 -19.0089 
-2.7455 -7.2615 0 -4.1665 -1.7565 -7.2615 0 -4.1665 -1.7565 -7.2615 -2.5045 -5.258 0 -4.029 -1.7695 -5.292 -2.356 -9.251501 -2.4945 -4.4155 0 
-9.324501 -7.2615 -4.1665 -5.517 -8.471001 -7.2615 -4.1665 -5.517 -8.471001 -9.338501 -7.5015 -5.258 -4.029 -4.395 -6.059 -6.882 -9.419001 -9.81 -6.2805 -4.4155 
-9.324501 -11.9906 -5.517 -12.8871 -8.471001 -11.9906 -5.517 -12.8871 -10.2285 -14.4447 -7.5015 -10.389 -4.395 -8.656501 -7.3 -13.144 -11.828 -14.2504 -6.2805 
-14.2718 -13.3411 -12.8871 -12.8871 -13.3447 -13.3411 -12.8871 -14.6446 -15.3347 -14.4447 -13.2325 -10.772 -8.656501 -10.143 -13.8014 -16.1846 -16.1222 -14.1246 
-15.6223 -20.7112 -12.8871 -17.7608 -14.6952 -20.7112 -14.6446 -19.7508 -15.3347 -20.1757 -13.6155 -15.0335 -10.143 -16.6538 -16.842 -20.3312 -16.1222 
-5.569 0 -3.8315 -3.5485 -3.772 0 -4.284 -3.8315 -3.5485 -3.772 0 -3.436 -5.035 -4.7695 -3.3755 0 -4.091 -2.3615 -3.32 0 
-5.569 -3.8315 -6.776501 -8.2195 -3.772 -4.284 -6.964001 -6.776501 -8.2195 -3.772 -3.436 -9.953501 -10.038 -9.818501 -3.3755 -4.091 -6.709 -4.3375 -3.32 
-7.901501 -6.776501 -11.9023 -8.2195 -9.851001 -6.964001 -10.4035 -11.9023 -8.2195 -6.7915 -9.953501 -14.9565 -15.257 -9.818501 -8.3755 -6.709 -8.7965 -4.3375 
-10.411 -11.9023 -11.9023 -14.6311 -12.5984 -10.4035 -15.5293 -11.9023 -11.5716 -13.9336 -14.9565 -20.1755 -15.257 -15.0235 -11.3227 -8.7965 -8.7965 
-15.5368 -11.9023 -18.3139 -17.3785 -16.0379 -15.5293 -15.5293 -15.2544 -18.7137 -18.9366 -20.1755 -20.1755 -20.462 -17.9707 -13.4102 -8.7965 
