-4.759 
n/a 
n/a 
n/a 
n/a 
-4.759 
n/a 
n/a 
n/a 
n/a 
-4.759 
n/a 
n/a 
n/a 
n/a 
-4.759 
n/a 
n/a 
n/a 
n/a 
-10.0455 -1.756 -9.544001 -2.186 -2.3585 -2.6165 -4.107 -3.6765 0 -2.3585 -3.013 -2.5235 -4.7605 0 
-12.0145 -10.647 -11.8568 -5.2845 -5.3165 -4.937 -6.472 -3.6765 -2.3585 -4.239 -5.346001 -6.391 -4.7605 
-20.9055 -12.9598 -14.9553 -8.085001 -9.279 -10.316 -6.472 -5.6605 -4.239 -6.3235 -9.228001 -6.391 
-23.2183 -16.0583 -17.7558 -12.5545 -14.0122 -10.316 -8.9075 -8.139 -6.3235 -10.4277 -9.228001 
-26.3168 -18.8588 -22.2253 -17.2877 -14.0122 -12.7515 -10.688 -10.411 -10.4277 -10.4277 
-2.3585 -2.4945 -2.6165 -1.8085 -3.6765 -2.0935 -3.301 -1.756 -3.869 0 -3.0415 0 -5.4435 -1.7695 -3.1405 -3.013 -2.3585 -3.213 -3.0835 0 -7.1265 0 
-3.538 -3.8065 -4.0345 -4.452 -5.538 -5.14 -4.994 -5.541 -3.869 -3.0415 -3.0415 -5.4435 -6.747 -4.2535 -5.743 -3.8955 -5.417 -6.517 -3.0835 -6.535 -6.535 
-4.6455 -5.4455 -6.6785 -6.5385 -9.0485 -6.6755 -5.896 -5.541 -6.5635 -3.0415 -8.716001 -6.747 -9.119 -7.133501 -6.59 -6.455 -9.252001 -6.517 -10.9924 -6.535 
-5.8005 -7.469501 -8.842501 -9.814 -10.622 -7.835501 -5.896 -8.1565 -6.5635 -8.716001 -9.6295 -9.119 -12.295 -7.474501 -9.0895 -10.733 -9.252001 -14.8829 -10.9924 
-7.9355 -10.5865 -12.441 -11.4315 -11.782 -7.835501 -8.3175 -8.1565 -12.8286 -9.6295 -12.2079 -12.295 -12.636 -10.1215 -13.7405 -10.733 -17.7889 -14.8829 
-3.3785 -2.3335 -2.3585 -2.4945 -2.6165 -4.107 -2.0935 -4.8085 0 -5.849 -1.756 -3.013 -2.5235 -4.6865 -2.3345 -4.0035 -3.1405 -2.5045 -1.4985 -3.098 -4.3385 0 -7.1265 0 0 -2.9805 -4.461 -3.115 -2.3615 0 
-4.4185 -3.8035 -3.538 -3.8065 -4.937 -4.239501 -6.7565 -4.8085 -5.849 -6.849 -4.674 -5.346001 -6.7965 -7.0225 -5.381001 -6.65 -5.151 -3.583 -4.123 -8.328 -4.3385 -6.535 -6.535 0 -2.9805 -6.736501 -7.584001 -4.312 -2.3615 
-5.5395 -4.832 -4.6455 -5.547 -4.9625 -9.303 -6.7565 -8.7535 -6.849 -9.774 -6.691501 -8.916 -9.3745 -9.399 -8.337 -8.723001 -6.4415 -5.9005 -9.097 -8.328 -11.7962 -6.535 -6.535 -2.9805 -6.736501 -10.5225 -8.412001 -4.312 
-6.254 -5.9155 -7.0455 -5.567 -10.757 -9.303 -11.2441 -9.928 -9.774 -12.1341 -10.1585 -11.6408 -11.859 -12.4062 -10.2485 -10.2485 -8.436001 -9.796 -9.097 -16.0933 -11.7962 -6.535 -10.368 -6.736501 -10.5225 -11.3505 -8.412001 
-7.3125 -8.469001 -7.0675 -11.7547 -10.757 -13.944 -12.4186 -12.9946 -12.1341 -15.6011 -12.8833 -14.1253 -14.8662 -14.3177 -11.9296 -12.6064 -12.5561 -9.796 -17.4237 -16.0933 -11.7962 -10.368 -14.264 -10.5225 -11.3505 -11.3505 
-4.352 0 -4.089 -3.1495 -3.2495 -2.4945 -2.6165 -2.5235 -4.107 -2.186 -3.9205 0 -2.3585 -3.3875 -3.8535 -2.5235 -4.384 -1.756 -4.374 -2.5045 -1.8085 -4.107 -4.412 0 
-4.352 -4.089 -7.811 -4.8975 -5.757 -3.8065 -5.17 -7.834001 -7.226501 -4.9645 -3.9205 -2.3585 -4.1445 -8.546 -6.541 -6.666 -5.900001 -5.9265 -5.964 -3.3625 -5.882501 -6.5705 -4.412 
-8.550501 -7.811 -9.2115 -6.7505 -7.0755 -6.6965 -11.2085 -10.8201 -9.887501 -4.9645 -6.738 -4.1445 -10.089 -11.3909 -8.373501 -7.940501 -10.7175 -7.587 -6.4655 -6.9125 -6.8535 -6.5705 
-12.5447 -9.2115 -11.3349 -8.077001 -10.4855 -13.0134 -14.1946 -13.4811 -9.887501 -8.2045 -8.691501 -10.089 -12.9339 -13.2234 -9.335001 -13.1656 -12.378 -8.472501 -9.585501 -10.389 -6.8535 
-13.9452 -11.3349 -12.6614 -10.6875 -16.8024 -15.9995 -16.8556 -13.4811 -13.1567 -9.7705 -14.7842 -12.9339 -14.7664 -14.1849 -14.6179 -14.8261 -13.2635 -11.7183 -13.1656 -10.389 
