-4.759 
n/a 
n/a 
n/a 
n/a 
-4.759 
n/a 
n/a 
n/a 
n/a 
-4.759 
n/a 
n/a 
n/a 
n/a 
-4.759 
n/a 
n/a 
n/a 
n/a 
-3.1435 -3.915 -3.098 -2.186 -4.4225 -5.2645 -3.9675 -1.7565 -6.6585 
-6.311501 -6.394 -4.7005 -7.317 -7.159 -6.7125 -4.4555 -8.343 
-7.713 -7.6485 -9.7005 -10.1945 -7.5645 -6.8965 -10.089 
-8.3385 -12.8789 -13.3854 -10.6 -7.577 -10.233 
-13.7161 -16.5638 -13.7909 -10.6125 -10.248 
-1.4985 -3.6205 -3.098 -1.7565 -2.3615 -2.5045 -3.543 -4.752 -2.186 -4.4225 -5.2645 -3.9675 -1.7565 -4.628 -4.743 
-4.05 -7.5015 -4.3615 -3.523 -5.006 -5.323 -8.6745 -5.8935 -7.317 -7.159 -6.7125 -4.4555 -6.107501 -4.7515 
-7.71 -9.6195 -5.9945 -6.405001 -8.3245 -9.824 -10.0672 -12.5525 -10.1945 -7.5645 -6.8965 -7.5435 -6.281001 
-9.806001 -11.2073 -9.7705 -9.818001 -13.1167 -11.5177 -16.7262 -15.43 -10.6 -7.577 -7.6025 -7.5455 
-11.4744 -14.9833 -13.6775 -14.576 -14.8104 -18.1767 -19.6037 -15.8355 -10.6125 -7.607 -7.604 
-2.3615 -4.4895 -3.915 -3.098 -4.628 -4.743 -4.4225 -5.2645 -3.9675 -1.7565 -4.628 -4.743 0 
-6.620501 -8.6905 -6.394 -8.0755 -4.7515 -8.534 -7.159 -6.7125 -4.4555 -6.107501 -4.7515 -4.743 
-11.4863 -11.7021 -10.068 -8.816501 -8.5345 -8.6185 -7.5645 -6.8965 -7.5435 -6.281001 -4.7515 
-14.4979 -15.3761 -10.809 -12.7999 -8.618501 -8.632 -7.577 -7.6025 -7.5455 -6.281001 
-18.1719 -16.1171 -14.7924 -12.8839 -8.632001 -8.638 -7.607 -7.604 -7.5455 
-3.1015 -2.4265 -2.8645 -1.4985 -3.098 -1.7565 -4.4225 -5.2645 -3.9675 -1.7565 -6.6585 
-4.9345 -4.1435 -4.3545 -4.3095 -4.3615 -5.975501 -7.159 -6.7125 -4.4555 -8.343 
-6.451 -5.63 -7.1375 -4.5915 -8.933001 -8.960501 -7.5645 -6.8965 -10.089 
-8.1025 -8.156501 -7.5835 -9.036 -12.1604 -9.516001 -7.577 -10.233 
-10.6968 -8.717001 -12.209 -12.334 -12.7159 -9.557 -10.248 
