-4.759 
n/a 
n/a 
n/a 
n/a 
-4.759 
n/a 
n/a 
n/a 
n/a 
-4.759 
n/a 
n/a 
n/a 
n/a 
-4.759 
n/a 
n/a 
n/a 
n/a 
-8.322001 -3.7075 -2.186 0 -2.915 0 -7.860001 -4.4755 -10.8895 0 -5.4105 -2.95 -3.6885 -6.138 -1.4985 -3.502 -4.9775 -1.7695 -4.9445 -1.4985 -3.193 0 -5.516 -2.985 -4.19 -2.264 -4.2775 -3.4795 -3.834 -3.2615 -3.188 -3.8275 -2.3085 -5.3605 0 -3.034 -1.4985 -4.1095 -4.164 -2.5195 -5.516 -3.183 -3.45 -3.0695 -4.424 -4.563 -1.934 -1.4985 -4.058 -3.8275 -1.7695 -5.516 
-12.5901 -5.196 -2.186 -2.915 -2.915 -7.860001 -12.9487 -8.3255 -7.4725 -5.4105 -9.495001 -7.253 -8.523001 -8.295501 -4.5955 -9.019501 -5.224501 -5.606 -5.7285 -4.136 -3.193 -5.516 -7.4315 -6.731 -6.0785 -6.1745 -7.394 -6.145 -5.6195 -6.178 -4.801 -5.57 -8.639501 -5.3605 -3.034 -3.947 -5.3735 -8.675001 -5.5985 -7.645 -9.425501 -6.301 -4.273 -5.528 -7.542 -6.094501 -2.6125 -5.0995 -4.954 -5.9455 -7.282001 
-14.0786 -5.196 -6.071 -2.915 -11.939 -12.9487 -15.9857 -7.5125 -14.5125 -9.495001 -13.8376 -12.6683 -12.2533 -11.7153 -9.125 -9.058001 -7.342501 -6.1105 -9.125001 -4.136 -7.986 -7.4315 -9.335 -8.551001 -9.7485 -7.836501 -9.7635 -8.875 -7.7555 -6.2075 -5.685 -12.3434 -8.639501 -9.824501 -3.947 -7.926 -9.412001 -9.815001 -9.797501 -9.852501 -9.7275 -7.206 -6.7515 -8.066 -8.4165 -6.641 -6.1215 -5.56 -6.957 -9.820001 
-14.0786 -10.0345 -6.071 -11.939 -17.0277 -15.9857 -15.9857 -14.7727 -18.597 -13.8376 -19.2529 -16.3986 -15.6731 -16.2448 -9.164001 -9.8345 -7.866001 -9.377501 -9.125001 -9.061001 -9.706 -9.335 -9.847 -9.814501 -9.7965 -9.803 -9.8325 -9.8145 -7.7695 -6.9535 -12.5096 -12.3434 -12.9153 -10.7767 -7.926 -9.865001 -9.829 -9.854001 -9.8575 -9.858001 -9.8605 -9.558001 -8.8865 -8.790501 -8.826 -8.673 -6.527 -7.3355 -9.83 
-18.9171 -10.0345 -16.07 -17.0277 -20.0647 -15.9857 -23.2459 -18.8572 -22.9396 -19.2529 -22.9832 -19.8184 -20.2026 -16.2838 -9.835 -9.882001 -9.860001 -9.377501 -9.902 -9.842 -9.8675 -9.847 -9.884501 -9.823501 -9.8415 -9.835001 -9.848001 -9.829 -8.5235 -14.1237 -12.5096 -16.6192 -13.8675 -14.7557 -9.865001 -9.877001 -9.856501 -9.868001 -9.863001 -9.8655 -9.864 -9.858 -9.5915 -9.1695 -9.726001 -8.684 -8.5985 -9.830001 
-8.322001 -3.866 -2.186 -3.644 -1.934 -3.433 -1.756 -4.2745 -2.5045 -6.138 -2.356 -4.4525 -1.7565 -7.38 -3.6885 0 -5.641 -4.4755 -10.8895 0 0 -3.074 -2.4265 -3.92 -2.645 -1.756 -3.5745 -5.651501 -4.6095 -2.356 -3.8225 -5.3605 -2.229 0 -3.93 -3.498 -4.445 0 -3.343 -3.2275 -1.7695 -1.4985 -3.8475 -1.934 -2.3615 -2.925 -4.5165 -4.3395 -2.0935 -3.6055 -3.4625 -1.7565 -1.4985 -3.802 0 
-10.6095 -5.582 -5.006001 -5.4795 -5.527 -4.713 -5.792 -6.867001 -8.7235 -8.710501 -7.8225 -4.6715 -8.527 -10.703 -3.6885 -5.641 -8.208 -8.3255 -7.4725 0 -3.074 -5.653 -5.6615 -6.284 -4.776 -5.2215 -9.1155 -9.033501 -6.549001 -6.059 -10.007 -8.3015 -2.229 -3.93 -6.337 -8.766001 -4.445 -3.343 -5.2705 -5.412001 -2.7955 -5.09 -5.4975 -3.539 -5.8255 -7.0255 -9.032 -5.549001 -4.7925 -6.877 -4.9855 -2.4195 -4.846 -3.802 
-12.3255 -8.319 -6.860001 -9.589001 -6.373 -8.707001 -8.2255 -13.7486 -11.4672 -14.5516 -8.787001 -12.132 -12.2528 -10.703 -7.673 -8.208 -8.589001 -7.5125 -7.4725 -3.074 -5.653 -8.946001 -7.0725 -7.822001 -8.3935 -9.1685 -12.7405 -13.0095 -10.533 -12.7027 -12.948 -8.3015 -6.3275 -6.337 -12.032 -8.766001 -8.163 -5.2705 -8.723001 -6.751501 -6.418 -6.694 -7.2165 -7.2815 -9.8585 -11.5906 -10.1235 -8.521001 -7.9135 -7.776 -6.158 -5.556 -4.846 
-15.0625 -10.4035 -10.6215 -10.735 -10.233 -11.7151 -15.3313 -16.4923 -17.3083 -15.5161 -16.3707 -15.8578 -12.2528 -14.6875 -8.693001 -8.734 -8.734 -7.5125 -12.0775 -5.653 -8.946001 -9.953501 -8.5065 -11.6731 -12.2967 -14.9282 -16.3373 -17.1961 -17.6303 -15.6437 -12.948 -10.4765 -8.066 -12.032 -12.032 -13.052 -10.7099 -8.723001 -10.143 -10.223 -7.6975 -8.4505 -10.0815 -11.5221 -14.4236 -12.6821 -13.0955 -11.8926 -9.0305 -8.656 -9.266001 -5.556 
-17.147 -14.165 -11.7675 -14.595 -13.8003 -18.8209 -18.075 -22.3334 -18.2728 -23.0998 -20.0965 -15.8578 -16.2373 -15.7075 -9.154 -8.734 -8.734 -12.3377 -14.559 -8.946001 -9.953501 -11.5869 -12.5186 -15.5763 -18.2646 -17.977 -20.4583 -24.2934 -20.5713 -15.6437 -15.123 -13.38 -14.0582 -12.032 -16.318 -15.5989 -14.1624 -10.143 -13.7407 -11.5025 -9.639 -11.4615 -14.4575 -16.0872 -15.5151 -15.6541 -16.4671 -13.0096 -9.842501 -11.8888 -9.266001 
-12.16972 -2.7835 -3.0835 -1.756 -5.9185 -3.684 0 -5.641 -4.4755 0 -18.63472 -12.16972 -1.756 -4.523 -1.8085 -3.845 0 -4.925 -2.6165 -7.95 -4.703 -3.251 -2.3615 
-14.95322 -6.552501 -4.7735 -6.88 -6.345 -3.684 -5.641 -8.208 -4.4755 -19.41592 -31.58564 -13.92572 -5.7675 -6.392 -3.9645 -3.845 -4.925 -7.965 -8.8225 -13.1964 -7.918 -5.4965 
-18.72222 -8.609501 -11.2643 -7.313 -6.345 -9.355 -8.208 -8.208 -21.46452 -31.58564 -33.34164 -17.93722 -8.039001 -6.8605 -3.9645 -10.8625 -7.965 -14.6122 -14.2503 -16.4114 -10.5931 
-20.77922 -15.5393 -11.6973 -7.313 -12.4642 -12.1158 -8.208 -22.79802 -33.63424 -33.34164 -37.35314 -20.20872 -8.6005 -6.8605 -11.665 -13.9025 -14.6122 -20.04 -17.4653 -19.0865 
-27.70902 -15.9723 -11.6973 -13.7052 -15.225 -12.1158 -22.79802 -34.96774 -35.39024 -37.35314 -39.62464 -20.77022 -8.6005 -14.5152 -14.705 -20.5497 -20.04 -23.255 -20.1404 
-8.322001 -3.866 -3.433 -2.229 -5.641 -4.4755 -10.8895 -1.7695 -4.4525 -3.4465 0 
-10.6095 -7.999001 -6.14 -8.289001 -8.208 -8.3255 -9.3625 -7.673501 -8.953001 -3.4465 
-14.7425 -11.1848 -12.8234 -11.3614 -8.589001 -10.5625 -17.3129 -11.9386 -8.953001 
-17.9283 -17.8682 -15.8958 -11.8874 -11.744 -17.7269 -21.992 -11.9386 
-24.6117 -20.9406 -16.4218 -13.8554 -17.9064 -21.992 -21.992 
