-4.759 
n/a 
n/a 
n/a 
n/a 
-4.759 
n/a 
n/a 
n/a 
n/a 
-4.759 
n/a 
n/a 
n/a 
n/a 
-4.759 
n/a 
n/a 
n/a 
n/a 
-5.3885 -4.906 -5.1845 -5.74 -4.7315 0 -12.16972 -1.756 -4.8405 0 
-11.2623 -10.5403 -5.7465 -9.459001 -4.7315 -12.16972 -13.92572 -5.853 -4.8405 
-16.8966 -11.1023 -9.462 -9.459001 -17.97042 -13.92572 -18.02272 -5.853 
-17.4586 -14.8178 -9.462 -22.78312 -19.72642 -18.02272 -18.02272 
-21.1741 -14.8178 -22.78692 -24.53912 -23.82342 -18.02272 
-5.3885 -11.463 -3.8145 0 -7.134 -1.756 -4.8405 
-18.2691 -15.3753 -3.8145 -7.134 -8.6 -5.853 
-21.7316 -15.3753 -9.118 -8.6 -12.923 
-21.7316 -20.6788 -10.0225 -12.923 
-27.0351 -21.5833 -14.5265 
-5.3885 -11.463 -2.229 -4.7315 0 -12.16972 -1.756 -4.167 
-18.2691 -14.4453 -7.614501 -4.7315 -12.16972 -13.92572 -5.8175 
-20.8016 -20.0384 -7.614501 -17.97042 -13.92572 -17.98722 
-26.3947 -20.0384 -21.08462 -19.72642 -17.98722 
-26.3947 -33.50852 -22.84062 -23.78792 
-4.426 -1.7565 -1.4985 -3.6115 -4.7285 -4.1555 -3.147 0 
-5.47 -2.4195 -4.081 -6.5495 -8.4455 -5.77 -3.147 
-5.9535 -5.180501 -6.670501 -9.978001 -9.541501 -5.77 
-8.462501 -7.797 -10.054 -11.0524 -9.541501 
-10.2375 -11.2985 -11.1648 -11.0524 
