-4.759 
n/a 
n/a 
n/a 
n/a 
-4.759 
n/a 
n/a 
n/a 
n/a 
-4.759 
n/a 
n/a 
n/a 
n/a 
-4.759 
n/a 
n/a 
n/a 
n/a 
-1.934 -1.4985 -4.98 0 -6.471 0 -3.83 -3.0365 -2.7415 -1.8085 -5.1875 -4.677 -2.5045 -8.981001 
-2.6125 -6.212501 -4.98 -6.471 -6.471 -3.83 -7.568501 -4.2225 -3.891 -6.6265 -7.045001 -6.7735 -12.1805 
-7.637001 -6.212501 -9.225 -6.471 -11.6316 -7.568501 -9.190001 -4.725 -8.235001 -7.742001 -8.852501 -16.6539 
-7.637001 -11.2521 -9.225 -11.6316 -15.3701 -9.190001 -9.7445 -9.400001 -9.561001 -9.429001 -18.9083 
-12.9516 -11.2521 -14.6062 -15.3701 -16.9916 -9.7445 -14.4195 -10.2435 -10.611 -19.6018 
-1.934 -3.83 0 -6.53 -2.229 -4.677 -7.615 0 
-5.5895 -3.83 -6.53 -8.434 -6.556 -9.4555 -7.615 
-5.5895 -11.5574 -8.434 -13.2892 -11.7669 -9.4555 
-14.0767 -13.4614 -13.2892 -18.5001 -11.7669 
-15.9807 -18.3166 -18.5001 -18.5001 
-12.16972 -5.1875 -2.229 -4.677 -1.934 -3.83 0 
-17.35722 -7.694 -6.556 -6.2735 -5.5895 -3.83 
-19.86372 -10.382 -8.0065 -9.603001 -5.5895 
-22.55172 -11.8325 -11.6376 -9.603001 
-24.00222 -15.4636 -11.6376 
-1.934 -3.83 -7.615 -3.5015 -3.0365 -2.186 -1.8085 -5.1875 -4.677 
-5.5895 -9.776 -11.9381 -6.191 -3.66 -3.164 -6.6265 -7.045001 
-12.2953 -14.0569 -14.6276 -6.8335 -4.218 -7.7475 -7.742001 
-16.5762 -16.7464 -15.2701 -7.433 -9.182 -8.982 
-19.2657 -17.3889 -15.8696 -12.4958 -9.836 
