-4.759 
n/a 
n/a 
n/a 
n/a 
-4.759 
n/a 
n/a 
n/a 
n/a 
-4.759 
n/a 
n/a 
n/a 
n/a 
-4.759 
n/a 
n/a 
n/a 
n/a 
-1.934 -3.1715 -3.518 -3.0365 -2.4945 -3.1715 -3.518 -4.085 -2.3335 -4.118 -1.8085 -3.301 -4.7005 0 
-5.2765 -5.772 -6.297501 -3.688 -6.5455 -5.772 -8.609501 -5.9895 -6.861 -5.206 -4.019 -6.4835 -4.7005 
-7.865 -8.109501 -6.772 -7.694 -8.558001 -9.637001 -10.368 -9.414001 -8.028501 -6.869 -6.715 -6.4835 
-10.5485 -8.5815 -10.185 -9.594001 -12.756 -11.4119 -13.7925 -10.7615 -9.009501 -8.512501 -6.715 
-11.0205 -10.733 -12.085 -13.792 -14.5309 -14.8364 -15.14 -11.7425 -10.322 -8.512501 
-3.0365 -2.4945 -3.3715 -4.085 -1.934 -3.1715 -3.5435 -2.3335 -2.7415 -3.383 -5.9755 0 
-3.688 -4.846 -7.084001 -5.5095 -5.2765 -5.3835 -5.8015 -4.2725 -4.8365 -11.046 -5.9755 
-4.8765 -8.597 -8.4125 -8.951 -6.949 -7.653501 -7.454 -6.436 -13.0953 -11.046 
-8.6025 -9.8585 -12.0682 -10.543 -8.801001 -9.467001 -9.808001 -14.9778 -13.0953 
-9.8585 -13.7388 -13.6602 -12.395 -10.7495 -11.8654 -18.3986 -14.9778 
-4.0165 -3.518 -3.3715 -4.0165 -4.085 -2.4945 -3.557 -3.6975 0 
-6.1635 -7.118 -7.1025 -7.7525 -5.607 -5.304 -7.278501 -3.6975 
-9.1055 -10.2485 -9.810501 -9.202 -8.993 -10.7335 -7.278501 
-12.3122 -12.9565 -10.7605 -12.59 -14.6381 -10.7335 
-15.0202 -13.9065 -14.1485 -18.2351 -14.6381 
-3.3715 -4.085 -2.674 -4.4285 -1.934 -3.468 0 
-7.084001 -5.5405 -7.901 -6.026 -6.094 -3.468 
-8.498501 -11.8591 -9.3905 -9.250501 -6.094 
-15.0779 -13.3486 -12.733 -9.250501 
-16.5674 -16.6911 -12.733 
