-4.759 
n/a 
n/a 
n/a 
n/a 
-4.759 
n/a 
n/a 
n/a 
n/a 
-4.759 
n/a 
n/a 
n/a 
n/a 
-4.759 
n/a 
n/a 
n/a 
n/a 
-5.673 0 -4.176 -5.4345 -4.72 -3.423 -2.674 -3.1125 -4.099 -2.7835 -2.985 -5.376 -4.988 -3.251 -2.6165 -3.1125 -3.0415 -4.907 -2.356 -4.176 -6.2195 -1.756 -2.688 -3.4975 -4.795 -5.6865 -1.934 0 -1.4985 -4.6985 -2.7415 -1.7695 -2.489 -4.4015 -2.264 -1.4985 -4.02 -3.9175 0 
-5.673 -4.176 -8.597 -9.458 -7.9785 -4.6435 -3.6315 -6.551001 -6.885 -5.5845 -7.489 -8.368501 -8.1105 -4.9545 -4.595 -5.407001 -7.217 -7.607 -6.4905 -8.6365 -7.361 -4.619 -5.691501 -6.322001 -9.1835 -6.7075 -1.934 -1.4985 -5.1955 -6.388 -4.604 -3.1405 -5.915 -5.971 -2.9195 -4.969501 -6.5035 -3.9175 
-9.717001 -8.597 -10.31 -10.4125 -9.4145 -5.2815 -7.455 -8.4545 -9.4625 -10.103 -9.969501 -10.2865 -9.678501 -5.529 -6.885 -8.515 -9.3395 -10.575 -10.292 -9.7075 -9.6565 -8.082001 -9.02 -10.022 -9.931001 -6.7075 -2.6125 -5.1955 -6.581501 -8.3545 -5.526 -6.384 -6.949 -6.611001 -6.1325 -6.639 -6.5035 
-10.4215 -10.31 -10.4285 -10.433 -9.851501 -8.653001 -8.537001 -10.396 -10.4275 -10.432 -10.431 -10.436 -10.0495 -7.4675 -9.683001 -10.341 -10.576 -10.5935 -10.5735 -10.35 -10.3495 -10.328 -10.3485 -10.4995 -9.931001 -7.905 -6.526 -6.581501 -8.879001 -9.219 -8.3555 -7.539001 -7.5635 -10.0505 -6.816 -6.639 
-10.4345 -10.4285 -10.4415 -10.446 -10.423 -9.461 -10.3955 -10.4385 -10.4405 -10.445 -10.444 -10.449 -10.434 -10.303 -10.445 -10.5855 -10.5945 -10.612 -10.6025 -10.361 -10.3605 -10.3575 -10.587 -10.4995 -10.5375 -10.733 -9.276501 -8.879001 -9.537001 -10.335 -9.3885 -8.211 -10.411 -10.34 -6.816 
-3.982 -3.251 -3.9535 -1.7695 -5.429 -1.4985 -3.6455 0 -4.1115 -4.029 -3.436 -3.676 -6.205 -3.1435 -4.257 -1.934 -3.3365 -4.4095 0 
-7.002 -6.0795 -5.098001 -6.9985 -7.160501 -5.659 -3.6455 -4.1115 -8.434 -7.308001 -7.571 -9.828501 -8.3655 -7.2285 -6 -4.922 -6.551001 -4.4095 
-9.5675 -6.8255 -9.6245 -7.8385 -11.705 -5.659 -8.556 -8.434 -11.9758 -11.8952 -14.3695 -12.166 -10.7335 -8.601 -9.0225 -8.1085 -6.551001 
-10.1735 -11.4946 -10.461 -12.6726 -11.705 -11.4161 -13.3617 -11.9758 -16.563 -18.6937 -16.707 -14.534 -12.106 -11.8271 -10.419 -8.1085 
-15.0032 -12.3311 -15.7457 -12.6726 -17.4621 -16.2218 -16.9035 -16.563 -23.3615 -21.0312 -19.075 -15.9065 -15.3321 -13.2236 -10.419 
-3.436 -3.68 -3.563 -3.147 -4.348 -1.7695 -2.9905 0 -4.176 -4.5115 -5.0265 -3.59 -2.229 -4.1115 -4.029 0 
-8.399 -6.986 -7.887001 -8.8525 -5.641 -6.079 -2.9905 -4.176 -8.311001 -9.4125 -8.3815 -4.966 -6.6365 -8.434 -4.029 
-12.0336 -12.315 -13.9477 -10.4397 -9.9615 -6.079 -7.929501 -8.311001 -13.4622 -12.9841 -10.022 -9.097 -11.5798 -8.434 
-17.3626 -18.3757 -15.5349 -14.7602 -9.9615 -10.749 -12.3681 -13.4622 -17.0338 -14.6246 -14.153 -14.3123 -11.5798 
-23.4233 -19.9629 -19.8554 -14.7602 -14.9707 -15.1876 -17.5193 -17.0338 -18.6743 -18.7556 -19.3683 -14.3123 
-3.321 -3.8275 -3.458 -3.676 -1.756 -3.982 
-7.9545 -6.105 -7.226 -5.0365 -5.851 
-10.341 -8.833 -7.3835 -8.1265 
-13.0758 -8.889501 -9.443501 
-13.1323 -11.2469 
