-4.759 
n/a 
n/a 
n/a 
n/a 
-4.759 
n/a 
n/a 
n/a 
n/a 
-4.759 
n/a 
n/a 
n/a 
n/a 
-4.759 
n/a 
n/a 
n/a 
n/a 
-1.4985 -4.1445 -1.7565 -6.4735 -1.934 -5.1845 -6.262 
-5.1825 -5.09 -7.466001 -7.508 -6.564 -8.6805 
-5.637001 -11.6589 -8.311001 -9.4175 -10.6722 
-12.3891 -12.5039 -10.403 -14.1645 
-13.2341 -14.5959 -14.9592 
-5.1845 -4.106 
-10.7335 
n/a 
n/a 
n/a 
-1.4985 0 -5.1845 -3.1385 -1.7565 -4.147 -4.088 0 -3.787 -1.934 -5.1845 -6.844 0 
-1.4985 -5.1845 -7.4095 -4.861 -6.147501 -8.693501 -4.088 -3.787 -5.6985 -6.564 -6.9655 -6.844 
-6.5205 -7.4095 -8.8085 -9.118501 -9.848001 -8.693501 -8.712501 -5.6985 -9.972 -9.2075 -6.9655 
-7.6315 -8.8085 -13.707 -13.4746 -9.848001 -13.471 -10.4945 -9.972 -13.8149 -9.2075 
-8.915001 -13.707 -18.0631 -13.4746 -14.8513 -15.253 -14.768 -13.8149 -13.8149 
-4.0685 -3.59 -5.1845 -3.7095 -1.934 -5.1845 -6.844 
-5.981 -8.8865 -10.459 -5.4635 -6.564 -6.9655 
-9.964001 -14.395 -12.213 -9.816001 -9.2075 
-15.5313 -16.149 -16.5655 -12.8639 
-17.2853 -20.5015 -19.6134 
