-4.759 
n/a 
n/a 
n/a 
n/a 
-4.759 
n/a 
n/a 
n/a 
n/a 
-4.759 
n/a 
n/a 
n/a 
n/a 
-4.759 
n/a 
n/a 
n/a 
n/a 
-3.4715 -4.593 0 -7.4195 0 0 -7.989 0 -6.07 0 0 -5.135 0 -5.204 0 0 -3.1495 -2.4945 -1.4985 -4.2895 -2.0935 -4.237 -4.194 
-6.145 -4.593 -6.6655 -6.6655 0 -7.989 -7.989 -5.31 -5.31 0 -5.135 -5.135 -4.4615 -4.4615 0 -3.1495 -4.459 -3.9315 -5.106 -5.047 -6.326 -6.689 
-6.145 -12.0381 -6.6655 -6.6655 -7.989 -7.989 -13.759 -5.31 -5.31 -5.135 -5.135 -10.1815 -4.4615 -4.4615 -3.1495 -4.459 -5.194 -6.753 -5.613 -9.964001 -9.0625 
-13.8191 -12.0381 -6.6655 -15.4793 -7.989 -13.759 -13.759 -5.31 -11.529 -5.135 -10.1815 -10.1815 -4.4615 -8.272 -4.459 -5.194 -7.552 -7.3415 -10.5525 -12.7005 
-13.8191 -12.0381 -15.4793 -15.4793 -13.759 -13.759 -13.759 -11.529 -11.529 -10.1815 -10.1815 -10.1815 -8.272 -9.4145 -5.194 -7.552 -8.507 -12.3212 -13.289 
-7.447001 -2.186 -1.4985 -3.535 -4.031 -1.7565 0 -2.4265 -2.186 -3.974 -1.7565 -1.4985 -5.463 -4.237 -3.638 -1.7565 -3.627 -1.7695 -3.7925 -4.4345 0 0 -13.7805 0 -5.127 0 -2.186 -1.4985 -5.8765 -1.4985 -4.237 -5.463 -3.974 -2.5045 -6.07 -4.4345 0 0 -6.216 -2.5045 -1.4985 -5.865 -2.3345 -1.4985 -2.543 -1.7695 -2.789 -4.4345 -4.3355 0 -2.4265 -2.186 -1.4985 -4.237 -1.7565 -1.4985 -4.237 -3.638 -1.7565 -1.4985 -2.461 0 -2.743 -4.4345 -2.186 -3.699 -1.7565 -1.4985 -4.045 0 
-9.793501 -3.339 -4.255 -5.8145 -5.571 -1.7565 -2.4265 -3.292 -7.861501 -4.613 -2.4195 -7.078 -9.834001 -6.6705 -5.668 -5.7665 -6.1135 -5.5045 -7.867001 -4.4345 0 -12.3565 -12.3565 -5.127 -5.127 -2.186 -3.339 -8.173 -7.6515 -5.154 -9.9135 -10.8156 -5.854 -8.892 -9.854 -4.4345 0 -6.216 -8.9615 -3.583 -7.5395 -8.4585 -3.233 -5.1495 -5.0895 -5.11 -6.813 -10.5325 -4.3355 -2.4265 -3.292 -3.339 -5.154 -5.8415 -2.4195 -5.154 -6.6705 -5.668 -2.4195 -4.997 -2.461 -2.743 -6.7495 -6.2505 -4.636 -6.1875 -2.4195 -5.334001 -4.045 
-10.4705 -5.657 -5.876 -7.704 -5.571 -4.305 -3.292 -9.226501 -8.632501 -5.4725 -8.1695 -12.2828 -12.3819 -8.4405 -9.810501 -7.987 -8.8545 -10.0815 -7.867001 -4.4345 -8.4505 -8.4505 -10.1345 -5.127 -6.702001 -3.339 -10.322 -10.0224 -11.8998 -10.494 -15.5159 -12.6956 -13.2645 -14.3255 -10.3285 -4.4345 -6.216 -8.9615 -9.9925 -9.306 -10.464 -8.9615 -7.094501 -7.436001 -6.934501 -9.011001 -13.854 -10.5325 -6.896501 -3.292 -4.5995 -7.355 -6.068 -6.2055 -6.273 -7.574 -8.4405 -6.1115 -5.8605 -4.997 -4.4615 -6.7495 -9.9455 -9.413 -7.9985 -7.0285 -6.167 -5.334001 
-12.7885 -6.6805 -7.764 -7.704 -7.954 -5.603 -9.226501 -10.0825 -9.576501 -11.5433 -13.4003 -14.8307 -14.1519 -12.9128 -12.0822 -10.66 -13.6945 -10.0815 -7.867001 -13.3632 -8.4505 -9.9755 -9.9755 -6.702001 -7.812 -10.322 -12.1714 -14.2707 -17.2398 -16.453 -17.3959 -20.1061 -18.3482 -14.3907 -10.3285 -12.0543 -8.9615 -9.9925 -15.7955 -12.4601 -10.967 -12.9658 -9.587001 -9.405001 -10.238 -16.6958 -13.854 -13.0935 -7.420001 -4.5995 -8.475 -8.4375 -6.352 -9.327001 -8.337501 -8.7095 -8.7405 -9.460501 -5.8605 -7.221001 -8.120001 -9.9455 -13.3842 -12.8027 -9.311501 -10.586 -6.167 
-13.812 -8.558001 -7.764 -9.7705 -8.9095 -10.6875 -10.0825 -11.0265 -15.8227 -16.7741 -15.9482 -16.6007 -18.6242 -15.1845 -14.7552 -15.5 -13.6945 -10.0815 -17.2089 -13.3632 -9.9755 -9.9755 -11.246 -7.812 -15.4112 -12.1714 -16.4197 -19.6107 -23.1988 -18.333 -24.8064 -25.1898 -18.3482 -14.3907 -18.6061 -14.7998 -9.9925 -15.7955 -18.9496 -12.9631 -14.9713 -15.4583 -11.57 -12.8713 -18.5308 -16.6958 -16.415 -13.617 -8.472 -8.475 -9.422 -9.0445 -9.637501 -11.5677 -9.592 -8.927501 -12.3917 -9.460501 -8.1835 -10.213 -11.7312 -13.3842 -16.7739 -14.1157 -12.8936 -10.586 
-12.16972 0 -1.934 -4.593 -4.612 -2.186 -6.8525 -4.4345 -5.8765 0 0 -4.3155 -3.9545 0 -5.127 0 -1.934 -4.593 -4.612 -11.749 -5.2365 0 0 -10.2505 0 -12.16972 -16.4085 -5.2365 0 0 -5.135 0 -4.237 -17.276 -5.2365 0 0 -4.237 -4.612 -3.699 -4.8465 0 
-12.16972 -1.934 -6.8875 -9.292001 -6.164 -9.168501 -10.359 -10.586 -5.8765 0 -4.3155 -8.172501 -3.9545 -5.127 -5.127 -1.934 -6.8875 -9.292001 -17.2021 -17.4939 -5.2365 0 -10.2505 -10.2505 -12.16972 -28.69322 -23.0582 -5.2365 0 -5.135 -5.135 -4.237 -22.9098 -23.1635 -5.2365 0 -4.237 -8.764 -7.51 -8.664001 -4.8465 
-14.10372 -6.8875 -12.2193 -10.7185 -13.081 -13.0305 -17.0777 -10.586 -5.8765 -4.3155 -8.172501 -8.172501 -7.712501 -5.127 -6.8015 -6.8875 -12.2193 -22.1025 -22.9294 -17.4939 -5.2365 -10.2505 -10.2505 -22.42022 -28.69322 -35.22792 -23.0582 -5.2365 -5.135 -5.135 -8.776501 -22.9098 -28.6271 -23.1635 -5.2365 -4.237 -8.764 -11.8642 -14.5116 -8.664001 
-19.05722 -12.2193 -13.6458 -17.6355 -17.5629 -19.8486 -17.0777 -10.586 -10.396 -8.172501 -8.172501 -12.3919 -7.712501 -6.8015 -12.5176 -12.2193 -25.0298 -27.7038 -22.9294 -17.4939 -16.6594 -10.2505 -22.42022 -38.94372 -35.22792 -35.22792 -23.0582 -10.784 -5.135 -8.776501 -28.1311 -28.6271 -28.6271 -23.1635 -10.1995 -8.764 -11.8642 -18.8658 -14.5116 
-24.38902 -13.6458 -20.5628 -22.1174 -24.1276 -19.8486 -17.0777 -15.1055 -14.253 -8.172501 -12.3919 -12.3919 -9.528001 -12.5176 -17.8494 -25.0298 -30.6311 -27.7038 -22.9294 -28.9168 -16.6594 -22.42022 -38.94372 -45.47842 -35.22792 -35.22792 -28.6057 -10.784 -8.776501 -28.1311 -33.8484 -28.6271 -28.6271 -28.1265 -14.7265 -11.8642 -18.8658 -18.8658 
-3.4715 -6.201 0 -1.934 -2.3615 -4.237 -5.291 -11.3935 -3.868 -5.36 0 0 -6.593 -5.0765 0 -5.127 0 -1.934 -2.3615 0 -4.237 -5.291 -3.974 -2.742 -2.489 -6.07 -3.868 -5.36 0 0 -5.508 0 -6.216 0 -1.934 -2.3615 -4.237 -5.291 -3.974 -2.742 -2.489 -5.332 -3.868 -5.36 0 0 -5.135 0 -1.934 -2.3615 0 -4.237 -5.291 -3.974 -2.742 -2.489 -5.204 -3.868 -5.36 0 -2.4945 -1.4985 -3.699 -4.237 -5.291 -4.942 0 
-8.787001 -6.201 -1.934 -3.539 -6.852 -9.5085 -16.9365 -13.209 -9.094501 -5.36 0 -6.593 -12.6007 -5.0765 -5.127 -5.127 -1.934 -3.539 -2.3615 -4.237 -9.5085 -9.609001 -6.499001 -3.301 -9.068001 -8.3405 -9.094501 -5.36 0 -5.508 -5.508 -6.216 -6.216 -1.934 -3.539 -6.852 -9.5085 -9.609001 -6.499001 -3.301 -8.234501 -7.499001 -9.094501 -5.36 0 -5.135 -5.135 -1.934 -3.539 -2.3615 -4.237 -9.5085 -9.609001 -6.499001 -3.301 -8.0375 -7.259001 -9.094501 -5.36 -2.4945 -3.9315 -5.264 -8.631001 -9.5085 -9.731001 -4.942 
-8.787001 -8.1625 -3.539 -7.766 -12.4899 -21.4218 -20.0782 -20.1871 -9.094501 -5.36 -6.593 -12.6007 -12.6007 -10.8625 -5.127 -6.8015 -3.539 -3.539 -6.852 -9.5085 -13.8551 -12.159 -6.879 -10.1465 -13.287 -14.7465 -9.094501 -5.36 -5.508 -5.508 -7.6175 -6.216 -8.3035 -3.539 -7.766 -12.4899 -13.8551 -12.159 -6.879 -8.9425 -10.6165 -11.396 -9.094501 -5.36 -5.135 -5.135 -6.9195 -3.539 -3.539 -6.852 -9.5085 -13.8551 -12.159 -6.879 -8.477 -10.3185 -12.016 -9.094501 -8.874001 -3.9315 -7.0825 -10.0315 -14.1605 -13.9771 -9.731001 
-10.8945 -9.691501 -7.766 -13.6347 -24.4032 -24.3243 -26.2637 -20.6037 -9.094501 -10.0855 -12.6007 -12.6007 -18.3867 -10.8625 -6.8015 -9.033501 -3.539 -7.766 -12.4899 -13.8551 -16.4051 -12.539 -14.723 -14.477 -19.0629 -14.9009 -9.094501 -9.6465 -5.508 -7.6175 -7.6175 -8.3035 -10.2435 -7.766 -13.6347 -16.8365 -16.4051 -12.539 -12.404 -9.434 -13.465 -11.579 -9.094501 -10.4425 -5.135 -6.9195 -8.885 -3.539 -7.766 -12.4899 -13.8551 -16.4051 -12.539 -12.0265 -9.294001 -14.0404 -12.2854 -13.1235 -10.254 -7.0825 -12.147 -15.561 -18.6291 -13.9771 
-12.4235 -14.1157 -13.6347 -25.548 -27.3057 -30.5098 -26.2637 -20.6037 -14.335 -16.5252 -12.6007 -18.3867 -18.3867 -12.537 -9.033501 -9.033501 -7.766 -13.6347 -16.8365 -16.4051 -16.7851 -20.383 -18.54 -20.2519 -19.0629 -14.9009 -13.896 -9.6465 -7.6175 -7.6175 -9.5255 -10.2435 -14.4705 -13.6347 -17.9813 -19.3865 -16.7851 -18.064 -12.7945 -14.2084 -14.1294 -11.579 -14.692 -10.4425 -6.9195 -8.885 -8.885 -7.766 -13.6347 -16.8365 -16.4051 -16.7851 -17.6865 -12.5465 -14.8764 -14.8014 -16.3144 -14.5035 -13.7884 -12.147 -17.6765 -20.0296 -18.6291 
