-4.759 
n/a 
n/a 
n/a 
n/a 
-4.759 
n/a 
n/a 
n/a 
n/a 
-4.759 
n/a 
n/a 
n/a 
n/a 
-4.759 
n/a 
n/a 
n/a 
n/a 
-2.9805 -2.7415 -3.849 -2.5045 -5.5785 -1.7565 -3.502 -3.8735 0 -6.2035 -4.9915 0 -1.756 -3.4155 -4.2245 0 
-4.004 -5.431 -6.305 -7.848001 -8.231501 -4.9855 -6.2275 -3.8735 -6.2035 -10.575 -4.9915 -1.756 -5.2205 -6.626 -4.2245 
-6.6115 -7.509501 -11.7521 -10.4765 -10.513 -7.1955 -6.2275 -9.665 -10.575 -10.575 -6.357 -5.2205 -8.711 -6.626 
-8.473001 -13.4444 -14.3806 -12.758 -13.3272 -7.1955 -12.6776 -15.2501 -10.575 -11.9405 -8.750501 -8.711 -8.711 
-14.7095 -16.0729 -16.6621 -15.5722 -13.3272 -13.8284 -18.2627 -15.2501 -11.9405 -14.334 -12.7354 -8.711 
-2.9805 -2.229 -3.849 -3.502 -3.59 -5.5785 0 -6.2035 -4.119 -3.6765 0 -1.8085 -3.6135 -4.2245 0 
-4.2145 -5.580501 -7.673 -7.321 -9.454 -5.5785 -6.2035 -11.1663 -9.158501 -3.6765 -1.8085 -4.4545 -8.531 -4.2245 
-7.264 -9.524501 -11.5262 -13.8298 -9.454 -12.6534 -11.1663 -16.2058 -9.158501 -5.779 -4.4545 -8.932501 -8.531 
-11.655 -13.5021 -18.035 -13.8298 -16.6237 -17.6162 -16.2058 -16.2058 -11.3452 -8.9425 -8.932501 -8.932501 
-15.6326 -20.0109 -18.035 -20.9995 -21.5865 -22.6557 -16.2058 -18.3925 -14.5087 -13.5459 -8.932501 
-2.9805 -2.7415 -3.074 -3.849 -2.5045 -10.8905 -5.5785 0 -12.16972 -8.943001 0 -9.436501 
-4.004 -4.727 -5.417 -6.305 -14.3124 -16.469 -5.5785 -12.16972 -21.11272 -8.943001 -9.436501 
-5.7825 -7.299 -7.559 -18.2165 -19.8909 -16.469 -18.61962 -21.11272 -21.11272 -18.7547 
-8.298 -9.2165 -19.4305 -23.795 -19.8909 -29.51012 -27.56262 -21.11272 -30.92442 
-10.159 -21.363 -25.009 -23.795 -32.93202 -38.45312 -27.56262 -30.92442 
-12.16972 -5.5785 0 -12.16972 -7.329 0 -4.2245 0 -3.849 -2.4265 -3.277 0 
-17.74822 -5.5785 -12.16972 -19.49872 -7.329 -4.2245 -4.2245 -3.849 -5.7185 -7.146 -3.277 
-17.74822 -18.61962 -19.49872 -19.49872 -12.0965 -4.2245 -7.772 -5.7185 -10.523 -7.146 
-30.78934 -25.94862 -19.49872 -24.26622 -12.0965 -7.772 -9.4115 -10.523 -10.523 
-38.11834 -25.94862 -24.26622 -24.26622 -15.644 -9.4115 -14.3668 -10.523 
