-4.759 
n/a 
n/a 
n/a 
n/a 
-4.759 
n/a 
n/a 
n/a 
n/a 
-4.759 
n/a 
n/a 
n/a 
n/a 
-4.759 
n/a 
n/a 
n/a 
n/a 
-3.737 -1.7565 -12.16972 -3.0835 -2.5045 -3.9725 -2.186 -1.8085 -3.668 -2.0935 -2.3615 -3.433 -2.9805 -2.186 -6.509501 -6.864 -2.229 -4.1285 -3.7575 -5.73 0 
-5.3145 -14.87542 -15.25322 -5.9725 -6.4545 -6.1365 -3.164 -6.451 -5.612 -3.854 -5.613 -4.8755 -4.1635 -9.552 -8.7465 -8.205501 -6.1365 -7.6445 -10.4035 -5.73 
-19.18382 -17.95892 -18.14222 -9.828001 -8.802501 -7.0455 -7.715 -8.347501 -7.317501 -7.1845 -7.0945 -5.853 -12.2817 -11.8768 -10.1855 -12.9952 -9.764 -14.6367 -10.4035 
-22.26732 -20.84792 -21.99772 -12.1954 -9.8055 -11.9989 -8.989 -9.940001 -10.064 -8.6125 -8.0585 -14.274 -14.6065 -13.3158 -15.1406 -16.6227 -16.8092 -14.6367 
-25.15632 -24.70342 -24.36512 -13.1984 -14.8617 -13.2729 -10.9017 -12.6865 -11.5676 -9.158001 -16.5999 -16.5988 -16.0455 -18.2709 -18.7681 -23.6679 -16.8092 
-1.4985 -3.668 -2.186 -3.0835 -12.16972 -3.0695 -4.3195 -1.4985 -3.9725 -2.7415 -1.4985 -4.2245 -1.7565 -4.481 -1.7565 -3.6115 -6.509501 -8.164001 0 
-5.2425 -5.4075 -5.597 -16.46342 -15.23922 -5.9925 -5.1515 -4.88 -6.3315 -4.063 -5.219 -4.942 -6.942501 -5.315001 -5.642 -11.2154 -10.1185 -8.164001 
-6.935 -8.9855 -19.67052 -19.53292 -18.16222 -6.7105 -7.9445 -6.7705 -7.669001 -6.1895 -5.361001 -8.921 -8.204 -9.658001 -13.8317 -14.8244 -10.1185 
-10.522 -23.13802 -22.74002 -22.45592 -18.88022 -9.198001 -10.5448 -8.271001 -9.468 -6.2015 -10.354 -9.055 -12.7582 -18.1003 -17.4407 -14.8244 
-24.67452 -26.20752 -25.66302 -23.17392 -21.36772 -12.0133 -12.0453 -10.4585 -9.513 -11.4029 -10.744 -14.0378 -21.2005 -21.7093 -17.4407 
-1.8085 -3.4155 -3.668 -2.0935 -2.3615 -2.186 -1.4985 -5.362 -1.7565 -3.0835 -9.079 -3.0695 -2.186 -1.4985 -5.73 -1.7565 -1.4985 -4.385 -4.9855 -3.9725 -3.6115 -6.509501 -6.864 
-4.0495 -6.157001 -5.612 -3.854 -3.5005 -3.339 -6.038501 -5.843 -5.237 -13.3727 -12.3197 -4.2675 -3.339 -6.5815 -6.704501 -2.4195 -5.489 -9.935501 -9.612501 -8.0885 -11.2154 -8.7465 
-6.231 -7.6035 -7.317501 -5.761 -4.3105 -8.493 -6.073501 -10.1675 -16.136 -16.6134 -13.5177 -5.455 -7.663001 -7.271 -7.270501 -6.749001 -11.7225 -14.8655 -13.8583 -16.1804 -13.4524 
-7.646 -9.343 -8.2115 -6.6465 -9.7335 -8.5465 -10.3405 -21.0665 -19.3767 -17.8114 -14.7052 -8.729501 -8.25 -7.833 -12.1328 -13.1549 -16.6525 -19.1113 -21.9502 -18.4174 
-9.415501 -10.169 -8.559501 -12.1453 -9.790501 -13.1013 -21.2395 -24.3072 -20.5747 -18.9989 -17.9797 -9.0465 -8.720501 -12.8289 -18.5387 -18.0849 -20.8983 -27.2032 -24.1872 
-3.6115 -6.509501 -7.4885 -4.481 -4.2245 -12.16972 -2.5045 -4.311 -2.186 -2.664 -3.668 
-11.2154 -14.953 -12.5967 -7.162001 -17.19502 -14.67422 -7.224501 -7.383501 -3.8555 -4.7495 
-19.6589 -20.0612 -15.2777 -20.77092 -19.69952 -19.39422 -10.1635 -8.839001 -5.498 
-24.7671 -22.7422 -28.88662 -23.27542 -24.41952 -22.33322 -11.7638 -10.7307 
-27.4481 -36.35112 -31.39112 -27.99542 -27.35852 -23.93352 -13.6555 
