-4.759 
n/a 
n/a 
n/a 
n/a 
-4.759 
n/a 
n/a 
n/a 
n/a 
-4.759 
n/a 
n/a 
n/a 
n/a 
-4.759 
n/a 
n/a 
n/a 
n/a 
-2.7835 -2.985 -2.9645 -3.4155 -8.3985 0 -3.327 -3.4155 -1.7695 -3.5045 0 -4.1605 -1.756 -3.4155 -4.9695 0 0 -1.4985 -3.979 -3.335 -1.4985 -3.4515 -2.0935 -2.5235 -5.022 0 -2.7835 -2.985 -3.327 -4.384 0 -2.3335 -3.9115 -4.0705 -2.985 -1.7695 -1.4985 -3.6075 -3.9265 0 
-5.5305 -6.8685 -7.1315 -12.2946 -8.3985 -3.327 -7.579 -4.904 -4.661 -3.5045 -4.1605 -5.946 -5.4615 -6.64 -4.9695 0 -1.4985 -4.871 -7.4455 -4.7575 -4.432 -4.607 -3.869 -6.061 -5.022 -2.7835 -5.5305 -7.0565 -7.3125 -4.384 -2.3335 -6.173 -7.427 -7.968 -6.196 -2.7955 -4.5495 -7.035 -3.9265 
-7.797501 -11.2735 -16.6698 -12.2946 -11.9813 -7.579 -8.482 -8.161501 -4.661 -7.971001 -5.946 -9.767 -8.2395 -6.64 -4.9695 -1.4985 -4.871 -8.2605 -8.526501 -6.9215 -6.0175 -6.6155 -8.4945 -6.061 -7.5795 -5.5305 -8.472 -11.649 -7.3125 -6.784 -6.173 -9.602 -12.1987 -8.777501 -7.5525 -5.5955 -7.456 -7.035 
-12.4567 -20.8118 -16.6698 -15.8774 -16.2333 -8.482 -12.8041 -8.161501 -9.797501 -9.646501 -9.767 -10.357 -8.2395 -6.64 -6.48 -4.871 -8.2605 -9.0635 -10.9497 -7.76 -7.616 -12.1798 -8.4945 -8.525001 -10.7645 -8.472 -12.7019 -11.649 -10.3475 -10.2645 -9.602 -14.8123 -13.0082 -9.443501 -10.609 -7.517 -7.456 
-21.995 -20.8118 -20.2526 -20.1294 -17.1363 -12.8041 -12.8041 -13.921 -11.3272 -14.0511 -10.357 -10.357 -8.2395 -8.968 -9.724501 -8.2605 -9.0635 -11.5745 -11.7882 -10.609 -13.4971 -12.1798 -10.2335 -12.154 -13.706 -12.7019 -12.7019 -14.684 -13.828 -13.9341 -14.8123 -15.6218 -13.6742 -12.5566 -12.5305 -7.517 
-1.7695 -2.9645 -3.4155 -6.305 -3.183 -3.327 -2.3335 0 -1.7695 -3.5045 -4.1605 -1.756 -3.4155 -4.9695 -1.756 -3.3165 -1.7695 -1.4985 -3.979 -3.307 -4.4595 -1.756 -3.3165 -1.7695 -4.384 -3.327 -2.3335 -7.5175 -2.3585 -2.4945 -3.3165 -1.7695 -3.893 -7.0885 0 
-3.812 -7.1315 -10.404 -9.358001 -5.471 -6.6185 -2.3335 -1.7695 -4.661 -7.971001 -5.946 -5.4615 -6.64 -6.489 -4.952 -3.881 -2.7955 -4.871 -7.9395 -8.117001 -6.139501 -4.952 -3.881 -5.598001 -7.528501 -6.6185 -10.3775 -9.2185 -3.538 -6.7225 -3.881 -5.4795 -8.248501 -6.187 
-7.7625 -14.7792 -13.457 -11.8424 -8.262501 -6.6185 -5.0415 -4.661 -9.797501 -9.646501 -9.767 -8.2395 -7.9785 -10.533 -5.6175 -4.638 -6.180501 -8.960501 -13.3051 -10.022 -8.241 -5.6175 -7.76 -9.247001 -10.66 -15.7147 -11.1055 -9.007001 -7.8195 -7.791 -6.872 -10.784 -9.092001 
-15.7676 -17.8322 -15.9414 -14.6339 -8.262501 -8.3915 -8.633501 -9.797501 -11.3272 -14.0511 -10.357 -10.172 -12.5941 -10.7195 -6.227 -8.206501 -10.411 -14.7237 -15.2101 -12.4595 -9.5425 -9.092501 -10.2035 -12.5211 -19.7562 -16.1027 -13.0355 -14.3454 -8.469001 -11.0354 -12.519 -10.6595 
-18.8206 -20.3166 -18.7329 -14.6339 -9.9665 -12.5485 -13.8426 -11.3272 -15.7318 -14.6411 -12.2895 -14.7876 -12.7806 -12.1018 -9.5315 -12.8748 -16.1742 -16.6287 -17.6476 -13.761 -13.1763 -11.715 -13.6246 -21.6173 -20.1442 -18.0327 -18.0974 -15.4469 -11.965 -17.082 -12.9186 
-1.7695 -2.9645 -1.4985 -3.4155 -4.199 -1.7695 -3.327 -3.4155 -3.321 -3.5045 -1.4985 -4.1605 -1.756 -3.4155 -6.9035 -3.979 -1.7695 -4.052 -1.4985 -3.1335 -1.7565 -2.5235 -4.384 -1.7695 -2.489 -5.366 -2.4265 -1.7695 -4.556 -3.222 -1.4985 -3.893 -3.4155 
-3.812 -3.957 -5.219 -7.3505 -6.536 -5.443 -7.579 -7.098001 -5.6355 -4.653 -5.6315 -5.946 -5.4615 -8.696501 -11.241 -5.7745 -4.393 -4.752 -4.5045 -5.0585 -3.829 -6.5725 -6.185 -3.1405 -6.9125 -7.1455 -4.11 -5.0945 -6.6975 -3.7835 -5.59 -5.477 
-4.58 -7.320001 -9.221001 -9.426001 -11.1613 -9.9375 -9.287001 -9.0365 -6.254 -8.7485 -7.469001 -9.767 -10.2945 -13.6712 -14.4362 -8.803 -4.9985 -7.12 -5.7615 -7.092 -7.838 -8.3055 -7.679501 -7.6715 -9.1925 -8.85 -7.584001 -7.2175 -8.071501 -8.190001 -7.3625 
-7.74 -12.0526 -11.5545 -14.3431 -15.6558 -11.7897 -11.8739 -10.0195 -9.833501 -10.5425 -11.7212 -12.371 -15.6487 -16.5242 -17.6661 -9.2295 -7.3945 -8.827001 -7.3395 -11.8754 -9.574 -9.755001 -12.5703 -9.5775 -11.2946 -12.573 -9.667001 -8.449 -12.8072 -9.624001 
-12.8086 -14.3861 -16.4716 -18.8376 -17.508 -14.3766 -12.8569 -13.599 -12.2281 -14.7947 -14.3252 -17.9628 -18.2793 -19.7541 -18.0926 -12.0407 -8.938001 -10.5535 -12.5551 -13.6114 -11.1447 -14.6458 -14.4763 -11.8548 -15.0176 -14.656 -11.1063 -13.2839 -14.2412 
-2.7835 -2.7295 -2.9645 -3.4155 -4.199 0 -3.2615 -4.433 -3.4155 0 -3.5045 -4.1605 -1.756 -3.4155 -4.9695 -1.7695 -4.052 -2.985 -3.1335 0 -2.925 -3.5895 -2.9195 -1.934 -1.4985 -4.8375 -2.7835 -2.3585 -3.327 -4.384 -2.4265 -4.9935 -1.934 -1.7695 -1.4985 -3.6075 -3.893 -3.4155 
-4.405 -4.8405 -7.1315 -7.3505 -4.199 -3.2615 -6.3945 -8.8125 -3.4155 -3.5045 -7.971001 -5.946 -5.4615 -6.64 -6.6065 -4.393 -5.4215 -5.868 -3.1335 -2.925 -5.511001 -7.042 -5.0645 -2.6125 -6.2585 -7.481 -3.296 -5.321 -7.3125 -6.856501 -8.0535 -6.901 -4.0395 -2.7955 -4.5495 -8.6875 -5.477 
-6.481 -9.3725 -11.7257 -7.3505 -7.9075 -6.3945 -10.228 -8.8125 -6.9135 -7.971001 -9.646501 -9.767 -8.2395 -7.819 -9.675501 -5.677 -7.834 -5.868 -6.113501 -5.511001 -9.171501 -9.1885 -5.8005 -8.031 -8.8335 -7.863 -6.073501 -9.5655 -9.611 -13.2069 -10.085 -9.863001 -5.3685 -5.5955 -9.7635 -10.443 
-11.2502 -13.9811 -11.7257 -10.6735 -11.4711 -10.228 -10.228 -12.8609 -12.513 -9.646501 -14.0511 -10.357 -9.4235 -11.7064 -11.7051 -8.094 -7.834 -7.8865 -7.2755 -9.171501 -10.734 -9.9405 -12.244 -10.494 -9.257 -10.1945 -10.269 -11.8614 -16.2322 -15.2384 -13.1564 -10.18 -8.553 -10.6335 -11.519 
-15.8588 -13.9811 -15.0487 -14.2371 -15.3046 -10.228 -14.6248 -18.4604 -14.1885 -14.0511 -14.6411 -11.541 -13.9853 -13.736 -14.1221 -8.094 -10.0315 -9.8675 -11.2722 -10.734 -11.486 -16.4806 -14.707 -10.9175 -11.6253 -14.4952 -12.5649 -18.4826 -18.2637 -18.3098 -13.4734 -13.4931 -14.2642 -12.389 
