-4.759 
n/a 
n/a 
n/a 
n/a 
-4.759 
n/a 
n/a 
n/a 
n/a 
-4.759 
n/a 
n/a 
n/a 
n/a 
-4.759 
n/a 
n/a 
n/a 
n/a 
-3.034 -2.7295 -3.429 -3.222 -3.435 -1.4985 -5.1555 -4.1115 0 -4.645 0 -3.9075 -1.4985 -4.758 -3.4715 -3.518 -1.7565 -3.533 -4.653 -3.074 -4.098 -3.9285 0 
-4.536 -5.087 -5.2605 -4.8945 -5.227 -6.089001 -7.055 -4.1115 -4.645 -4.645 -3.9075 -5.781 -5.7415 -6.806001 -5.662 -4.302 -5.6325 -7.9635 -7.986001 -6.5525 -7.5825 -3.9285 
-6.8695 -6.9695 -5.425 -5.413 -10.2815 -7.632 -7.055 -7.7925 -4.645 -8.112501 -5.781 -9.799001 -7.783 -8.8505 -7.407001 -8.6035 -10.061 -11.7679 -11.8043 -10.0285 -7.5825 
-7.995 -7.1295 -5.801 -10.733 -12.0763 -7.632 -11.2574 -7.7925 -8.112501 -10.4928 -9.799001 -11.8663 -9.134001 -10.586 -12.4097 -13.1768 -13.8654 -15.5862 -15.2803 -10.0285 
-8.144501 -7.4925 -11.26 -12.5278 -12.0763 -12.092 -11.2574 -10.2815 -10.4928 -14.5108 -11.8663 -13.2173 -10.734 -15.5887 -16.983 -16.9812 -17.6837 -19.0622 -15.2803 
-2.872 -2.5045 -3.543 -4.889 -2.4265 -3.7965 -4.1115 -3.4425 0 -4.6995 0 -4.7995 -1.756 -3.533 -4.653 -3.518 -1.7565 -3.873 -3.4715 0 
-4.9055 -5.323 -8.4245 -7.335501 -5.329 -8.226501 -6.8695 -3.4425 -4.6995 -4.6995 -4.7995 -5.776 -5.8305 -7.9635 -7.975501 -4.302 -5.002 -6.3595 -3.4715 
-7.881001 -9.6075 -10.66 -10.0095 -9.7895 -11.3479 -6.8695 -9.3015 -4.6995 -10.598 -5.776 -10.8487 -9.9585 -10.718 -9.227501 -8.269501 -7.4745 -6.3595 
-12.5579 -12.0128 -13.334 -14.5562 -13.0641 -11.3479 -13.1773 -9.3015 -10.598 -11.5745 -10.8487 -14.9767 -12.713 -11.97 -13.7904 -11.0714 -7.4745 
-14.9632 -14.6868 -17.8807 -17.8308 -13.0641 -17.6557 -13.1773 -15.4058 -11.5745 -16.6472 -14.9767 -17.7312 -13.965 -16.5329 -16.5923 -11.0714 
-2.872 0 -2.7835 -2.7295 -4.3395 -4.5925 -2.4265 -3.5795 -1.4985 -3.4075 -4.1115 0 -4.645 0 -4.7995 0 -1.756 -5.5465 -4.653 -4.4925 -3.4715 0 
-2.872 -2.7835 -4.405 -6.2715 -9.668001 -7.804 -6.6875 -4.5845 -4.118 -7.255501 -4.1115 -4.645 -4.645 -4.7995 -4.7995 -1.756 -6.9835 -8.456 -8.488001 -6.1785 -3.4715 
-4.5805 -4.405 -7.892001 -12.185 -12.9765 -12.5584 -7.5205 -7.157001 -7.711 -7.255501 -7.7925 -4.645 -6.610001 -4.7995 -5.776 -6.6795 -10.2575 -13.0536 -10.1465 -6.1785 
-5.995 -7.892001 -13.9249 -15.4935 -17.7309 -13.3914 -10.5225 -10.404 -7.711 -12.2731 -7.7925 -6.610001 -6.610001 -5.776 -11.4525 -10.061 -14.8948 -14.8173 -10.1465 
-9.4615 -13.9249 -17.2334 -20.2479 -18.5639 -16.3934 -13.7695 -10.404 -13.2264 -12.2731 -8.243501 -6.610001 -7.045001 -11.4525 -14.834 -14.9856 -16.6441 -14.8173 
-3.962 -4.554 0 -3.352 -5.0895 0 -4.645 0 -4.7995 -1.756 -5.5465 -4.227 -7.5625 -3.4715 -2.4945 -3.9285 0 
-9.3015 -4.554 -3.352 -8.7005 -5.0895 -4.645 -4.645 -4.7995 -5.776 -6.9835 -7.328 -12.7683 -11.7396 -6.278 -5.071 -3.9285 
-9.3015 -8.758501 -8.7005 -8.7005 -8.150001 -4.645 -6.610001 -5.776 -11.4235 -8.931 -16.137 -16.9454 -14.5461 -8.333 -5.071 
-13.6588 -14.2268 -8.7005 -12.4034 -8.150001 -6.610001 -7.045001 -11.4525 -13.2965 -17.9768 -20.6289 -19.7519 -16.6011 -8.333 
-19.1271 -14.2268 -12.4034 -12.4034 -8.731501 -7.045001 -13.4583 -13.2965 -23.007 -22.4111 -23.4354 -21.8069 -16.6011 
