-4.759 
n/a 
n/a 
n/a 
n/a 
-4.759 
n/a 
n/a 
n/a 
n/a 
-4.759 
n/a 
n/a 
n/a 
n/a 
-4.759 
n/a 
n/a 
n/a 
n/a 
-1.934 -3.45 -3.4795 0 -1.7695 -5.302 -1.4985 -7.89 -2.229 -2.5195 -5.1845 -5.6655 -2.4945 -3.383 -3.7375 
-5.009 -5.6655 -3.4795 -1.7695 -5.898 -5.971 -8.707001 -9.2655 -5.279 -7.594501 -9.880501 -7.355 -4.732 -5.298 
-5.997 -5.6655 -5.169 -5.898 -6.478 -13.8665 -9.6295 -12.3453 -10.1425 -12.7895 -11.6986 -9.684501 -6.2475 
-5.997 -7.6465 -9.5205 -6.478 -14.4073 -14.789 -12.7305 -17.2088 -15.7367 -14.6076 -14.0281 -11.2594 
-7.8615 -12.2726 -9.837501 -14.4073 -15.3298 -17.89 -17.594 -22.803 -17.5548 -16.9371 -15.603 
-3.0365 -3.152 -3.3715 -6.557 -5.6655 -5.192 -3.7015 -7.746 0 
-4.453 -5.921 -11.2185 -12.9119 -9.536501 -6.574501 -10.1 -7.746 
-5.988501 -13.9688 -17.5734 -16.7829 -11.1054 -13.4496 -10.1 
-14.0587 -20.3237 -21.4444 -18.3518 -17.9805 -13.4496 
-20.4136 -24.1947 -23.0133 -25.2269 -17.9805 
-1.934 -2.3615 -3.8405 -3.0365 -2.4945 -3.3715 -5.1845 -5.6655 -5.192 -3.7015 -1.4985 -7.89 -4.1 
-3.539 -5.371 -6.404 -3.688 -4.846 -8.517 -9.880501 -9.536501 -6.574501 -4.3435 -8.707001 -12.363 
-6.410501 -7.2875 -7.1725 -4.8765 -10.0285 -13.3792 -13.8801 -11.1054 -7.074 -12.0556 -13.3126 
-8.349501 -8.407001 -8.31 -10.0475 -14.8907 -17.3788 -15.449 -11.6049 -15.1641 -16.6612 
-9.275001 -9.642 -13.6892 -14.9097 -18.8903 -18.9477 -15.9485 -19.695 -19.7697 
-3.0365 -3.152 -3.7375 -5.1845 -5.6655 -3.0695 -5.192 -3.7015 -1.4985 -4.065 -3.5455 -2.985 -4.1 0 
-4.453 -6.474 -9.177 -9.880501 -7.4495 -6.306001 -6.574501 -4.3435 -4.824 -7.709001 -5.4465 -7.1315 -4.1 
-6.6505 -12.1517 -14.0622 -11.7931 -10.093 -7.536 -7.074 -7.032001 -7.741501 -9.0935 -8.643001 -7.1315 
-12.3018 -17.0369 -15.9748 -14.4366 -10.6945 -7.941501 -8.547501 -8.828 -9.114 -9.967501 -8.643001 
-17.187 -18.9495 -18.6183 -15.0381 -11.1 -8.999001 -10.019 -10.3881 -9.989501 -9.967501 
