-4.759 
n/a 
n/a 
n/a 
n/a 
-4.759 
n/a 
n/a 
n/a 
n/a 
-4.759 
n/a 
n/a 
n/a 
n/a 
-4.759 
n/a 
n/a 
n/a 
n/a 
-3.0365 -4.3285 -1.7695 -5.1645 -4.9225 -4.138 -3.962 0 
-8.993501 -5.9065 -7.268001 -11.046 -10.2435 -9.2365 -3.962 
-10.7025 -12.0946 -13.9673 -16.367 -15.342 -9.2365 
-16.8906 -18.7939 -19.2883 -21.4655 -15.342 
-23.5899 -24.1149 -24.3868 -21.4655 
-4.386 -1.7565 -3.1385 -2.674 -3.966 -2.985 -4.2945 -2.3345 -4.9405 -2.356 -5.1645 -4.4615 -3.1385 
-4.539 -4.388 -4.8995 -5.417 -5.648 -6.269 -6.632501 -6.482 -6.6095 -8.0415 -7.896501 -6.835 
-5.961 -6.113 -7.0845 -6.204 -8.2875 -8.051001 -10.1765 -7.844 -12.7118 -10.0445 -8.855 
-7.166 -8.074 -7.424 -8.809 -10.054 -10.7335 -11.5385 -14.1009 -14.7148 -11.003 
-9.369 -8.314501 -10.208 -10.5825 -12.7365 -12.0955 -17.7954 -16.1039 -15.6733 
-1.934 -3.45 -3.3715 -3.7555 -2.985 -3.766 -4.2945 -1.756 -4.431 -2.925 -2.356 -5.1645 -4.4615 -3.1385 0 
-5.009 -7.0155 -7.828501 -6.0515 -6.1195 -6.899 -5.445001 -5.8395 -6.0915 -4.299 -8.0415 -7.896501 -6.835 -3.1385 
-8.552501 -11.6399 -9.208 -9.693001 -8.366 -7.691 -9.920501 -7.8785 -6.843 -10.1185 -10.0445 -8.855 -6.835 
-13.4025 -13.0194 -13.0285 -12.2019 -9.0775 -12.4619 -12.1901 -8.685 -12.8991 -12.1215 -11.003 -8.855 
-14.782 -16.8399 -15.5374 -12.9134 -13.9164 -14.7315 -12.9966 -14.9235 -14.9021 -13.08 -11.003 
-3.135 -1.7565 -1.4985 -4.9225 -2.925 -4.2195 -3.147 -6.2675 -1.7695 -1.4985 -5.1645 -4.4615 -4.9225 0 
-3.9195 -2.4195 -6.040501 -7.6405 -6.7095 -7.8785 -10.821 -8.009501 -2.7955 -7.130501 -7.896501 -7.351 -4.9225 
-4.168 -6.704 -8.512501 -11.5482 -10.2185 -15.8695 -12.563 -8.9055 -8.6335 -8.679001 -10.275 -7.351 
-8.784 -9.016001 -12.666 -15.0572 -18.2095 -17.6115 -13.459 -14.9681 -9.923 -11.3503 -10.275 
-11.1852 -13.1957 -16.175 -23.0482 -19.9515 -18.5075 -19.5216 -16.2576 -12.5943 -11.3503 
