-4.759 
n/a 
n/a 
n/a 
n/a 
-4.759 
n/a 
n/a 
n/a 
n/a 
-4.759 
n/a 
n/a 
n/a 
n/a 
-4.759 
n/a 
n/a 
n/a 
n/a 
-3.502 -4.1865 -4.471 -3.115 -7.5305 -7.995 -6.768 -9.4945 -3.433 -1.7565 -4.503 -3.1015 -2.925 -2.674 -3.917 -4.5945 0 -5.168 
-6.301 -7.723001 -6.714 -9.4895 -10.2645 -15.224 -16.9141 -13.3299 -4.1845 -6.0195 -7.5385 -5.38 -4.1785 -5.6315 -9.4375 -4.5945 -5.168 
-9.5525 -9.948 -10.66 -12.4217 -17.4935 -25.3701 -20.7495 -14.0814 -10.0345 -9.5845 -10.204 -6.376 -7.4925 -10.4035 -9.4375 -7.935 
-11.8205 -13.894 -13.5922 -19.6507 -27.6396 -29.2055 -21.501 -19.9314 -13.5995 -12.3232 -11.2896 -10.621 -12.4339 -10.4035 -13.0988 
-15.7665 -16.8262 -20.8212 -29.7968 -31.475 -29.957 -27.351 -23.4964 -16.3382 -13.4088 -15.5346 -15.5624 -12.4339 -14.5142 
-3.502 -4.1865 -3.5505 -3.686 -3.115 -7.5305 0 -6.535501 -1.756 -6.768 -1.756 -3.686 -3.115 -4.5945 -1.756 -8.004001 0 -5.077 -2.3345 -4.02 -4.2905 -4.0775 0 -2.4945 -4.151 -3.6975 -1.934 -5.3885 
-6.301 -6.3645 -6.054 -6.197001 -9.4895 -7.5305 -6.535501 -8.163501 -8.5555 -8.349 -6.0155 -6.197001 -7.2285 -6.102 -10.1035 -8.004001 -5.077 -5.3265 -6.196 -8.780001 -8.555 -4.0775 -2.4945 -5.426001 -6.66 -5.568 -6.4035 
-8.0735 -9.1955 -8.070001 -10.396 -9.4895 -9.224001 -8.163501 -10.411 -10.204 -12.8479 -8.376 -9.405001 -8.237 -15.3115 -10.1035 -13.6084 -5.3265 -8.2105 -10.264 -13.1629 -8.555 -7.426001 -5.426001 -7.4665 -7.456 -10.107 
-10.275 -10.533 -10.621 -10.396 -10.7345 -10.0355 -10.411 -12.0595 -14.7029 -15.2084 -11.6884 -9.954 -17.6899 -15.3115 -15.7079 -13.8579 -8.2105 -10.4115 -14.6469 -13.1629 -12.1889 -10.13 -7.4665 -8.381001 -12.286 
-10.643 -10.691 -10.621 -11.909 -11.546 -10.6275 -12.0595 -16.5584 -17.0634 -18.5208 -12.2374 -19.4069 -17.6899 -20.9159 -15.9574 -16.7419 -10.4115 -14.7944 -14.6469 -16.7968 -14.8929 -12.1705 -8.381001 -13.2742 
-3.502 -4.1865 -4.9715 -3.115 -6.5305 0 -7.995 0 -6.768 -1.756 -5.5485 -3.5505 -3.115 -4.5945 -5.168 -2.4945 -4.4695 -1.934 -5.3885 
-6.301 -7.553 -6.896501 -9.969501 -6.5305 -7.995 -7.995 -6.768 -8.349 -6.9005 -10.0225 -6.851501 -7.2285 -7.935 -8.411501 -6.5845 -6.4835 -6.4035 
-8.516001 -9.278 -14.1976 -9.969501 -10.4185 -7.995 -15.224 -8.349 -13.7329 -11.6257 -13.3235 -8.989 -10.513 -11.5093 -12.7367 -8.054501 -10.6095 
-10.092 -16.7435 -14.1976 -13.8575 -10.4185 -15.224 -16.805 -13.7329 -18.4581 -14.9267 -15.461 -12.4235 -14.0873 -15.8345 -14.2067 -12.3681 
-17.5575 -16.7435 -18.0856 -13.8575 -17.6475 -16.805 -22.1889 -18.4581 -21.7591 -17.0642 -18.8955 -15.9978 -18.4125 -17.3045 -18.5203 
-3.502 -4.1865 -3.686 -3.115 -6.5305 0 -6.535501 0 -6.768 -1.756 -3.433 -1.7565 -4.02 -4.4525 -3.5505 -3.686 -3.115 -4.5945 0 -5.168 -2.4945 -3.6975 -1.934 -5.3885 0 
-6.301 -8.5015 -6.197001 -9.969501 -6.5305 -6.535501 -6.535501 -6.768 -8.349 -5.2745 -4.1845 -5.2945 -7.486 -8.05 -6.054 -6.197001 -7.2285 -4.5945 -5.168 -8.411501 -6.108 -5.568 -6.4035 -5.3885 
-9.935 -10.4265 -13.3277 -9.969501 -9.762001 -6.535501 -9.836 -8.349 -12.1069 -5.8975 -8.581 -8.231501 -11.2609 -11.2831 -8.070001 -9.405001 -7.2285 -7.935 -8.411501 -12.2602 -7.1905 -10.107 -6.4035 
-11.9526 -17.5572 -13.3277 -13.201 -9.762001 -9.836 -11.5668 -12.1069 -12.7299 -10.7062 -9.922501 -12.1428 -14.494 -13.2991 -10.4505 -9.405001 -10.513 -11.5093 -12.2602 -13.3427 -11.9423 -10.107 
-19.0833 -17.5572 -16.5592 -13.201 -10.5665 -11.5668 -15.3247 -12.7299 -17.5386 -12.0477 -13.9398 -15.3759 -16.51 -15.6796 -10.4505 -12.8551 -14.0873 -15.358 -13.3427 -18.0945 -11.9423 
