-4.759 
n/a 
n/a 
n/a 
n/a 
-4.759 
n/a 
n/a 
n/a 
n/a 
-4.759 
n/a 
n/a 
n/a 
n/a 
-4.759 
n/a 
n/a 
n/a 
n/a 
-4.6865 -1.7565 -1.4985 -6.3855 -4.147 -4.4515 -4.9475 -1.934 -1.4985 -3.699 -5.627 0 
-6.388 -2.4195 -7.705501 -10.013 -8.4615 -10.209 -7.061501 -2.6125 -5.264 -10.6694 -5.627 
-6.8215 -8.953 -11.8526 -14.3275 -14.5834 -12.323 -7.3925 -7.0125 -12.7734 -10.6694 
-14.2434 -13.0613 -16.1671 -20.4494 -16.6974 -12.654 -12.9281 -14.6281 -12.7734 
-18.3517 -17.3758 -22.289 -22.5634 -17.0284 -18.1896 -20.5437 -14.6281 
-1.4985 -3.644 -6.2755 -1.7565 -4.4515 -2.186 -3.777 -1.7565 -6.4925 -1.934 -1.4985 -4.6985 -1.756 -4.575 -5.8165 0 
-4.9855 -11.1243 -7.910501 -6.639 -6.113501 -7.308001 -4.411 -7.878001 -8.1785 -2.6125 -5.1995 -5.7875 -5.8865 -7.364 -5.8165 
-12.9038 -12.7593 -13.2926 -8.9125 -11.8801 -7.804501 -11.2741 -9.330501 -8.746 -5.99 -6.337 -10.75 -8.613001 -7.364 
-14.5388 -18.1414 -15.5661 -14.7571 -12.3766 -14.6408 -12.7266 -9.6835 -10.243 -7.0415 -11.6117 -13.4765 -8.613001 
-19.9209 -20.4149 -21.4107 -15.2536 -19.2129 -16.0933 -13.0796 -11.5201 -11.2945 -12.5658 -14.3382 -13.4765 
-3.851 -4.6865 -1.756 -4.575 -2.3615 -2.186 -4.296 -1.756 -3.3755 -5.74 -2.4945 -4.031 -2.0935 -4.617 -5.029 0 
-9.286 -5.857 -5.8865 -7.3585 -3.5005 -5.484 -5.7035 -6.2685 -9.8225 -7.5275 -7.5705 -4.8935 -5.7475 -9.4415 -5.029 
-11.3083 -10.9581 -10.3475 -8.5775 -7.9995 -6.6965 -10.335 -13.4271 -12.1988 -13.0651 -8.323 -8.597501 -10.451 -9.4415 
-16.4094 -15.4191 -11.5665 -13.3625 -9.2705 -11.6916 -17.6426 -15.8034 -17.7364 -13.8176 -12.439 -13.6342 -10.451 
-20.8704 -16.6381 -16.3515 -14.6335 -14.7532 -18.9992 -20.0189 -21.341 -18.4889 -17.9336 -17.4757 -13.6342 
-4.7295 -4.969 -1.756 -4.8675 -5.8165 -4.4125 -2.0935 -3.6605 -4.7425 0 
-6.7685 -6.1315 -6.755 -6.5105 -10.2985 -6.252501 -5.4635 -4.8735 -4.7425 
-7.8455 -10.4765 -7.6365 -11.3749 -12.1385 -8.618501 -6.718 -4.8735 
-12.4341 -11.358 -12.7921 -13.2149 -14.5045 -8.660501 -6.718 
-13.3156 -16.5136 -14.6321 -15.5809 -14.5465 -8.660501 
