-4.759 
n/a 
n/a 
n/a 
n/a 
-4.759 
n/a 
n/a 
n/a 
n/a 
-4.759 
n/a 
n/a 
n/a 
n/a 
-4.759 
n/a 
n/a 
n/a 
n/a 
-7.706501 -3.277 -3.436 -3.135 -4.3 -3.8755 -3.2615 -2.3335 -2.0935 -2.664 -3.957 -4.277 -3.8225 -3.3435 -3.9535 
-9.946001 -5.4395 -6.656 -7.281001 -9.1255 -6.5055 -5.0495 -4.9045 -4.189 -7.418 -6.9355 -8.4785 -6.9965 -7.4815 
-12.2121 -8.538501 -11.0476 -12.4819 -12.0935 -8.319 -7.436501 -6.8825 -8.9595 -10.7595 -11.8808 -12.6507 -11.5963 
-15.3111 -13.0273 -16.2485 -15.4499 -13.907 -11.2184 -9.3055 -11.7924 -12.8412 -15.7048 -16.053 -17.2505 
-19.7999 -18.2282 -19.2165 -17.2634 -16.8064 -13.0874 -14.5414 -15.6741 -17.7865 -19.877 -20.6528 
-3.7825 -4.277 -3.277 -3.393 0 -3.851 -1.7695 -1.4985 -4.0205 -4.3 -3.6615 0 -5.1595 -3.152 -4.5485 -1.756 -3.321 -3.957 -4.277 -3.277 -3.393 0 -1.4985 -3.8225 -5.638 -1.7565 -2.5685 -1.4985 -3.8245 -5.164 -2.7415 -4.5485 0 
-7.0765 -6.336 -4.243 -3.393 -3.851 -4.0015 -2.7955 -5.418 -7.777 -7.0195 -3.6615 -5.1595 -7.3615 -6.251 -6.1455 -4.0055 -7.1735 -6.9355 -6.336 -4.243 -3.393 -1.4985 -4.887 -6.326 -6.434 -3.938 -3.7015 -5.1915 -6.658 -7.9205 -5.5565 -4.5485 
-7.803 -6.849 -4.243 -7.185 -4.0015 -4.5775 -6.673 -9.05 -11.0565 -7.0195 -10.0925 -7.3615 -9.4025 -7.489 -8.0595 -7.978 -10.688 -8.104501 -6.849 -4.243 -5.169 -4.887 -7.375 -7.280001 -7.669001 -4.8455 -7.335 -7.959001 -9.3195 -10.674 -5.5565 
-8.2655 -6.849 -7.638 -7.2495 -4.5775 -7.226 -10.1265 -12.4267 -11.0565 -13.8483 -12.2945 -9.4025 -10.761 -9.526001 -12.168 -11.5203 -11.857 -8.64 -6.849 -5.654 -8.6695 -7.375 -7.618001 -8.167001 -8.522501 -8.134501 -8.62 -9.84 -12.2618 -10.674 
-8.2655 -10.233 -7.6575 -7.943 -7.226 -10.3675 -13.5032 -12.4267 -17.8853 -16.0503 -14.3355 -10.761 -12.798 -13.6355 -15.7103 -12.6893 -12.3925 -8.64 -7.798501 -9.035 -9.910001 -7.618001 -8.495501 -9.091001 -12.0069 -9.430501 -10.6808 -13.5571 -12.2618 
-3.7825 -4.277 -3.158 -6.5925 -3.383 -5 -5.757 -3.6505 -1.7565 -3.737 -4.2895 0 
-7.0765 -7.0305 -8.653001 -10.688 -6.227 -9.8465 -11.1415 -5.3655 -5.1295 -8.856501 -4.2895 
-8.77 -13.0601 -13.4371 -13.532 -11.3393 -15.3266 -12.8565 -8.268001 -10.57 -8.856501 
-15.3562 -17.8442 -16.2811 -18.6443 -16.8194 -17.0416 -15.759 -14.2407 -10.57 
-20.1403 -20.6882 -21.3934 -24.1244 -18.5344 -19.9441 -21.7317 -14.2407 
-3.436 -2.543 -4.277 -3.277 0 -7.063 -1.7565 -4.3 -9.379001 -3.766 -7.863 -2.186 -10.3 0 -3.321 -3.2615 -3.957 -8.115001 -3.277 -2.5685 -4.221 -3.8225 -5.3595 -4.221 -2.7415 -4.5485 
-6.616 -5.5705 -6.336 -3.277 -7.063 -8.4125 -5.5075 -15.1472 -13.56 -10.5035 -9.832001 -11.1415 -10.3 -3.321 -5.939 -6.9165 -9.604 -10.0815 -6.1475 -7.6415 -7.966001 -7.3035 -8.0935 -7.34 -5.5565 
-10.181 -7.555 -6.336 -10.181 -8.4125 -12.5305 -17.0489 -19.3282 -20.2975 -12.8067 -18.8495 -11.1415 -13.6852 -5.939 -9.13 -13.7513 -11.6341 -12.952 -11.6669 -11.6515 -12.4818 -10.5557 -11.5507 -10.4945 
-10.382 -7.555 -13.8724 -11.5305 -12.5305 -24.0719 -21.2299 -26.0657 -22.6007 -21.8242 -18.8495 -14.5267 -16.3032 -9.13 -16.1358 -15.7814 -14.5046 -18.4714 -15.6769 -16.1673 -15.734 -14.0129 -14.7052 
-10.382 -15.251 -15.2219 -15.6485 -24.0719 -28.2529 -27.9674 -28.3689 -31.6182 -21.8242 -22.2347 -17.1447 -19.4942 -16.1358 -18.1659 -18.6519 -20.024 -22.4814 -20.1927 -19.4195 -19.1912 -17.1674 
