-4.759 
n/a 
n/a 
n/a 
n/a 
-4.759 
n/a 
n/a 
n/a 
n/a 
-4.759 
n/a 
n/a 
n/a 
n/a 
-4.759 
n/a 
n/a 
n/a 
n/a 
-2.3615 -4.05 -2.186 -4.413 -2.3345 -3.54 -3.9755 -1.7565 -4.9835 -4.281 -5.011 -1.8085 0 -3.002 0 -2.802 
-5.97 -5.7465 -5.6695 -4.6955 -5.675 -5.8685 -4.312 -6.181 -9.1575 -10.115 -5.936 -1.8085 -3.002 -3.002 -2.802 
-6.993 -7.293 -5.738 -8.1175 -8.236 -5.9265 -7.616 -10.0065 -15.3541 -10.4175 -5.936 -4.1045 -3.002 -4.165 
-8.376 -7.3155 -8.811501 -9.346001 -8.275001 -9.6175 -11.6873 -16.5377 -15.6566 -10.4175 -8.021 -4.1045 -4.165 
-8.4005 -10.167 -10.007 -9.382 -10.6875 -13.8682 -18.2185 -16.8402 -15.6566 -12.8027 -8.021 -4.4205 
-3.0365 -2.4945 -3.54 -3.9755 -1.934 -2.3615 -4.05 -5.011 -1.8085 0 -5.011 -3.002 0 -5.011 -2.802 
-3.688 -5.328 -5.8685 -5.829 -3.539 -5.97 -7.7035 -5.936 -1.8085 -5.011 -7.092 -3.002 -5.011 -8.1525 
-5.4375 -6.6365 -8.5375 -7.2545 -7.428 -10.2335 -9.2355 -5.936 -7.479 -7.092 -7.092 -7.849 -8.1525 
-6.6485 -9.6485 -9.752001 -11.7529 -11.8079 -11.7655 -9.2355 -8.259001 -8.384001 -7.092 -8.882 -9.213 
-9.663 -10.7595 -14.435 -16.1328 -13.3399 -11.7655 -11.7497 -8.408 -8.384001 -8.882 -9.332001 
-2.3615 -4.05 -4.4125 -3.851 -3.54 -3.9755 -1.7565 -5.011 -3.849 -5.011 -1.8085 0 -5.011 -3.002 0 -5.011 -2.802 0 
-5.97 -7.219501 -8.4305 -8.0885 -5.8685 -4.312 -6.119501 -9.3825 -8.704 -5.936 -1.8085 -5.011 -7.092 -3.002 -5.011 -8.1525 -2.802 
-8.4665 -11.6267 -13.424 -11.2606 -5.9265 -7.936 -9.8085 -14.5107 -9.2795 -5.936 -7.479 -7.092 -7.092 -7.849 -8.1525 -8.1525 
-12.8879 -16.6202 -16.5961 -11.3186 -8.47 -12.1804 -15.1335 -15.0862 -9.2795 -8.259001 -8.384001 -7.092 -8.882 -9.213 -8.1525 
-17.8814 -19.7923 -16.6541 -13.8621 -13.6432 -17.5054 -15.709 -15.0862 -11.8187 -8.408 -8.384001 -8.882 -9.332001 -9.213 
-5.0185 -4.599 -2.186 -3.9205 -1.7695 -2.489 -4.413 -2.3345 -4.414 -5.011 -1.8085 0 -5.011 -3.002 0 -1.756 -5.011 -2.802 0 
-5.1395 -6.548501 -4.9645 -4.971 -3.1405 -5.6845 -4.6955 -6.9985 -7.6945 -5.936 -1.8085 -5.011 -7.092 -3.002 -1.756 -6.892 -8.1525 -2.802 
-6.962 -9.498501 -5.703 -5.645 -6.485 -5.743 -8.2475 -10.911 -8.1905 -5.936 -7.479 -7.092 -7.092 -4.9915 -6.892 -9.477 -8.1525 
-10.0545 -9.706 -6.1445 -8.134501 -6.554 -9.380501 -12.324 -11.407 -8.1905 -8.259001 -8.384001 -7.092 -8.436501 -8.9345 -9.477 -9.477 
-10.1525 -9.941501 -8.791 -8.1575 -10.275 -13.604 -12.82 -11.407 -10.199 -8.408 -8.384001 -8.436501 -9.6435 -9.921 -9.477 
