-4.759 
n/a 
n/a 
n/a 
n/a 
-4.759 
n/a 
n/a 
n/a 
n/a 
-4.759 
n/a 
n/a 
n/a 
n/a 
-4.759 
n/a 
n/a 
n/a 
n/a 
-2.3615 -5.923 -1.8085 -3.845 -3.5455 -1.4985 -5.8925 -3.8405 
-9.2725 -8.204 -3.9645 -7.047 -3.91 -7.427501 -8.6675 
-11.7013 -10.494 -7.14 -7.392 -9.311 -9.176001 
-13.9913 -13.5465 -7.481 -13.1492 -9.705501 
-17.0438 -13.8875 -13.3338 -13.5437 
-3.383 -4.6345 -2.95 -3.1435 -2.674 -3.17 -1.7565 -4.088 0 
-6.1445 -7.359 -6.3945 -7.982 -6.334 -4.179 -5.737 -4.088 
-8.47 -11.3627 -11.5798 -11.7166 -6.7245 -9.2665 -5.737 
-12.6931 -16.548 -15.3144 -12.1071 -12.2246 -9.2665 
-17.8784 -20.2826 -15.7049 -17.6072 -12.2246 
-1.4985 -6.8125 -2.4945 -3.985 -1.934 -1.4985 -2.95 -3.8405 0 
-8.209001 -8.332001 -7.666 -6.2185 -2.6125 -3.9285 -5.133 -3.8405 
-9.597 -13.6847 -9.913 -6.858 -5.674 -5.974 -5.133 
-14.9757 -15.9317 -10.6905 -10.0885 -7.2585 -5.974 
-17.2227 -16.7092 -13.921 -11.8062 -7.2585 
-1.934 -4.23 -3.5215 -3.1435 -4.4715 -3.333 
-5.914001 -8.7405 -6.551001 -7.266001 -7.962001 
-9.476001 -11.942 -10.6465 -10.9163 
-12.8439 -16.0375 -14.2968 
-16.9394 -19.6878 
