-4.759 
n/a 
n/a 
n/a 
n/a 
-4.759 
n/a 
n/a 
n/a 
n/a 
-4.759 
n/a 
n/a 
n/a 
n/a 
-4.759 
n/a 
n/a 
n/a 
n/a 
-3.5455 -1.4985 -3.8405 -1.7565 -8.3365 -6.864 -1.756 -3.091 -4.2245 -6.509501 -6.864 0 -7.4885 -5.1995 -2.5045 -3.4155 -3.9665 -1.934 -3.502 -3.8735 0 
-3.91 -4.7545 -4.563 -9.0765 -8.847 -8.699 -4.2995 -5.326 -9.370001 -8.7465 -6.864 -7.4885 -13.3152 -5.883 -5.964 -7.1245 -5.47 -4.8155 -6.2275 -3.8735 
-5.4455 -5.365 -10.688 -9.5325 -10.143 -10.068 -6.25 -9.620501 -9.809501 -8.7465 -10.802 -13.3152 -13.9987 -9.6435 -9.7095 -8.307 -8.1835 -6.9265 -6.2275 
-5.984 -10.749 -11.144 -10.611 -10.3295 -10.374 -9.906 -9.866501 -9.809501 -13.1827 -16.6287 -13.9987 -17.7592 -13.464 -11.3188 -11.3175 -10.647 -6.9265 
-11.4906 -11.205 -12.2225 -10.771 -10.512 -10.3855 -10.045 -9.866501 -14.4597 -19.0094 -17.3122 -17.7592 -21.5797 -15.0733 -14.3293 -13.781 -10.647 
-3.5455 -1.4985 -4.644 -1.7565 -5.847 -5.847 -8.164001 -1.756 -3.091 -4.2245 -6.509501 -8.164001 0 -6.864 -4.3195 -3.17 -4.377 -1.934 -3.502 -3.8735 
-3.91 -6.0535 -5.2855 -7.519001 -7.929 -9.3365 -9.844501 -4.2995 -5.326 -9.370001 -10.1185 -8.164001 -6.864 -10.543 -7.739 -5.395 -6.5255 -4.8155 -6.2275 
-6.9925 -6.790501 -12.0616 -9.554001 -9.363 -11.1228 -12.444 -6.25 -9.620501 -13.3264 -10.1185 -15.5516 -10.543 -13.9625 -9.948 -7.433001 -9.710501 -6.9265 
-7.6105 -13.6232 -14.0966 -10.5345 -11.1571 -13.7223 -14.3945 -9.906 -13.7441 -13.3264 -17.5061 -19.2306 -13.9625 -16.1715 -11.986 -10.382 -12.0457 
-14.5744 -15.6582 -15.0771 -12.3286 -13.7566 -15.6728 -18.0505 -14.2278 -13.7441 -20.714 -21.1851 -22.6501 -16.1715 -18.2095 -14.935 -12.7172 
-1.934 -1.4985 -3.8405 -1.7565 -7.4885 0 -5.847 -5.847 -8.164001 -1.756 -3.091 -4.2245 -6.509501 -8.164001 -3.7905 -5.4865 -1.934 -3.502 -3.8735 
-2.6125 -4.7545 -4.563 -9.320001 -7.4885 -5.847 -7.929 -9.3365 -9.844501 -4.2995 -5.326 -9.370001 -10.1185 -12.4781 -8.58 -6.845 -4.8155 -6.2275 
-5.7585 -5.365 -13.2877 -9.320001 -11.136 -7.929 -9.363 -11.1228 -12.444 -6.25 -9.620501 -13.3264 -14.4326 -17.2676 -9.442 -10.025 -6.9265 
-6.6715 -14.1329 -13.2877 -13.1213 -13.218 -9.363 -11.1571 -13.7223 -14.3945 -9.906 -13.7441 -17.6405 -19.2221 -18.1296 -12.9524 -12.097 
-15.627 -14.1329 -17.089 -15.2033 -14.652 -11.1571 -13.7566 -15.6728 -18.0505 -14.2278 -18.0582 -22.43 -20.0841 -21.64 -15.0244 
-3.5455 -1.4985 -3.8405 -12.16972 -5.847 -6.864 -1.756 -3.091 -4.2245 -6.509501 -6.864 0 -4.184 -6.864 -4.0965 -4.3195 -1.8085 -4.0385 -3.519 -1.934 -3.502 -3.8735 
-3.91 -4.7545 -17.01262 -18.01672 -9.1255 -8.699 -4.2995 -5.326 -9.370001 -8.7465 -6.864 -4.184 -11.4276 -8.968 -8.299001 -5.0655 -5.435 -6.646 -5.3055 -4.8155 -6.2275 
-5.4455 -18.60262 -22.85962 -21.29522 -10.2815 -10.068 -6.25 -9.620501 -9.809501 -8.7465 -11.8358 -11.4276 -13.5316 -13.3639 -9.007001 -8.475 -7.5295 -8.252001 -7.968 -6.9265 
-19.60442 -24.44962 -26.13812 -22.45122 -10.6315 -10.374 -9.906 -9.866501 -9.809501 -14.2165 -19.0794 -13.5316 -17.9275 -14.0719 -12.5983 -9.63 -8.813001 -11.2805 -9.889 
-25.45142 -27.72812 -27.29412 -22.80122 -10.9375 -10.3855 -10.045 -9.866501 -15.4935 -21.4601 -21.1834 -17.9275 -18.6355 -17.6632 -13.7533 -10.6765 -11.7891 -13.2015 
