-4.759 
n/a 
n/a 
n/a 
n/a 
-4.759 
n/a 
n/a 
n/a 
n/a 
-4.759 
n/a 
n/a 
n/a 
n/a 
-4.759 
n/a 
n/a 
n/a 
n/a 
-3.531 -3.1205 0 -1.4985 -4.623 -5.454 -4.3305 -1.7565 -1.4985 -4.365 -3.3975 -2.8645 -3.1125 -4.6275 -1.756 -2.186 -4.281 -7.6065 0 -1.4985 -3.098 -1.7565 -1.8085 -4.511 -3.8905 0 
-5.4665 -3.1205 -1.4985 -5.1705 -9.449501 -7.2355 -6.115 -2.4195 -5.4465 -8.682001 -5.872001 -3.5345 -6.129001 -6.206 -3.986 -5.650001 -9.778 -7.6065 -1.4985 -4.3095 -4.3615 -3.2595 -6.146 -6.995 -3.8905 
-5.4665 -5.3525 -5.1705 -9.856501 -9.4835 -9.980501 -6.318 -6.103001 -9.406 -11.5289 -6.585501 -6.6435 -7.29 -8.299 -7.2585 -11.5624 -9.778 -8.912001 -4.3095 -4.5915 -5.5425 -7.1635 -7.8155 -6.995 
-7.5795 -8.469501 -9.856501 -9.9285 -12.8619 -10.5475 -8.574 -9.831501 -12.3097 -12.2424 -9.943001 -7.911 -8.92 -11.8063 -13.4121 -11.5624 -11.2579 -12.3122 -4.5915 -5.635 -8.962 -8.2255 -7.8155 
-11.1317 -13.7475 -9.9285 -14.0361 -13.4289 -12.8035 -14.1213 -12.7352 -13.0232 -15.5999 -11.1683 -9.119 -12.5581 -17.9599 -13.4121 -13.0423 -14.6581 -12.5942 -5.635 -9.0085 -9.83 -8.2255 
-3.531 -3.1205 0 -1.8085 -2.688 -4.415 -1.934 -3.7075 -2.229 -3.3975 -2.7415 -3.43 -1.756 -4.281 -12.16972 0 -2.3335 -4.822 -1.7695 -1.4985 -3.098 -1.7565 -1.8085 -4.511 -3.8905 0 
-5.4665 -3.1205 -1.8085 -3.642 -6.4425 -6.0985 -6.1845 -5.5255 -5.2825 -5.9445 -4.913 -5.3195 -6.2145 -16.76732 -12.16972 -2.3335 -6.472 -4.8595 -2.7955 -4.3095 -4.3615 -3.2595 -6.146 -6.995 -3.8905 
-5.4665 -5.59 -3.642 -7.246 -8.072001 -10.199 -7.4285 -8.6785 -7.1845 -8.6665 -6.481 -8.002001 -19.20842 -16.76732 -14.50322 -6.472 -6.511 -5.318 -6.0255 -4.5915 -5.5425 -7.1635 -7.8155 -6.995 
-8.592501 -7.823 -7.246 -8.516001 -12.4601 -11.9896 -11.1113 -10.76 -9.995001 -10.5435 -10.1035 -22.36872 -19.20842 -19.10082 -18.64172 -6.511 -6.921 -7.7995 -6.395 -5.635 -8.962 -8.2255 -7.8155 
-10.228 -11.7266 -8.516001 -13.0477 -14.2507 -15.6724 -13.1928 -13.5705 -11.9492 -14.166 -24.47022 -22.36872 -21.54192 -23.23932 -18.68072 -6.921 -9.433001 -7.918 -7.346001 -9.0085 -9.83 -8.2255 
-3.531 -3.1205 -1.934 -4.365 -3.2 -2.925 -3.557 -2.688 -3.383 -4.3305 -1.756 -4.281 -2.5045 -12.16972 -2.4265 -2.186 -4.511 -3.8905 -3.098 
-5.4665 -5.7015 -6.322 -5.4195 -6.1035 -5.51 -6.570001 -7.071001 -8.4825 -5.998 -6.2145 -5.893 -15.59162 -14.59622 -3.292 -7.202001 -6.995 -8.047501 
-7.756001 -10.5013 -7.7985 -8.108001 -8.5485 -8.4635 -11.5054 -12.6393 -10.044 -9.75 -7.847501 -19.34092 -18.01812 -15.46172 -8.5375 -10.061 -10.204 
-13.3234 -11.9778 -10.9054 -10.2645 -11.8034 -13.5555 -17.0737 -14.2008 -13.796 -11.7728 -21.41982 -21.76742 -18.88362 -20.70722 -11.5683 -13.222 
-14.7999 -15.0847 -13.0619 -13.5194 -16.8954 -19.1238 -18.6352 -17.9528 -15.8188 -25.34512 -23.84632 -22.63292 -24.12912 -23.73802 -14.7293 
-3.531 -3.1205 -3.535 -4.3305 -2.7415 -3.557 -1.934 -3.7075 -3.3975 -1.756 -4.281 -2.5045 -2.5045 -12.16972 -2.9705 -5.4475 -1.4985 -3.098 -1.7565 -4.511 -3.8905 
-5.4665 -7.483 -7.0315 -7.0165 -5.094501 -4.4175 -6.1845 -7.3555 -4.713 -6.2145 -5.893 -6.124001 -15.59162 -15.14022 -7.814 -5.8175 -4.3095 -4.3615 -5.976501 -6.995 
-10.041 -11.1995 -9.443001 -9.085501 -5.837501 -8.597 -10.5233 -9.458501 -9.102501 -7.847501 -9.7185 -19.39832 -18.56212 -19.98372 -8.277 -9.099 -4.5915 -8.915 -8.897 
-14.3727 -13.611 -11.7358 -9.8765 -10.5975 -13.2508 -12.6263 -14.1112 -11.0115 -11.7974 -23.26062 -22.36882 -23.40562 -20.44672 -10.647 -9.219 -9.3745 -10.575 
-16.7842 -15.9038 -12.5268 -14.7651 -15.2513 -15.3538 -17.279 -16.0202 -14.9614 -25.33952 -26.23112 -27.21232 -23.86862 -22.81672 -10.767 -14.2654 -10.8987 
