-4.759 
n/a 
n/a 
n/a 
n/a 
-4.759 
n/a 
n/a 
n/a 
n/a 
-4.759 
n/a 
n/a 
n/a 
n/a 
-4.759 
n/a 
n/a 
n/a 
n/a 
-1.4985 -3.5435 -3.774 -3.4515 -1.934 -1.4985 -3.158 -4.766 -4.517 -1.4985 -4.495 -1.7565 -2.3615 -3.331 0 
-4.2755 -6.9325 -7.9175 -4.7655 -2.6125 -4.178 -7.241 -10.0925 -6.144 -5.4805 -5.435 -3.523 -6.0915 -3.331 
-8.355501 -11.4164 -9.172001 -5.623 -5.265 -8.259001 -12.9415 -10.7085 -8.472 -5.939 -7.848001 -7.462 -6.0915 
-13.2226 -12.6709 -10.299 -8.4165 -8.729501 -14.2895 -13.5575 -13.0365 -9.097 -8.2615 -12.0558 -7.462 
-14.4771 -13.7979 -13.0925 -12.4728 -14.89 -14.9055 -15.8855 -13.6615 -11.6191 -12.5123 -12.0558 
-2.3615 -4.4925 -3.9335 -4.766 -3.6485 -3.1335 -2.0935 -4.298 0 
-5.631001 -9.012001 -10.674 -9.0275 -6.205501 -4.924 -8.003 -4.298 
-10.111 -16.9565 -14.9355 -11.8541 -8.119 -10.575 -8.003 
-18.1757 -21.218 -17.7621 -13.7676 -14.0482 -10.575 
-22.4372 -24.0446 -19.6756 -19.6968 -14.0482 
-2.3615 -3.331 0 -2.3615 -4.495 -2.7415 -3.793 -1.934 -4.766 -2.229 -3.5435 -3.333 -2.0935 -3.6485 -3.456 0 
-6.0915 -3.331 -2.3615 -6.353 -6.8105 -5.337501 -4.752 -5.9565 -7.602 -5.054 -7.301001 -5.0555 -5.22 -5.2665 -3.456 
-6.0915 -5.693 -6.353 -7.9845 -10.5745 -5.761 -7.915 -8.869 -10.873 -9.3785 -8.925501 -8.536501 -6.5745 -5.2665 
-8.221001 -9.7885 -7.9845 -11.8221 -10.998 -8.6615 -11.0025 -12.3258 -15.1975 -9.9735 -12.4599 -9.604501 -6.5745 
-12.5975 -11.4854 -11.8221 -12.2456 -13.8985 -11.8796 -14.4593 -16.6503 -15.7925 -13.6313 -13.5279 -9.604501 
-1.4985 -3.5435 -4.349 -2.3615 -4.1635 -2.5045 -2.664 -3.333 -1.934 -4.766 
-4.2755 -7.286 -6.501 -6.584001 -6.4245 -4.074 -4.941 -5.1705 -5.9565 
-7.7805 -9.745501 -11.2279 -8.5 -8.002001 -7.2135 -6.6525 -9.662001 
-10.1715 -14.6476 -13.1439 -10.051 -11.4955 -8.863501 -11.7514 
-15.0736 -16.5636 -14.6949 -13.5445 -13.1455 -14.232 
