-4.759 
n/a 
n/a 
n/a 
n/a 
-4.759 
n/a 
n/a 
n/a 
n/a 
-4.759 
n/a 
n/a 
n/a 
n/a 
-4.759 
n/a 
n/a 
n/a 
n/a 
-3.508 -2.461 -1.934 -9.4045 -4.302 -4.905 -4.0465 -4.889 -4.8115 0 -2.789 -4.269 -3.152 -4.493 -1.756 -2.645 -8.2935 -5.071 -5.39 
-5.4715 -4.9315 -12.3449 -13.8405 -8.862 -5.8205 -8.911 -6.759501 -4.8115 -2.789 -7.1835 -6.461 -5.593 -5.8585 -3.898 -8.429501 -13.7057 -8.8455 
-8.267501 -15.7438 -16.7809 -18.4005 -8.881001 -10.354 -10.287 -6.759501 -8.1155 -7.1835 -9.4665 -7.504 -6.381001 -7.42 -9.856501 -13.8913 -17.4802 
-19.3678 -20.1798 -21.3409 -18.4195 -13.5643 -11.73 -10.287 -9.863501 -12.868 -9.4665 -10.2395 -7.8435 -7.667 -14.8561 -15.3725 -17.6658 
-23.8038 -24.7398 -21.3599 -23.1028 -14.9403 -11.73 -13.391 -15.07 -15.151 -10.2395 -10.585 -9.344001 -15.4245 -20.3721 -19.147 
-3.508 -2.461 0 -4.4595 -3.1385 -3.152 -4.493 -1.756 -2.645 -3.1575 -3.3935 -4.874 -1.934 -1.8085 -4.803 -4.889 -4.8115 -4.299 -2.5045 -5.7465 -4.302 -4.8115 -4.0465 
-5.4715 -2.461 -4.4595 -6.7565 -5.219 -5.593 -5.8585 -3.898 -3.72 -5.109 -7.742001 -5.694 -3.2685 -6.0365 -7.012501 -6.759501 -8.177 -6.425 -7.743 -8.569501 -10.375 -7.2285 
-5.4715 -7.465501 -6.7565 -7.710001 -6.315001 -6.381001 -7.42 -5.4925 -5.317 -8.170501 -8.2735 -6.6225 -7.2245 -7.623 -8.445001 -8.828001 -10.647 -9.943001 -9.865001 -15.1327 -12.792 
-10.6465 -10.259 -7.710001 -8.054001 -6.867001 -7.667 -7.4515 -6.8595 -8.172001 -8.858001 -9.517 -8.5425 -8.313001 -8.9875 -10.9999 -12.19 -14.165 -10.2275 -16.702 -17.5497 
-13.44 -11.2125 -8.054001 -8.500001 -7.857501 -7.6905 -8.265 -8.73 -8.861 -9.9455 -10.336 -9.249001 -9.4145 -11.6038 -14.3619 -15.708 -14.4495 -17.4149 -19.119 
-3.508 -2.461 0 -2.789 -3.152 -4.493 -1.756 -3.3935 -3.7555 -4.874 -2.3345 -3.6835 -4.889 -3.9615 -3.237 -4.0465 -1.934 -5.7465 0 
-5.4715 -2.461 -2.789 -6.2015 -5.593 -5.8585 -5.537 -8.3 -7.194 -6.311 -5.9315 -8.025001 -7.803 -7.413 -8.019501 -5.613 -6.777 -5.7465 
-5.4715 -4.575 -6.2015 -9.178 -6.381001 -8.5435 -10.4505 -11.9225 -9.064501 -9.932501 -10.6735 -11.1792 -11.8491 -13.2423 -9.046 -9.215 -6.777 
-8.207001 -8.545501 -9.178 -9.995 -8.766001 -14.4532 -14.073 -13.793 -12.8282 -14.7497 -13.8277 -15.2253 -17.6784 -14.2688 -12.9588 -9.215 
-12.6781 -11.6336 -9.995 -12.38 -14.8361 -18.0757 -15.9435 -17.5567 -17.6454 -17.9039 -17.8738 -21.0546 -18.7049 -18.1816 -12.9588 
-3.508 -2.461 -1.934 -9.4045 -4.302 -8.9525 0 -7.6035 -4.889 -4.8115 -3.251 -3.9595 -3.5015 -4.8635 -1.934 -2.789 -3.1385 -3.152 -4.493 -1.756 -3.7515 -3.3935 -3.152 -4.874 0 
-5.4715 -4.9315 -12.3449 -13.8405 -14.7887 -8.9525 -7.6035 -9.83 -6.759501 -8.093 -5.561 -5.6235 -8.922501 -4.9455 -5.7025 -6.231 -5.219 -5.593 -5.8585 -5.2505 -6.501 -7.2105 -6.21 -4.874 
-8.267501 -15.7438 -16.7809 -24.3272 -14.7887 -16.7276 -9.83 -11.8747 -9.714001 -9.7505 -6.478001 -10.5225 -8.9855 -8.377501 -9.117001 -8.593 -6.315001 -6.381001 -10.1595 -8.1245 -9.6715 -8.676001 -6.21 
-19.3678 -20.1798 -27.2676 -24.3272 -22.5638 -18.9541 -11.8747 -14.8292 -11.5085 -9.9565 -10.7495 -10.6135 -12.5591 -10.172 -11.7578 -9.153501 -6.867001 -10.532 -13.1583 -11.5452 -11.2514 -8.676001 
-23.8038 -30.6665 -27.2676 -32.1023 -24.7903 -20.9988 -14.8292 -16.6237 -11.7145 -14.1902 -10.8405 -14.1871 -14.3536 -13.534 -12.3183 -9.601501 -11.4402 -13.5308 -16.579 -13.1251 -11.2514 
