-4.759 
n/a 
n/a 
n/a 
n/a 
-4.759 
n/a 
n/a 
n/a 
n/a 
-4.759 
n/a 
n/a 
n/a 
n/a 
-4.759 
n/a 
n/a 
n/a 
n/a 
-3.982 -5.213 -4.706 -1.7695 -3.641 -1.7565 -5.899 0 
-7.028 -8.8395 -6.468 -5.828001 -5.198501 -7.1945 -5.899 
-10.451 -10.1555 -10.243 -7.584001 -10.3675 -7.1945 
-11.767 -15.2051 -10.6175 -12.8896 -10.3675 
-16.8166 -15.5796 -15.9231 -12.8896 
-3.875 -5.138 
-9.318001 
n/a 
n/a 
n/a 
-3.875 -5.213 -2.186 -4.06 -1.934 -3.641 -1.7565 -5.899 
-8.166 -6.983 -4.672 -4.483 -5.245 -5.198501 -7.1945 
-10.674 -9.487 -5.13 -6.973001 -8.111 -10.3675 
-13.178 -9.965 -7.654 -9.563001 -13.5244 
-13.656 -12.4698 -9.9895 -14.9766 
-3.875 -2.186 -4.99 -2.5045 -1.4985 -3.75 -1.7565 -4.4695 -3.994 -5.213 
-5.9525 -5.502 -6.1635 -3.1915 -4.8715 -5.188 -6.304 -7.506001 -8.1675 
-9.149501 -6.6515 -6.421 -6.528501 -6.1545 -9.908001 -9.0965 -10.1385 
-10.355 -6.899 -8.7635 -7.9265 -11.2481 -13.6537 -11.8738 
-10.576 -9.212501 -9.797501 -13.3195 -14.9938 -16.431 
