-4.759 
n/a 
n/a 
n/a 
n/a 
-4.759 
n/a 
n/a 
n/a 
n/a 
-4.759 
n/a 
n/a 
n/a 
n/a 
-4.759 
n/a 
n/a 
n/a 
n/a 
-1.934 -3.1435 -4.933 -5.0815 0 -1.4985 -4.1865 -4.5605 -5.289 -3.1435 -3.9825 -1.934 -4.0515 -3.2015 -1.7695 -4.933 -4.868 -3.5455 -3.8665 -5.173 0 
-4.335 -7.6615 -8.831 -5.0815 -1.4985 -5.177 -7.1365 -9.189 -7.3845 -5.8145 -4.624 -5.321 -6.1715 -4.977 -7.0705 -9.5845 -7.9545 -7.375 -5.6665 -5.173 
-9.099001 -10.66 -8.831 -6.6535 -5.177 -7.5375 -12.2884 -10.75 -9.724501 -6.095 -6.747 -7.3655 -6.725501 -9.210001 -12.4018 -12.8516 -12.0738 -7.843501 -5.6665 
-12.1887 -10.66 -10.2485 -10.186 -7.5375 -12.9866 -13.8494 -13.09 -10.121 -8.094501 -8.462 -7.8535 -11.3551 -14.9347 -15.6689 -16.9709 -12.5423 -7.843501 
-12.1887 -12.0775 -13.781 -12.5465 -12.9866 -14.5476 -16.1894 -13.4865 -12.2975 -10.0605 -8.967 -12.5961 -17.0798 -18.2018 -19.7882 -17.4394 -12.5423 
0 0 -3.8755 -4.6545 -1.7565 -7.259501 -4.3515 -2.186 -2.645 -3.1575 -2.6615 -3.5215 -7.1885 -3.784 -2.356 -3.5085 -8.0045 -1.7565 -5.811 0 0 -3.4975 -4.0415 -4.6545 -5.048 -3.2815 -3.9225 -1.4985 -4.659 -3.959 0 
0 -3.8755 -8.4615 -5.415 -8.773001 -11.7135 -6.4875 -4.528 -3.72 -5.056 -5.6825 -8.6145 -8.2875 -6.737 -6.097 -11.9795 -8.936001 -7.545001 -5.395 0 -3.4975 -6.232 -9.154 -10.703 -8.6715 -7.913501 -4.463 -7.3725 -8.276501 -3.959 
-3.8755 -8.4615 -10.0475 -11.956 -14.3083 -14.5765 -8.759501 -5.2425 -5.3605 -7.045001 -11.326 -13.0355 -11.648 -10.007 -14.2726 -13.0426 -15.9265 -8.079 -5.395 -3.4975 -6.232 -12.1037 -15.2653 -14.3265 -10.6095 -8.255501 -9.492001 -9.7725 -8.276501 
-8.4615 -10.0475 -17.3559 -18.169 -16.6459 -16.8485 -9.076 -7.2295 -7.126 -13.8687 -15.8747 -15.7557 -15.059 -18.1826 -15.1241 -20.9526 -16.7705 -8.079 -9.4825 -6.232 -12.1037 -18.215 -18.8888 -16.2645 -10.9515 -13.5401 -11.892 -9.7725 
-10.0475 -17.3559 -23.1051 -20.4062 -18.9179 -17.165 -11.2904 -8.2225 -14.0245 -17.7604 -18.6847 -19.0537 -23.2346 -19.0341 -23.0341 -20.9526 -16.7705 -10.341 -12.8484 -12.1037 -18.215 -21.8385 -20.8268 -16.6065 -16.2361 -15.9401 -11.892 
-3.8755 -3.6765 -2.229 -4.532 -1.7565 0 -7.259501 -2.186 -4.191 -2.95 -3.93 -2.0935 -4.0745 -2.8965 -3.959 -3.5005 -3.5085 -4.63 -4.326 -3.3855 -5.811 0 0 -3.4225 -3.468 -2.229 -4.257 -4.0545 -2.186 -4.3725 -4.937 -1.934 -4.659 -3.959 0 
-6.5575 -4.9715 -6.059 -6.073 -1.7565 -6.6905 -10.22 -5.9935 -7.6955 -7.318 -6.045 -6.977 -7.0555 -4.940001 -5.998 -7.261001 -6.3505 -5.88 -5.8915 -9.446001 -5.395 0 -3.4225 -3.628 -6.904 -5.2305 -7.8065 -5.882 -5.3785 -8.864 -7.231501 -7.3915 -8.276501 -3.959 
-8.163501 -8.0425 -8.169001 -6.073 -8.659501 -10.5325 -14.4652 -9.404501 -9.7705 -9.8825 -11.2817 -10.622 -9.7635 -6.9345 -10.2695 -9.774 -8.0655 -5.915 -11.5145 -9.515501 -5.395 -3.4225 -3.628 -7.1775 -10.4077 -9.765501 -10.0185 -9.7845 -10.209 -9.453501 -13.048 -8.68 -8.276501 
-11.4293 -10.749 -8.169001 -12.6881 -12.6019 -14.4652 -17.8762 -11.7057 -12.8626 -15.1192 -14.9267 -13.33 -11.9056 -11.6252 -13.0837 -11.9882 -8.120501 -11.9099 -11.8339 -9.515501 -9.899 -3.628 -7.1775 -10.7756 -14.9427 -12.0225 -13.921 -14.5666 -11.3607 -15.6174 -14.3365 -8.68 
-14.1358 -10.749 -14.7908 -16.6305 -16.5346 -17.8762 -20.1774 -14.7978 -18.0993 -18.7642 -17.6347 -15.4721 -16.5963 -14.4394 -15.2979 -12.0432 -14.5758 -11.9227 -11.8339 -14.7729 -10.358 -7.1775 -10.7756 -15.3106 -17.1997 -15.925 -18.7031 -15.7183 -17.5246 -16.9059 -14.3365 
0 -3.7285 -6.2055 -7.259501 -7.378 -1.934 -3.188 -2.6615 -3.518 -3.922 0 -3.5085 -3.59 -1.7565 -5.811 0 -1.934 -3.4975 -4.0415 -4.659 -3.59 -1.934 -4.937 -4.088 0 
-3.7285 -9.916 -13.0385 -14.7757 -9.604 -5.387 -6.534 -6.3985 -7.4195 -3.922 -3.5085 -7.6795 -5.228 -7.545001 -5.395 -1.934 -5.3805 -6.232 -9.6495 -8.9825 -5.272 -7.9415 -10.2595 -4.088 
-9.916 -17.6266 -22.1135 -17.6275 -13.0556 -9.1975 -10.5135 -10.223 -7.4195 -7.2235 -7.6795 -9.3665 -12.0285 -8.079 -8.206501 -5.3805 -7.8725 -12.5992 -14.2066 -10.9395 -12.2215 -13.801 -10.2595 
-17.6266 -26.3376 -24.3395 -21.0791 -16.8661 -13.453 -14.338 -10.223 -10.7025 -11.7599 -9.3665 -17.2106 -12.8803 -9.927501 -13.0917 -7.8725 -15.0315 -17.1563 -16.1636 -17.889 -18.081 -13.801 
-26.3376 -28.5636 -27.7911 -24.8896 -21.1216 -17.2775 -14.338 -13.506 -15.2389 -13.4469 -17.2106 -17.2106 -14.7288 -14.8633 -15.5837 -15.0315 -19.5886 -19.1133 -23.1131 -23.7485 -18.081 
