-4.759 
n/a 
n/a 
n/a 
n/a 
-4.759 
n/a 
n/a 
n/a 
n/a 
-4.759 
n/a 
n/a 
n/a 
n/a 
-4.759 
n/a 
n/a 
n/a 
n/a 
-1.4985 -5.1825 -5.254 -4.153 -1.7565 -1.8085 -4.541 -2.4285 -4.2205 -2.186 -2.6165 -4.4465 -2.3345 -1.4985 -3.893 -1.7565 -3.0105 -2.356 -1.4985 -4.541 -2.4285 -4.2205 -4.007 0 
-6.0515 -8.335001 -6.3395 -5.717 -3.2595 -5.7795 -6.4265 -6.55 -7.1395 -3.5105 -5.8495 -4.897501 -3.233 -4.3925 -4.1785 -5.412 -4.921 -3.1615 -5.628 -6.4265 -6.55 -7.9075 -4.007 
-8.641001 -8.513 -7.1055 -7.0495 -6.725 -7.267 -7.238 -8.9245 -8.813 -6.3405 -6.0965 -5.402 -6.1175 -4.5425 -7.7185 -6.51 -5.4835 -7.234501 -7.771001 -7.238 -10.7554 -7.9075 
-8.731501 -9.1595 -8.455501 -8.6625 -8.171 -8.085 -9.275001 -10.6095 -11.7328 -6.528501 -6.5945 -7.91 -6.229 -8.018001 -8.382 -7.026 -8.024 -8.972501 -8.708 -11.9598 -10.7554 
-9.272001 -10.0825 -8.959001 -9.637501 -8.9585 -9.9505 -11.0132 -13.5293 -11.9208 -7.0205 -8.983001 -7.9525 -9.818001 -8.898001 -8.955501 -9.8695 -9.207001 -9.935501 -13.6478 -11.9598 
-6.702 -12.16972 -1.756 -3.321 -3.922 -1.934 -1.4985 -4.862 
-19.39632 -13.92572 -4.0055 -7.054 -4.558 -2.6125 -6.3275 
-21.15232 -16.17522 -7.568501 -8.558001 -5.195 -7.5585 
-23.40182 -19.73822 -8.9455 -9.434 -8.926001 
-26.96482 -21.11522 -9.75 -13.2226 
-2.3615 -2.186 -3.383 -4.1935 -1.7565 -5.173 -1.934 -1.4985 -4.9845 -5.965 -1.934 -1.4985 -5.7565 -3.9665 -3.4715 -4.901 -1.934 -1.4985 -3.922 -1.756 -3.535 -4.4705 0 
-3.5005 -4.438 -8.160501 -5.0015 -6.519001 -6.4505 -2.6125 -5.771501 -11.9081 -7.7275 -2.6125 -6.4235 -6.969501 -7.806001 -8.213 -6.3105 -2.6125 -5.1995 -5.9325 -5.089 -8.25 -4.4705 
-5.7175 -10.2185 -9.183001 -7.654 -7.5655 -6.8125 -6.7345 -13.1633 -13.6706 -8.2675 -7.727 -7.3955 -11.521 -13.1379 -10.76 -6.7495 -7.066 -7.165501 -9.51 -9.83 -8.25 
-12.079 -11.4324 -11.9901 -9.214001 -8.086 -10.733 -14.4997 -14.9258 -14.2106 -13.6022 -9.2845 -12.319 -16.8529 -15.6849 -11.199 -11.7836 -9.152 -11.0822 -14.3928 -9.83 
-13.2929 -14.2395 -13.5501 -9.8405 -12.1179 -18.4982 -16.2622 -15.4658 -19.5453 -15.1597 -14.2258 -17.6509 -19.3999 -16.1239 -16.2331 -13.8696 -13.1565 -15.965 -14.3928 
-1.934 -2.3615 -3.3755 -4.238 -1.7695 -2.489 -8.146501 
-3.539 -4.8525 -8.187 -6.566 -3.1405 -12.0159 
-5.301 -9.750501 -10.7758 -8.1595 -12.8704 
-10.1675 -12.4261 -12.3693 -18.0736 
-12.8431 -14.0196 -22.2834 
