-4.759 
n/a 
n/a 
n/a 
n/a 
-4.759 
n/a 
n/a 
n/a 
n/a 
-4.759 
n/a 
n/a 
n/a 
n/a 
-4.759 
n/a 
n/a 
n/a 
n/a 
-1.934 -2.3615 -3.8275 0 -4.094 -3.959 -3.115 -3.9465 0 -4.559 0 -4.2815 0 -3.676 -1.756 -3.7745 -3.959 -3.115 -4.489 0 -4.621 0 -3.982 0 -4.1265 -5.192 -2.356 -3.345 -2.8965 
-3.539 -5.965 -3.8275 -4.094 -7.484 -6.08 -7.165501 -3.9465 -4.559 -4.559 -4.2815 -4.2815 -3.676 -5.0365 -5.3805 -8.6995 -6.08 -8.143001 -4.489 -4.621 -4.621 -3.982 -3.982 -4.1265 -9.2915 -6.552501 -4.841001 -4.4605 
-6.813 -5.965 -9.043 -7.484 -9.043 -7.617 -7.165501 -7.389501 -4.559 -7.8795 -4.2815 -8.035501 -5.0365 -7.598001 -9.5865 -10.6095 -8.533 -8.143001 -6.757 -4.621 -7.727 -3.982 -5.8715 -9.2915 -10.7776 -8.373001 -5.2625 
-6.813 -11.9273 -12.7538 -9.043 -10.419 -7.617 -9.501 -7.389501 -7.8795 -7.8795 -8.035501 -8.7075 -7.598001 -13.3022 -11.7603 -13.0625 -8.533 -9.715501 -6.757 -7.727 -7.727 -5.8715 -12.5717 -10.7776 -12.5981 -8.387001 
-12.9633 -15.6381 -14.3128 -10.419 -10.419 -9.867001 -9.501 -8.9525 -7.8795 -10.361 -8.7075 -11.7574 -13.3022 -15.476 -14.2133 -13.0625 -10.204 -9.715501 -8.663501 -7.727 -9.191001 -12.5717 -14.0578 -12.5981 -12.6121 
-2.3615 -3.8275 -3.849 -4.094 -3.59 -2.4945 -3.9465 0 -4.2815 0 -6.2365 0 -1.756 -3.676 -1.756 -3.849 -3.307 -3.959 -10.5165 0 -4.857 -2.3085 0 -4.176 0 -1.756 -4.1265 -3.1495 -3.959 -3.074 -7.217 -1.934 -4.809 -4.1965 0 
-5.965 -7.7305 -8.104501 -7.4835 -5.948 -7.8495 -3.9465 -4.2815 -4.2815 -6.2365 -6.2365 -1.756 -5.918 -5.0365 -5.761 -8.2135 -8.284 -15.6221 -10.5165 -4.857 -7.460501 -2.3085 -4.176 -4.176 -1.756 -6.0545 -7.651 -5.772 -6.743 -10.703 -9.2095 -6.4385 -8.57 -4.1965 
-9.525001 -12.5456 -10.7575 -10.5645 -10.575 -7.8495 -7.134501 -4.2815 -10.985 -6.2365 -7.7345 -5.918 -7.427 -9.0165 -10.9127 -13.5429 -20.4869 -15.6221 -15.4907 -7.460501 -7.460501 -7.559501 -4.176 -5.847 -6.0545 -8.655001 -9.616 -7.9575 -14.7632 -12.6955 -13.8354 -10.2035 -8.57 
-14.7789 -15.1986 -13.8385 -15.1915 -10.575 -10.111 -7.134501 -10.985 -10.985 -7.7345 -12.3323 -7.427 -11.584 -14.4072 -16.2421 -25.7458 -20.4869 -20.5963 -18.0942 -7.460501 -13.1713 -7.559501 -5.847 -9.318501 -8.655001 -9.7825 -11.9907 -16.1999 -16.7557 -17.3214 -17.6004 -10.2035 
-17.4319 -18.2796 -18.4655 -15.1915 -13.3377 -10.111 -14.6994 -10.985 -12.483 -12.3323 -13.8413 -11.584 -16.9747 -19.7366 -28.445 -25.7458 -25.4611 -23.1998 -18.0942 -13.1713 -13.1713 -9.729501 -9.318501 -12.0574 -9.7825 -12.1406 -20.2331 -18.1924 -21.3816 -21.0864 -17.6004 
-2.3615 -3.8275 -2.186 -4.479 -7.2315 -6 0 -8.2945 0 -6.982501 -1.756 -3.676 -3.4635 -2.229 -1.756 -3.307 -7.2975 0 -4.621 0 -4.176 -1.756 -4.1265 -3.59 -2.229 -2.186 -6.752501 -3.8275 -2.229 
-5.965 -5.669 -6.939 -11.08 -14.4477 -6 -8.2945 -8.2945 -6.982501 -8.593 -5.918 -8.32 -5.373 -4.366 -5.912 -11.136 -7.2975 -4.621 -4.621 -4.176 -5.847 -6.0545 -7.6845 -4.966 -5.1225 -8.726001 -11.5916 -6.368 
-6.9275 -10.757 -13.9054 -18.2962 -14.4477 -15.1877 -8.2945 -15.587 -8.593 -12.9362 -11.1818 -10.8329 -8.222501 -8.690001 -14.5044 -11.136 -12.5013 -4.621 -8.7405 -5.847 -9.318501 -9.594501 -10.5535 -9.056001 -11.8501 -14.0341 -14.1321 
-12.3843 -17.7234 -21.1216 -18.2962 -23.6354 -15.1877 -15.587 -17.1975 -12.9362 -18.2 -13.6947 -13.6824 -12.8477 -17.8644 -14.5044 -16.3398 -12.5013 -8.7405 -10.586 -9.318501 -12.9969 -12.7551 -14.6435 -15.7744 -17.1582 -16.5746 
-19.3507 -24.9396 -21.1216 -27.4839 -23.6354 -22.4802 -17.1975 -21.5407 -18.2 -20.7129 -16.5442 -18.3076 -22.0221 -17.8644 -19.7082 -16.3398 -16.6208 -10.586 -14.0575 -12.9969 -16.1575 -16.8451 -21.3619 -21.0825 -19.6987 
-1.934 -2.3615 -3.8275 -5.0265 -3.959 -3.115 -3.9465 0 -4.2815 0 -4.559 0 -3.676 -1.756 -5.7685 -3.959 -3.115 -3.8655 0 -4.621 0 -3.982 -1.756 -4.1265 -3.152 -1.4985 -3.959 -8.17 -1.934 -8.087501 -4.085 0 
-3.539 -5.965 -8.34 -7.6085 -6.08 -7.165501 -3.9465 -4.2815 -4.2815 -4.559 -4.559 -3.676 -5.0365 -7.3325 -9.9405 -6.08 -7.156001 -3.8655 -4.621 -4.621 -3.982 -5.4715 -6.0545 -7.424 -4.764 -5.5 -13.2756 -9.6945 -9.883 -11.1415 -4.085 
-6.813 -11.2243 -10.7335 -9.677 -7.617 -7.165501 -7.134501 -4.2815 -7.999001 -4.559 -7.8885 -5.0365 -11.7178 -11.6829 -12.2057 -7.703 -7.156001 -8.1685 -4.621 -7.727 -5.4715 -6.947001 -8.01 -8.6745 -8.5275 -15.5972 -14.8001 -17.8165 -12.9944 -11.1415 
-12.2603 -13.6178 -12.802 -11.3846 -7.617 -9.376 -7.134501 -7.999001 -7.999001 -7.8885 -8.179501 -11.7178 -16.0682 -13.9481 -13.8287 -7.703 -12.0894 -8.1685 -7.727 -8.538501 -6.947001 -8.67 -9.056 -10.4345 -18.9141 -17.1217 -22.9221 -20.9279 -12.9944 
-14.6538 -15.6863 -14.5096 -11.3846 -9.812 -9.376 -9.1625 -7.999001 -10.218 -8.179501 -15.6186 -16.0682 -18.3334 -15.5711 -13.8287 -12.9938 -12.0894 -10.3965 -8.538501 -9.599501 -8.67 -9.7495 -10.4765 -20.8211 -20.4386 -25.2437 -26.0335 -20.9279 
