-4.759 
n/a 
n/a 
n/a 
n/a 
-4.759 
n/a 
n/a 
n/a 
n/a 
-4.759 
n/a 
n/a 
n/a 
n/a 
-4.759 
n/a 
n/a 
n/a 
n/a 
-4.628 -4.743 -3.0465 -4.712 -2.95 -3.7925 0 -4.0415 -3.4185 -2.186 -3.9785 -3.391 -2.872 -3.4775 -6.108 -3.098 -2.341 0 
-4.7515 -8.6955 -8.454 -8.502501 -7.2115 -3.7925 -4.0415 -7.2325 -5.5645 -7.186 -5.38 -6.2025 -5.986 -9.911 -9.198501 -5.324 -2.341 
-8.702001 -14.6368 -12.4653 -13.1796 -7.2115 -8.147 -7.2325 -8.421 -10.543 -7.999 -7.6105 -9.294001 -13.0377 -13.5003 -11.6369 -5.324 
-14.6573 -18.6481 -17.1424 -13.1796 -12.0508 -11.9206 -8.421 -13.8441 -11.356 -9.8225 -10.1345 -16.4153 -16.627 -15.9387 -11.6369 
-18.6686 -23.3252 -17.1424 -18.0189 -15.8244 -13.1091 -13.8441 -14.6571 -13.1795 -12.3805 -17.2558 -20.0046 -19.0654 -15.9387 
-2.5045 -1.4985 -2.95 -1.7565 -4.712 -3.7925 0 -1.7565 -3.277 -1.934 -4.628 -4.743 -2.229 -3.441 -4.348 -3.152 -5.2115 -1.7695 -4.761 -3.288 -1.756 -3.1015 -2.4265 -2.186 -4.3905 -2.3345 -2.341 0 
-3.1915 -3.9285 -4.3785 -5.672 -9.214001 -3.7925 -1.7565 -4.25 -4.5955 -5.9605 -4.7515 -6.5015 -5.5835 -5.7675 -6.44 -8.984501 -5.282 -6.548501 -7.1175 -4.834 -4.642 -4.9345 -3.292 -5.6375 -5.529 -5.3665 -2.341 
-4.5155 -4.676 -7.8905 -10.223 -9.214001 -5.573501 -4.25 -5.781 -9.326 -5.9845 -6.5135 -9.3855 -7.324 -7.528 -12.7847 -9.050501 -8.322001 -9.104501 -8.4075 -7.806 -5.919 -5.716 -7.452001 -6.395 -7.4535 -5.3665 
-4.837 -7.911 -12.7433 -10.223 -10.5985 -7.6415 -5.781 -10.199 -9.3645 -7.620501 -9.391001 -9.691 -9.034 -14.2061 -12.8507 -12.1385 -9.7865 -10.5135 -11.5569 -9.144 -6.653501 -9.307501 -8.269 -8.3245 -7.4535 
-8.007501 -12.769 -12.7433 -11.6075 -12.6665 -9.061501 -10.199 -10.2615 -11.1201 -10.9098 -9.6905 -11.487 -15.7843 -14.2721 -15.9387 -13.603 -11.3301 -13.6629 -12.8949 -9.896501 -10.218 -10.7695 -10.264 -8.3245 
-3.034 -6.6585 -3.7555 -4.712 -3.7925 0 -1.7565 -4.225 -3.9665 -2.8645 -4.761 -3.1385 -2.6165 -2.4265 -2.186 -4.3905 -2.3345 -2.341 0 
-10.468 -9.6805 -8.482 -9.214001 -3.7925 -1.7565 -5.1515 -6.6785 -6.369 -8.515501 -7.5225 -5.7965 -5.486 -3.292 -5.6375 -5.529 -5.3665 -2.341 
-13.49 -9.7305 -13.3592 -9.214001 -5.573501 -5.1515 -8.5535 -8.769501 -12.3748 -11.8396 -10.292 -8.954 -6.118001 -7.452001 -6.395 -7.4535 -5.3665 
-13.54 -16.7189 -13.3592 -10.5985 -10.4505 -8.5535 -11.3927 -14.8489 -15.6989 -14.6091 -13.4495 -10.209 -10.304 -8.269 -8.3245 -7.4535 
-20.5284 -16.7189 -14.7437 -15.4755 -13.8525 -11.3927 -17.4721 -18.173 -18.4684 -17.7666 -14.7045 -14.395 -11.4576 -10.264 -8.3245 
-3.2615 -3.8255 -4.712 0 -3.0365 -3.152 -3.7925 0 -1.7565 -1.4985 -3.999 -4.273 -3.1385 -1.934 -1.4985 -4.0415 0 -2.872 -2.3335 0 0 -2.8645 -4.368 -3.539 -2.3345 -2.341 0 -3.1015 
-5.910501 -9.1435 -4.712 -3.0365 -4.453 -7.322001 -3.7925 -1.7565 -2.4195 -4.7585 -8.625 -8.259001 -4.522 -2.6125 -4.9725 -4.0415 -2.872 -4.5445 -2.3335 0 -2.8645 -5.259 -6.2085 -5.323 -5.3665 -2.341 -3.1015 
-9.920501 -9.1435 -7.5505 -4.453 -7.880501 -7.322001 -5.573501 -2.4195 -5.772 -9.568501 -10.051 -9.4455 -5.087501 -5.753 -4.9725 -6.922 -4.5445 -4.5445 -2.3335 -2.8645 -5.259 -6.675 -7.8665 -7.541501 -5.3665 -6.06 
-9.920501 -12.1484 -8.575001 -7.880501 -7.880501 -9.079 -6.060501 -5.772 -10.4505 -11.0169 -11.2375 -10.2395 -7.681001 -5.753 -7.13 -8.547 -4.5445 -4.5445 -4.3785 -5.259 -6.675 -8.221001 -9.676001 -7.541501 -9.04 
-12.9856 -13.1729 -12.0419 -7.880501 -9.887001 -9.566 -9.140501 -10.4505 -11.8989 -12.2034 -12.0315 -12.833 -7.681001 -7.505 -8.7215 -8.547 -4.5445 -6.6355 -6.645 -6.675 -8.221001 -10.057 -9.676001 -11.4788 
