-4.759 
n/a 
n/a 
n/a 
n/a 
-4.759 
n/a 
n/a 
n/a 
n/a 
-4.759 
n/a 
n/a 
n/a 
n/a 
-4.759 
n/a 
n/a 
n/a 
n/a 
-3.5385 -1.756 -3.5585 -4.319 -1.7695 -4.3845 -2.356 -3.595 0 
-4.657 -5.159 -7.857 -5.752 -4.8485 -5.5085 -4.882 -3.595 
-7.419 -9.659 -8.6835 -9.08 -5.7935 -7.164 -4.882 
-12.218 -10.5655 -12.7813 -10.7722 -7.3935 -7.164 
-13.1245 -14.6633 -14.4735 -12.3722 -7.3935 
-3.5585 -1.756 -4.2 -2.4945 -3.383 -4.777 -1.7695 -4.3845 -2.356 -3.595 0 
-4.817 -5.5055 -5.831501 -4.732 -5.7745 -5.3865 -4.8485 -5.5085 -4.882 -3.595 
-6.006 -7.002 -7.681001 -6.4025 -6.2545 -8.548 -5.7935 -7.164 -4.882 
-7.62 -8.897 -9.4665 -6.7885 -9.6575 -9.092001 -7.3935 -7.164 
-9.6355 -10.1635 -10.16 -10.4967 -10.094 -10.61 -7.3935 
-3.5385 -1.756 -3.693 -3.465 -1.7695 -3.9075 -2.356 -3.595 
-4.657 -5.3355 -8.257 -3.665 -4.7445 -5.3505 -4.882 
-8.5485 -10.4185 -8.388 -5.8255 -5.8915 -6.963 
-14.1721 -10.5875 -10.8575 -7.1955 -7.376 
-14.3411 -13.057 -12.2275 -8.7735 
-3.5385 -1.756 -3.5585 -4.866 -1.7695 -3.9075 -1.7695 -3.595 0 
-4.657 -5.159 -7.17 -6.574 -4.7445 -4.778 -4.741 -3.595 
-7.419 -9.344001 -7.900001 -10.634 -5.271 -6.282001 -4.741 
-11.903 -10.1435 -12.86 -11.1605 -6.699501 -6.282001 
-12.7025 -15.2211 -13.3865 -12.589 -6.699501 
